File: 01_Data/MDF/Cone/MDF_HRRPUA_50.csv
Time after Ignition,MDF_R1,MDF_R2,MDF_R3,Mean,Std. Dev.
0.0,45.7,34.8,15.7,32.1,15.2
3.5,136.1,151.8,104.3,130.8,24.2
7.0,232.7,233.9,209.4,225.3,13.8
10.5,298.0,286.4,288.5,290.9,6.2
14.0,326.9,314.4,320.9,320.7,6.2
17.5,322.5,314.0,331.2,322.6,8.6
21.0,331.4,316.6,339.2,329.1,11.5
24.5,330.5,310.0,327.5,322.7,11.1
28.0,322.0,305.9,321.3,316.4,9.1
31.5,313.4,304.6,321.0,313.0,8.2
35.0,307.1,299.3,308.6,305.0,5.0
38.5,300.5,294.7,301.7,299.0,3.8
42.0,282.9,280.4,293.2,285.5,6.8
45.5,280.8,268.9,270.7,273.5,6.4
49.0,263.2,261.0,270.3,264.8,4.9
52.5,255.0,248.9,259.4,254.4,5.3
56.0,251.8,248.7,250.7,250.4,1.6
59.5,250.2,230.5,246.6,242.4,10.5
63.0,242.5,232.8,239.0,238.1,4.9
66.5,228.8,222.4,233.1,228.1,5.4
70.0,225.6,217.1,228.7,223.8,6.0
73.5,220.9,217.5,224.3,220.9,3.4
77.0,215.1,211.4,214.5,213.7,2.0
80.5,211.3,207.5,211.2,210.0,2.2
84.0,204.1,202.0,205.8,203.9,1.9
87.5,206.2,202.5,200.4,203.0,2.9
91.0,198.3,201.7,198.2,199.4,2.0
94.5,199.1,193.7,195.9,196.2,2.7
98.0,195.2,193.0,192.8,193.6,1.3
101.5,193.3,190.3,191.0,191.6,1.6
105.0,190.3,182.7,188.5,187.2,4.0
108.5,192.5,186.6,189.1,189.4,3.0
112.0,190.6,180.4,183.4,184.8,5.2
115.5,187.4,179.8,185.4,184.2,3.9
119.0,190.6,179.4,178.4,182.8,6.8
122.5,189.1,177.1,178.3,181.5,6.6
126.0,188.3,177.7,177.1,181.0,6.3
129.5,184.8,176.9,180.2,180.6,4.0
133.0,184.5,175.9,175.8,178.7,5.0
136.5,182.0,173.3,176.0,177.1,4.4
140.0,184.1,177.3,174.0,178.5,5.2
143.5,183.8,175.8,171.1,176.9,6.4
147.0,181.5,181.2,174.2,179.0,4.1
150.5,182.6,180.5,176.3,179.8,3.2
154.0,178.8,175.5,177.3,177.2,1.6
157.5,179.4,179.2,170.6,176.4,5.0
161.0,177.1,176.4,170.0,174.5,3.9
164.5,175.1,174.1,170.9,173.4,2.2
168.0,176.0,170.0,174.0,173.3,3.1
171.5,174.2,170.9,172.9,172.7,1.7
175.0,172.2,165.1,170.3,169.2,3.7
178.5,172.2,169.2,167.1,169.5,2.6
182.0,169.1,162.6,167.8,166.5,3.4
185.5,168.1,164.4,167.4,166.6,2.0
189.0,167.0,160.9,162.9,163.6,3.1
192.5,166.7,163.2,158.2,162.7,4.3
196.0,164.9,163.8,157.7,162.2,3.9
199.5,165.3,160.4,155.3,160.3,5.0
203.0,165.7,158.5,156.2,160.2,5.0
206.5,163.8,158.6,156.9,159.7,3.6
210.0,163.4,159.0,154.0,158.8,4.7
213.5,162.0,157.4,152.4,157.2,4.8
217.0,162.5,157.3,150.0,156.6,6.3
220.5,160.2,156.1,152.0,156.1,4.1
224.0,163.5,155.8,146.9,155.4,8.3
227.5,159.3,156.0,144.2,153.2,7.9
231.0,158.7,154.5,145.7,152.9,6.7
234.5,159.9,156.5,145.9,154.1,7.3
238.0,158.3,153.8,146.0,152.7,6.2
241.5,156.9,153.5,148.4,152.9,4.2
245.0,158.9,150.4,146.6,152.0,6.3
248.5,152.7,152.3,145.6,150.2,4.0
252.0,152.5,152.3,142.8,149.2,5.5
255.5,154.6,152.5,142.8,150.0,6.3
259.0,151.0,148.6,143.4,147.7,3.9
262.5,154.8,148.1,141.4,148.1,6.7
266.0,153.4,147.6,144.6,148.5,4.5
269.5,150.3,144.8,141.7,145.6,4.3
273.0,146.7,143.7,142.7,144.4,2.1
276.5,145.8,144.4,141.3,143.8,2.3
280.0,145.2,145.6,138.6,143.1,3.9
283.5,147.0,142.8,136.9,142.2,5.1
287.0,147.8,142.3,134.2,141.4,6.9
290.5,144.9,140.6,135.3,140.3,4.8
294.0,143.6,142.0,132.4,139.3,6.1
297.5,144.6,139.5,133.8,139.3,5.4
301.0,143.1,138.7,134.6,138.8,4.2
304.5,142.6,137.7,133.1,137.8,4.8
308.0,141.9,136.0,129.2,135.7,6.3
311.5,144.1,135.4,129.6,136.4,7.3
315.0,142.3,132.3,127.9,134.2,7.4
318.5,137.8,135.8,128.5,134.1,4.9
322.0,136.4,131.8,127.4,131.8,4.5
325.5,137.4,130.7,126.3,131.5,5.6
329.0,138.1,131.6,128.8,132.9,4.7
332.5,134.8,129.7,127.1,130.5,3.9
336.0,135.0,127.3,123.9,128.7,5.7
339.5,135.3,130.2,123.6,129.7,5.9
343.0,135.4,128.5,122.4,128.8,6.5
346.5,129.3,129.3,123.5,127.4,3.4
350.0,129.0,128.3,122.2,126.5,3.8
353.5,128.7,124.9,122.2,125.3,3.2
357.0,128.4,125.6,119.0,124.4,4.9
360.5,126.6,123.1,121.7,123.8,2.5
364.0,127.9,123.5,119.6,123.6,4.1
367.5,127.2,122.5,119.6,123.1,3.8
371.0,128.0,120.3,120.0,122.7,4.5
374.5,123.7,119.9,120.0,121.2,2.2
378.0,126.2,119.9,116.7,120.9,4.8
381.5,123.7,120.3,116.1,120.0,3.9
385.0,122.5,119.0,115.5,119.0,3.5
388.5,124.6,118.8,114.6,119.4,5.0
392.0,124.8,118.0,115.4,119.4,4.9
395.5,124.2,117.0,114.0,118.4,5.3
399.0,124.1,115.8,114.8,118.2,5.1
402.5,125.4,118.2,113.1,118.9,6.2
406.0,124.8,116.5,113.2,118.2,5.9
409.5,126.5,117.6,113.6,119.2,6.6
413.0,125.4,118.3,110.7,118.1,7.4
416.5,124.9,115.5,110.8,117.1,7.2
420.0,124.9,119.4,112.1,118.8,6.4
423.5,124.3,117.0,112.4,117.9,6.0
427.0,125.3,116.6,112.2,118.0,6.7
430.5,123.0,117.4,110.1,116.8,6.5
434.0,124.0,115.0,107.0,115.3,8.5
437.5,122.3,112.8,109.0,114.7,6.9
441.0,121.8,112.4,110.0,114.7,6.2
444.5,120.8,112.1,107.4,113.5,6.8
448.0,122.4,113.2,109.2,114.9,6.8
451.5,121.1,114.5,109.8,115.2,5.7
455.0,122.7,115.8,110.0,116.2,6.4
458.5,122.9,114.3,109.9,115.7,6.6
462.0,124.9,113.4,110.1,116.2,7.8
465.5,124.4,113.7,109.4,115.8,7.7
469.0,125.1,114.2,109.0,116.1,8.3
472.5,124.6,111.5,105.9,114.0,9.6
476.0,126.6,112.3,108.3,115.8,9.6
479.5,123.5,114.6,107.0,115.1,8.2
483.0,124.4,113.8,106.6,114.9,9.0
486.5,125.7,112.5,107.5,115.3,9.4
490.0,127.2,112.2,107.5,115.6,10.3
493.5,127.8,113.8,109.8,117.2,9.4
497.0,128.3,115.8,111.4,118.5,8.8
500.5,130.7,114.6,110.2,118.5,10.8
504.0,128.6,116.7,111.6,119.0,8.7
507.5,129.2,120.1,110.4,119.9,9.4
511.0,128.9,121.5,110.6,120.4,9.2
514.5,131.4,121.5,111.3,121.4,10.1
518.0,132.6,121.8,111.3,121.9,10.6
521.5,130.1,121.8,114.6,122.2,7.8
525.0,131.6,121.9,113.3,122.2,9.1
528.5,136.0,122.3,113.8,124.0,11.2
532.0,134.7,123.1,114.3,124.0,10.2
535.5,134.7,124.4,115.6,124.9,9.6
539.0,138.5,126.0,114.2,126.2,12.2
542.5,137.2,128.7,117.2,127.7,10.0
546.0,141.5,126.9,113.8,127.4,13.9
549.5,143.5,131.5,117.2,130.8,13.2
553.0,141.3,132.7,114.9,129.6,13.5
556.5,144.2,134.2,115.8,131.4,14.4
560.0,143.6,137.1,116.0,132.2,14.4
563.5,145.5,137.3,117.8,133.5,14.2
567.0,147.2,135.6,119.7,134.2,13.8
570.5,148.7,137.8,120.7,135.7,14.1
574.0,148.5,143.4,123.7,138.5,13.1
577.5,149.3,142.4,124.0,138.6,13.1
581.0,148.1,143.7,123.1,138.3,13.4
584.5,149.7,145.7,127.1,140.8,12.1
588.0,158.8,148.7,128.5,145.4,15.4
591.5,153.4,150.1,130.3,144.6,12.5
595.0,150.9,150.0,130.1,143.7,11.7
598.5,154.2,154.1,131.7,146.7,13.0
602.0,154.7,154.7,133.7,147.7,12.1
605.5,155.6,156.8,135.1,149.2,12.2
609.0,154.4,158.7,136.9,150.0,11.6
612.5,157.8,161.9,137.3,152.3,13.2
616.0,156.4,164.6,136.7,152.6,14.4
619.5,158.7,165.1,137.7,153.8,14.3
623.0,159.5,167.7,140.8,156.0,13.8
626.5,159.1,175.2,145.3,159.9,14.9
630.0,163.3,175.4,145.1,161.3,15.3
633.5,164.3,180.0,146.6,163.7,16.7
637.0,162.9,176.9,148.0,162.6,14.5
640.5,168.4,180.2,150.1,166.2,15.2
644.0,168.0,180.4,148.2,165.5,16.3
647.5,169.9,181.6,152.2,167.9,14.8
651.0,171.4,183.4,153.3,169.4,15.2
654.5,173.8,184.9,152.4,170.4,16.5
658.0,172.2,187.8,153.8,171.3,17.0
661.5,171.6,185.1,156.9,171.2,14.1
665.0,174.7,189.4,159.3,174.5,15.0
668.5,178.7,191.4,160.0,176.7,15.8
672.0,178.2,191.5,161.0,176.9,15.3
675.5,184.0,193.7,163.8,180.5,15.2
679.0,183.0,195.0,169.2,182.4,12.9
682.5,188.5,193.4,173.5,185.1,10.3
686.0,190.6,192.2,171.3,184.7,11.7
689.5,193.5,197.1,175.7,188.8,11.5
693.0,191.7,193.9,170.0,185.2,13.2
696.5,202.2,199.7,175.3,192.4,14.9
700.0,198.4,196.2,174.3,189.6,13.3
703.5,201.0,201.6,173.7,192.1,15.9
707.0,205.5,198.9,175.9,193.4,15.6
710.5,207.6,198.5,177.9,194.7,15.2
714.0,209.1,205.6,179.3,198.0,16.3
717.5,212.7,206.3,175.2,198.1,20.1
721.0,212.3,207.7,180.9,200.3,17.0
724.5,218.2,212.6,187.1,206.0,16.6
728.0,216.4,211.8,188.4,205.5,15.0
731.5,222.7,213.1,188.3,208.0,17.8
735.0,223.5,215.5,185.2,208.1,20.2
738.5,227.3,221.7,189.6,212.9,20.3
742.0,230.8,221.5,191.2,214.5,20.7
745.5,227.3,225.9,194.8,216.0,18.4
749.0,228.7,226.9,197.7,217.7,17.4
752.5,227.6,236.7,196.5,220.3,21.1
756.0,233.1,232.5,198.7,221.5,19.7
759.5,238.5,231.3,199.4,223.1,20.8
763.0,238.0,240.5,200.0,226.1,22.7
766.5,235.7,240.6,197.0,224.5,23.9
770.0,238.5,241.7,205.4,228.5,20.1
773.5,243.5,242.8,207.9,231.4,20.4
777.0,241.6,247.9,210.6,233.4,20.0
780.5,245.8,242.6,211.4,233.3,19.0
784.0,247.7,246.8,211.1,235.2,20.9
787.5,249.6,248.3,209.2,235.7,22.9
791.0,249.3,247.0,212.4,236.2,20.7
794.5,251.5,246.2,216.9,238.2,18.6
798.0,249.2,248.2,214.1,237.2,20.0
801.5,243.2,241.6,218.0,234.3,14.1
805.0,242.4,236.8,219.5,232.9,11.9
808.5,235.1,231.7,223.0,229.9,6.2
812.0,227.9,230.6,221.8,226.8,4.5
815.5,221.9,226.7,227.8,225.5,3.2
819.0,212.7,218.1,221.9,217.6,4.6
822.5,198.2,213.1,226.2,212.5,14.0
826.0,183.9,201.4,232.2,205.8,24.4
829.5,164.2,190.3,231.8,195.4,34.1
833.0,154.1,174.8,232.4,187.1,40.6
836.5,132.4,160.4,238.0,177.0,54.7
840.0,122.9,140.7,233.4,165.7,59.4
843.5,110.4,129.6,233.9,158.0,66.5
847.0,101.1,114.7,232.2,149.3,72.1
850.5,92.3,107.0,230.6,143.3,76.0
854.0,89.0,100.5,234.3,141.3,80.8
857.5,82.6,94.9,230.0,135.8,81.8
861.0,78.2,87.0,227.5,130.9,83.8
864.5,75.9,79.9,222.5,126.1,83.5
868.0,75.6,75.3,217.4,122.8,82.0
871.5,74.7,72.4,207.2,118.1,77.2
875.0,71.6,71.2,198.1,113.6,73.1
878.5,71.0,67.3,190.0,109.4,69.8
882.0,70.2,66.1,179.3,105.2,64.2
885.5,69.4,64.8,164.5,99.6,56.3
889.0,67.6,63.1,150.2,93.7,49.0
892.5,67.3,61.2,134.9,87.8,40.9
896.0,66.1,59.3,120.7,82.0,33.7
899.5,66.2,58.3,109.3,77.9,27.5
903.0,65.2,56.8,100.3,74.1,23.1
906.5,66.8,56.5,95.0,72.7,20.0
910.0,66.0,56.4,86.7,69.7,15.5
913.5,62.6,57.5,83.4,67.8,13.7
917.0,62.8,59.4,79.3,67.2,10.6
920.5,62.9,61.3,75.5,66.6,7.8
924.0,63.9,61.1,72.9,66.0,6.2
927.5,65.4,59.8,71.3,65.5,5.7
931.0,65.0,57.5,69.1,63.9,5.9
934.5,63.7,55.6,69.4,62.9,6.9
938.0,62.8,54.1,65.3,60.7,5.9
941.5,63.3,53.4,64.1,60.3,6.0
945.0,62.9,51.6,64.3,59.6,7.0
948.5,60.5,51.3,63.9,58.6,6.5
952.0,59.6,50.4,60.9,56.9,5.7
955.5,60.5,49.8,59.8,56.7,6.0
959.0,61.0,50.3,58.6,56.6,5.6
962.5,59.9,51.4,57.4,56.2,4.4
966.0,56.6,54.9,56.1,55.9,0.9
969.5,56.3,55.6,55.2,55.7,0.6
973.0,57.4,55.4,54.8,55.9,1.4
976.5,57.5,55.9,54.3,55.9,1.6
980.0,56.5,55.5,53.7,55.2,1.4
983.5,56.3,53.3,51.3,53.6,2.6
987.0,56.8,52.8,51.3,53.6,2.9
990.5,55.5,51.3,51.0,52.6,2.5
994.0,56.8,50.6,52.3,53.2,3.2
997.5,59.3,51.8,53.2,54.8,4.0
1001.0,62.8,53.5,53.4,56.6,5.4
1002.75,63.5,53.9,53.3,56.9,5.7