File: 01_Data/MDF/Cone/MDF_HRRPUA_25.csv
Time after Ignition,MDF_R1,MDF_R2,MDF_R3,Mean,Std. Dev.
0.0,2.9,21.4,31.5,18.6,14.5
4.5,75.8,111.7,121.5,103.0,24.0
9.0,159.7,192.8,196.1,182.9,20.1
13.5,204.4,229.9,227.7,220.7,14.2
18.0,236.1,240.3,239.5,238.6,2.2
22.5,239.3,239.3,238.3,239.0,0.6
27.0,241.6,238.1,236.7,238.8,2.5
31.5,241.9,236.0,230.6,236.2,5.6
36.0,231.1,226.6,221.1,226.3,5.0
40.5,222.1,220.9,207.6,216.9,8.0
45.0,213.2,209.0,201.2,207.8,6.1
49.5,203.3,200.2,197.6,200.4,2.8
54.0,197.7,194.3,188.5,193.5,4.6
58.5,187.0,185.7,176.4,183.0,5.8
63.0,189.5,179.8,176.4,181.9,6.8
67.5,177.9,172.6,170.2,173.6,3.9
72.0,166.0,165.1,163.6,164.9,1.2
76.5,159.9,162.5,158.1,160.2,2.2
81.0,155.5,153.9,153.0,154.1,1.3
85.5,156.6,150.1,150.5,152.4,3.7
90.0,149.5,149.2,143.9,147.6,3.2
94.5,146.9,144.9,141.2,144.3,2.9
99.0,144.8,140.9,136.5,140.7,4.2
103.5,142.1,137.1,133.0,137.4,4.5
108.0,137.8,134.9,129.7,134.1,4.1
112.5,131.4,129.6,128.2,129.7,1.6
117.0,131.7,127.4,126.9,128.7,2.6
121.5,129.3,125.8,121.9,125.7,3.7
126.0,126.9,124.4,123.4,124.9,1.8
130.5,125.9,121.6,120.7,122.7,2.8
135.0,124.7,123.2,118.8,122.2,3.0
139.5,122.7,120.6,118.3,120.6,2.2
144.0,118.8,119.6,115.5,118.0,2.2
148.5,115.7,121.0,116.1,117.6,2.9
153.0,117.5,119.4,115.3,117.4,2.1
157.5,116.3,117.3,113.9,115.8,1.7
162.0,113.1,115.9,113.3,114.1,1.6
166.5,110.6,112.8,112.0,111.8,1.1
171.0,111.8,111.4,111.4,111.5,0.3
175.5,109.2,110.4,110.6,110.1,0.8
180.0,106.5,110.1,111.0,109.2,2.4
184.5,106.7,111.2,108.0,108.6,2.3
189.0,103.5,110.2,108.6,107.4,3.5
193.5,102.3,106.7,106.1,105.0,2.4
198.0,102.1,103.8,104.6,103.5,1.3
202.5,101.5,102.0,103.5,102.4,1.0
207.0,102.7,101.7,101.8,102.1,0.6
211.5,100.8,103.0,101.7,101.9,1.1
216.0,99.2,105.6,100.7,101.8,3.4
220.5,99.7,103.7,98.9,100.7,2.6
225.0,99.4,101.1,97.7,99.4,1.7
229.5,97.9,99.4,95.6,97.7,1.9
234.0,97.6,101.9,97.8,99.1,2.4
238.5,97.3,99.1,97.5,97.9,1.0
243.0,96.4,99.3,98.4,98.0,1.5
247.5,95.7,99.1,96.9,97.2,1.7
252.0,97.6,97.3,96.3,97.1,0.7
256.5,93.4,97.2,94.2,94.9,2.0
261.0,93.0,95.6,94.6,94.4,1.3
265.5,92.4,95.1,93.4,93.6,1.4
270.0,92.7,94.6,93.9,93.7,1.0
274.5,91.0,96.0,90.9,92.6,2.9
279.0,90.5,94.7,92.7,92.6,2.1
283.5,91.7,93.5,93.1,92.7,1.0
288.0,92.0,92.2,91.4,91.9,0.4
292.5,92.4,93.7,91.0,92.4,1.3
297.0,90.1,93.3,91.3,91.6,1.6
301.5,93.8,92.4,90.6,92.3,1.6
306.0,92.1,92.4,88.4,91.0,2.2
310.5,90.7,93.5,90.3,91.5,1.7
315.0,89.4,91.7,88.1,89.7,1.8
319.5,89.5,93.6,89.3,90.8,2.4
324.0,89.9,93.0,87.2,90.1,2.9
328.5,90.8,93.4,86.9,90.4,3.3
333.0,87.6,93.9,86.6,89.4,4.0
337.5,87.8,93.0,87.7,89.5,3.0
342.0,89.7,92.2,87.9,89.9,2.2
346.5,90.1,89.9,85.3,88.4,2.7
351.0,88.5,90.0,85.3,87.9,2.4
355.5,86.3,90.6,85.2,87.4,2.9
360.0,86.9,89.7,85.2,87.3,2.2
364.5,86.1,88.4,84.9,86.5,1.8
369.0,86.3,88.0,84.8,86.4,1.6
373.5,88.0,87.2,83.8,86.3,2.3
378.0,87.6,87.5,83.8,86.3,2.2
382.5,85.4,87.9,83.7,85.7,2.1
387.0,87.0,87.7,84.5,86.4,1.7
391.5,84.3,87.5,84.8,85.5,1.7
396.0,84.3,87.7,86.1,86.0,1.7
400.5,85.1,87.3,85.9,86.1,1.1
405.0,84.3,87.2,83.0,84.8,2.1
409.5,85.2,87.9,84.4,85.8,1.8
414.0,84.1,86.6,83.7,84.8,1.6
418.5,84.0,85.7,82.1,83.9,1.8
423.0,82.9,85.3,83.2,83.8,1.3
427.5,83.5,84.6,83.9,84.0,0.5
432.0,82.2,84.5,82.8,83.2,1.2
436.5,81.5,84.1,82.7,82.8,1.3
441.0,79.8,83.2,82.0,81.7,1.7
445.5,80.1,82.6,83.3,82.0,1.7
450.0,79.6,82.3,83.2,81.7,1.9
454.5,77.8,82.9,81.6,80.8,2.7
459.0,78.4,81.3,82.4,80.7,2.1
463.5,79.5,81.2,82.8,81.1,1.7
468.0,78.4,81.7,81.6,80.5,1.9
472.5,77.0,80.6,82.4,80.0,2.8
477.0,77.2,80.2,81.5,79.6,2.2
481.5,76.7,78.9,80.0,78.5,1.7
486.0,77.9,77.4,80.4,78.6,1.6
490.5,77.5,77.9,80.2,78.5,1.5
495.0,75.1,77.7,80.7,77.8,2.8
499.5,76.4,78.5,79.2,78.0,1.4
504.0,75.5,78.3,81.0,78.2,2.7
508.5,76.9,78.3,79.4,78.2,1.3
513.0,77.2,76.0,80.5,77.9,2.4
517.5,75.1,78.7,80.7,78.2,2.8
522.0,75.6,76.8,78.2,76.9,1.3
526.5,75.2,78.1,78.1,77.2,1.7
531.0,75.9,76.5,78.7,77.0,1.5
535.5,75.7,75.0,77.3,76.0,1.2
540.0,74.6,73.7,75.6,74.7,1.0
544.5,74.6,75.6,79.0,76.4,2.3
549.0,74.1,75.2,77.7,75.7,1.8
553.5,73.4,76.0,78.6,76.0,2.6
558.0,72.9,76.4,76.7,75.3,2.1
562.5,72.7,76.6,77.2,75.5,2.4
567.0,71.7,77.3,75.3,74.8,2.8
571.5,72.4,74.0,76.4,74.3,2.0
576.0,71.2,73.5,75.8,73.5,2.3
580.5,71.7,74.0,77.1,74.3,2.7
585.0,72.4,73.7,76.0,74.0,1.8
589.5,70.1,73.4,75.9,73.1,2.9
594.0,69.4,71.6,76.1,72.4,3.4
598.5,70.0,71.9,75.9,72.6,3.0
603.0,70.6,70.6,75.9,72.4,3.0
607.5,70.1,72.1,75.9,72.7,3.0
612.0,69.3,71.0,76.5,72.3,3.8
616.5,68.5,70.3,77.4,72.1,4.7
621.0,69.0,70.3,75.0,71.5,3.2
625.5,68.9,69.8,75.9,71.5,3.8
630.0,69.4,70.4,75.5,71.8,3.3
634.5,72.8,69.3,75.7,72.6,3.2
639.0,73.7,70.4,74.5,72.9,2.2
643.5,72.0,69.4,74.5,71.9,2.5
648.0,71.6,69.6,75.0,72.0,2.7
652.5,69.6,69.8,74.4,71.2,2.7
657.0,68.8,71.0,76.5,72.1,4.0
661.5,69.3,71.0,76.8,72.4,3.9
666.0,69.7,70.8,76.6,72.4,3.7
670.5,70.3,71.3,77.0,72.9,3.6
675.0,69.1,70.3,78.2,72.5,4.9
679.5,68.6,71.8,77.7,72.7,4.6
684.0,68.9,69.8,79.3,72.7,5.7
688.5,70.5,72.3,79.1,74.0,4.5
693.0,71.9,72.8,79.5,74.7,4.2
697.5,70.8,72.6,78.9,74.1,4.3
702.0,69.5,73.9,81.3,74.9,6.0
706.5,70.5,74.2,80.1,74.9,4.9
711.0,73.4,72.3,80.8,75.5,4.6
715.5,73.3,73.5,81.2,76.0,4.5
720.0,74.3,73.8,81.9,76.7,4.6
724.5,74.0,73.8,82.0,76.6,4.7
729.0,74.8,72.7,82.8,76.8,5.3
733.5,75.0,73.1,83.8,77.3,5.7
738.0,74.7,75.1,82.8,77.5,4.5
742.5,74.5,76.4,85.4,78.8,5.8
747.0,74.2,78.5,84.3,79.0,5.0
751.5,78.6,77.3,84.1,80.0,3.6
756.0,79.2,79.1,85.6,81.3,3.7
760.5,79.5,78.3,85.5,81.1,3.9
765.0,78.5,78.6,86.8,81.3,4.8
769.5,79.3,78.6,87.1,81.6,4.7
774.0,78.7,78.5,87.3,81.5,5.0
778.5,79.3,80.4,89.5,83.1,5.6
783.0,80.3,79.4,91.5,83.7,6.8
787.5,81.7,81.9,91.1,84.9,5.4
792.0,81.2,85.4,89.1,85.2,3.9
796.5,82.1,85.2,91.1,86.1,4.5
801.0,85.3,85.1,94.2,88.2,5.2
805.5,84.7,84.3,93.7,87.5,5.3
810.0,86.6,86.0,92.6,88.4,3.6
814.5,87.3,86.7,95.7,89.9,5.0
819.0,88.9,86.5,95.9,90.4,4.9
823.5,88.7,87.3,97.1,91.0,5.3
828.0,89.5,88.2,95.8,91.1,4.1
832.5,90.2,87.7,96.8,91.6,4.7
837.0,91.9,91.1,99.7,94.2,4.7
841.5,91.2,93.2,100.0,94.8,4.6
846.0,93.6,95.5,99.9,96.3,3.2
850.5,93.0,94.4,102.6,96.7,5.2
855.0,94.7,95.0,104.2,98.0,5.4
859.5,96.6,94.9,105.0,98.8,5.4
864.0,97.8,95.3,106.5,99.9,5.9
868.5,100.1,98.1,106.6,101.6,4.5
873.0,100.7,99.7,107.9,102.8,4.5
877.5,103.3,98.2,110.2,103.9,6.0
882.0,104.2,97.6,110.7,104.2,6.5
886.5,105.5,103.1,114.5,107.7,6.0
891.0,107.2,103.5,116.3,109.0,6.6
895.5,106.7,106.4,114.8,109.3,4.8
900.0,113.5,107.7,116.3,112.5,4.4
904.5,111.6,108.6,121.6,113.9,6.8
909.0,115.3,111.9,122.7,116.6,5.5
913.5,118.3,112.4,125.8,118.8,6.7
918.0,118.0,114.6,123.9,118.9,4.7
922.5,121.7,117.6,128.2,122.5,5.3
927.0,120.3,119.9,133.0,124.4,7.4
931.5,123.8,120.6,135.9,126.8,8.0
936.0,127.3,126.3,140.7,131.4,8.1
940.5,130.1,129.2,138.6,132.7,5.2
945.0,130.6,131.8,142.7,135.1,6.7
949.5,136.0,135.6,148.9,140.2,7.6
954.0,140.0,141.0,151.7,144.2,6.5
958.5,139.7,145.3,156.7,147.3,8.6
963.0,144.8,145.0,158.1,149.3,7.6
967.5,146.1,149.7,158.5,151.4,6.4
972.0,150.3,151.5,166.5,156.1,9.0
976.5,155.1,154.1,168.2,159.2,7.9
981.0,155.2,158.7,172.5,162.1,9.1
985.5,160.5,163.2,177.7,167.2,9.3
990.0,161.7,165.9,179.7,169.1,9.4
994.5,165.9,172.7,184.6,174.4,9.5
999.0,166.2,175.3,189.6,177.0,11.8
1003.5,170.7,183.3,193.6,182.5,11.5
1008.0,172.3,185.5,199.8,185.9,13.7
1012.5,176.8,189.4,199.7,188.6,11.5
1017.0,180.9,188.5,204.4,191.3,12.0
1021.5,183.7,193.8,211.1,196.2,13.9
1026.0,184.2,202.2,210.7,199.0,13.5
1030.5,188.7,201.2,215.8,201.9,13.5
1035.0,192.2,208.0,217.3,205.8,12.7
1039.5,196.6,211.7,219.5,209.3,11.7
1044.0,205.2,212.0,218.7,212.0,6.7
1048.5,205.9,221.5,234.3,220.5,14.2
1053.0,212.0,214.8,231.0,219.3,10.3
1057.5,216.5,219.1,234.8,223.4,9.9
1062.0,212.8,225.8,238.9,225.8,13.0
1066.5,225.4,228.2,239.6,231.1,7.6
1071.0,224.3,228.6,245.4,232.8,11.2
1075.5,231.1,224.7,248.8,234.8,12.5
1080.0,236.8,224.4,251.9,237.7,13.8
1084.5,237.5,229.5,253.7,240.2,12.3
1089.0,247.9,235.9,258.3,247.4,11.3
1093.5,250.3,241.2,257.9,249.8,8.4
1098.0,249.3,241.6,256.4,249.1,7.4
1102.5,254.1,249.8,252.8,252.2,2.2
1107.0,261.3,248.0,245.6,251.6,8.4
1111.5,255.0,248.4,238.1,247.2,8.5
1116.0,254.6,247.5,226.6,242.9,14.6
1120.5,254.4,246.9,215.3,238.9,20.7
1125.0,253.2,238.2,198.2,229.9,28.4
1129.5,245.2,228.4,186.0,219.9,30.5
1134.0,236.1,209.7,168.6,204.8,34.0
1138.5,225.2,194.3,150.6,190.0,37.5
1143.0,206.2,173.6,141.6,173.8,32.3
1147.5,190.4,152.1,130.6,157.7,30.3
1152.0,172.0,141.2,122.0,145.1,25.2
1156.5,150.3,130.8,121.7,134.2,14.6
1161.0,138.9,121.5,113.7,124.7,12.9
1165.5,124.8,119.0,105.3,116.4,10.0
1170.0,120.4,112.3,102.0,111.6,9.2
1174.5,112.7,110.2,96.4,106.4,8.8
1179.0,104.1,104.2,91.3,99.9,7.4
1183.5,99.0,100.0,90.4,96.5,5.3
1188.0,90.7,97.4,83.4,90.5,7.0
1192.5,85.5,94.8,80.0,86.8,7.5
1197.0,82.1,91.8,81.1,85.0,5.9
1201.5,76.9,87.6,76.2,80.3,6.4
1206.0,73.6,82.2,74.6,76.8,4.7
1210.5,70.2,80.8,76.3,75.8,5.4
1215.0,67.9,79.6,77.3,74.9,6.2
1219.5,67.4,80.0,76.7,74.7,6.5
1224.0,67.0,77.2,72.7,72.3,5.1
1228.5,65.6,74.9,71.5,70.7,4.7
1233.0,62.7,77.6,72.9,71.1,7.7
1237.5,62.2,77.1,71.1,70.2,7.5
1242.0,62.7,75.4,70.2,69.5,6.4
1246.5,62.5,74.0,75.4,70.6,7.1
1251.0,65.1,72.9,73.8,70.6,4.8
1255.5,63.9,73.1,72.2,69.7,5.0
1260.0,63.2,74.5,69.2,69.0,5.6
1264.5,57.5,74.1,69.4,67.0,8.6
1269.0,60.5,73.6,67.2,67.1,6.6
1273.5,61.9,74.1,64.2,66.7,6.5
1278.0,61.8,73.3,58.6,64.6,7.7
1282.5,61.2,71.3,,66.3,7.2
1287.0,61.2,72.1,,66.6,7.7
1291.5,58.9,70.9,,64.9,8.5
1296.0,57.5,68.5,,63.0,7.8
1300.5,57.1,65.8,,61.5,6.2
1305.0,56.2,64.2,,60.2,5.7
1309.5,57.3,59.2,,58.3,1.3
1314.0,57.4,56.4,,56.9,0.7
1318.5,56.6,,,56.6,
1323.0,57.0,,,57.0,
1327.5,55.4,,,55.4,
1332.0,53.4,,,53.4,
1336.5,52.0,,,52.0,
1341.0,53.2,,,53.2,
1345.5,49.6,,,49.6,
1345.75,49.2,,,49.2,