File: 01_Data/PVC/Cone/PVC_HRRPUA_50.csv
Time after Ignition,PVC_R2,PVC_R3,PVC_R1,Mean,Std. Dev.
0.0,116.2,153.5,159.7,143.1,23.6
2.0,160.8,188.5,201.9,183.7,21.0
4.0,185.8,214.5,231.8,210.7,23.3
6.0,204.7,214.4,247.1,222.0,22.2
8.0,206.2,211.6,240.8,219.5,18.6
10.0,199.9,197.9,228.2,208.7,16.9
12.0,186.3,180.1,218.2,194.9,20.4
14.0,173.4,167.7,204.0,181.7,19.5
16.0,160.3,160.2,193.1,171.2,19.0
18.0,156.4,152.2,191.6,166.7,21.6
20.0,144.6,143.2,188.7,158.9,25.9
22.0,140.8,141.1,189.1,157.0,27.8
24.0,136.7,138.0,186.5,153.7,28.4
26.0,143.3,134.8,188.7,155.6,29.0
28.0,144.6,136.5,185.8,155.6,26.4
30.0,148.6,137.4,182.0,156.0,23.2
32.0,149.1,141.8,187.1,159.3,24.3
34.0,151.2,150.3,179.9,160.5,16.8
36.0,148.2,151.1,181.3,160.2,18.3
38.0,147.5,155.6,175.1,159.4,14.2
40.0,148.5,157.4,179.7,161.9,16.1
42.0,148.6,158.7,174.8,160.7,13.2
44.0,149.7,157.9,174.2,160.6,12.5
46.0,155.3,158.3,173.6,162.4,9.8
48.0,151.0,156.1,173.5,160.2,11.8
50.0,147.5,152.5,165.3,155.1,9.2
52.0,147.6,148.4,163.7,153.2,9.1
54.0,152.1,147.8,156.9,152.3,4.5
56.0,149.1,145.5,155.8,150.1,5.2
58.0,149.2,143.0,153.4,148.5,5.2
60.0,143.8,138.6,150.9,144.5,6.2
62.0,141.8,139.0,148.3,143.0,4.8
64.0,140.9,133.4,143.5,139.3,5.2
66.0,137.7,133.1,139.5,136.7,3.3
68.0,136.8,133.1,139.0,136.3,3.0
70.0,135.4,132.1,135.7,134.4,2.0
72.0,133.9,129.8,131.5,131.8,2.1
74.0,128.2,125.9,129.2,127.8,1.7
76.0,126.2,124.0,128.5,126.2,2.3
78.0,124.5,121.4,126.7,124.2,2.7
80.0,123.1,116.6,125.0,121.6,4.4
82.0,121.8,116.4,122.7,120.3,3.4
84.0,117.7,114.0,120.4,117.4,3.2
86.0,116.7,112.2,113.6,114.2,2.3
88.0,114.2,111.1,113.1,112.8,1.5
90.0,111.7,108.8,110.8,110.4,1.5
92.0,110.7,109.3,107.0,109.0,1.8
94.0,109.4,107.5,107.8,108.2,1.0
96.0,105.2,103.8,106.6,105.2,1.4
98.0,101.2,104.3,106.9,104.1,2.9
100.0,98.9,101.9,107.0,102.6,4.1
102.0,96.5,100.4,105.7,100.9,4.6
104.0,94.6,98.7,105.1,99.5,5.3
106.0,91.7,95.9,105.9,97.8,7.3
108.0,90.3,93.2,103.3,95.6,6.8
110.0,88.8,92.3,103.6,94.9,7.7
112.0,88.0,88.7,102.0,92.9,7.9
114.0,86.3,87.1,104.4,92.6,10.2
116.0,85.2,84.4,104.1,91.2,11.1
118.0,83.9,82.9,102.7,89.8,11.1
120.0,83.7,80.6,101.2,88.5,11.1
122.0,83.0,80.9,98.2,87.4,9.5
124.0,81.9,80.0,97.5,86.5,9.6
126.0,81.1,81.3,97.1,86.5,9.2
128.0,79.7,79.4,96.8,85.3,9.9
130.0,79.2,76.9,97.0,84.3,11.0
132.0,77.2,76.4,94.5,82.7,10.2
134.0,78.7,75.1,95.9,83.2,11.1
136.0,77.8,73.5,97.5,82.9,12.8
138.0,77.9,74.4,97.5,83.2,12.5
140.0,74.9,72.9,98.4,82.1,14.2
142.0,73.4,71.4,97.6,80.8,14.6
144.0,72.1,69.6,98.4,80.0,15.9
146.0,72.2,69.0,99.2,80.1,16.6
148.0,68.2,68.6,101.1,79.3,18.9
150.0,65.0,67.6,102.2,78.3,20.8
152.0,65.7,65.4,101.9,77.7,21.0
154.0,64.3,65.0,102.9,77.4,22.1
156.0,64.6,64.1,101.9,76.9,21.7
158.0,64.0,64.1,100.2,76.1,20.9
160.0,64.6,62.9,100.2,75.9,21.1
162.0,64.0,62.7,99.2,75.3,20.7
164.0,63.8,61.2,100.7,75.2,22.1
166.0,65.1,60.5,99.7,75.1,21.4
168.0,63.7,60.7,98.1,74.2,20.7
170.0,62.8,60.2,97.4,73.5,20.7
172.0,61.6,58.9,98.5,73.0,22.1
174.0,60.5,58.2,100.5,73.1,23.8
176.0,61.1,58.8,101.8,73.9,24.2
178.0,60.7,57.1,106.3,74.7,27.4
180.0,59.5,56.7,113.7,76.6,32.1
182.0,59.4,55.5,120.9,78.6,36.7
184.0,57.9,54.3,125.1,79.1,39.9
186.0,57.0,55.1,125.8,79.3,40.3
188.0,55.6,55.2,125.5,78.7,40.5
190.0,54.9,55.3,124.0,78.1,39.8
192.0,53.3,55.7,126.4,78.5,41.6
194.0,53.1,55.0,124.6,77.6,40.8
196.0,51.9,54.7,121.9,76.2,39.7
198.0,50.7,55.3,118.1,74.7,37.7
200.0,50.0,54.6,114.2,72.9,35.8
202.0,49.5,55.2,110.0,71.6,33.4
204.0,49.0,55.3,106.4,70.2,31.5
206.0,48.5,55.0,103.0,68.8,29.7
208.0,48.4,56.0,97.9,67.4,26.6
210.0,48.2,55.7,94.2,66.0,24.7
212.0,48.5,55.3,90.0,64.6,22.2
214.0,48.8,54.7,87.4,63.6,20.8
216.0,49.2,54.0,84.0,62.4,18.9
218.0,49.4,53.1,82.6,61.7,18.2
220.0,51.1,52.8,83.3,62.4,18.1
222.0,53.0,52.7,80.2,62.0,15.8
224.0,53.8,51.7,80.2,61.9,15.9
226.0,53.0,52.7,77.0,60.9,13.9
228.0,53.6,51.2,76.8,60.5,14.1
230.0,53.9,51.5,73.5,59.6,12.1
232.0,55.1,51.5,71.8,59.5,10.9
234.0,57.1,51.3,72.6,60.3,11.0
236.0,56.8,51.9,71.5,60.1,10.2
238.0,56.0,52.6,73.1,60.6,11.0
240.0,58.0,53.5,75.5,62.3,11.6
242.0,58.6,54.9,76.8,63.4,11.7
244.0,61.0,57.7,74.5,64.4,8.9
246.0,62.7,62.5,74.9,66.7,7.1
248.0,62.0,65.4,74.6,67.4,6.5
250.0,63.7,68.0,73.0,68.2,4.7
252.0,64.6,70.9,72.2,69.2,4.1
254.0,64.7,71.9,69.5,68.7,3.6
256.0,65.9,73.6,67.2,68.9,4.1
258.0,68.4,75.1,66.0,69.8,4.7
260.0,68.3,78.4,63.6,70.1,7.6
262.0,69.3,78.8,63.8,70.6,7.6
264.0,68.6,81.3,63.2,71.1,9.3
266.0,71.2,81.2,62.8,71.7,9.2
268.0,70.1,83.0,61.7,71.6,10.8
270.0,72.5,85.0,63.0,73.5,11.1
272.0,73.6,88.8,61.9,74.8,13.5
274.0,73.4,91.5,62.5,75.8,14.6
276.0,74.7,94.2,62.8,77.3,15.8
278.0,73.2,94.6,62.8,76.9,16.2
280.0,72.3,92.9,63.4,76.2,15.2
282.0,74.2,93.8,64.2,77.4,15.1
284.0,74.2,94.0,64.3,77.5,15.1
286.0,74.7,92.6,64.6,77.3,14.2
288.0,72.4,92.1,65.2,76.6,13.9
290.0,70.9,92.8,64.2,76.0,15.0
292.0,68.4,90.4,63.9,74.2,14.2
294.0,65.9,90.5,63.9,73.4,14.8
296.0,65.6,89.6,63.4,72.9,14.5
298.0,64.1,88.8,62.8,71.9,14.6
300.0,62.5,89.7,63.6,72.0,15.4
302.0,61.6,91.9,63.8,72.4,16.9
304.0,60.9,89.1,63.8,71.3,15.5
306.0,60.3,92.7,64.5,72.5,17.6
308.0,59.5,91.9,66.3,72.6,17.0
310.0,57.9,91.4,66.1,71.8,17.4
312.0,56.2,90.9,64.7,70.6,18.0
314.0,55.1,92.8,63.7,70.5,19.8
316.0,56.5,95.4,64.5,72.1,20.5
318.0,58.2,98.6,66.1,74.3,21.4
320.0,59.8,99.8,68.7,76.1,21.0
322.0,63.6,102.5,70.1,78.7,20.9
324.0,66.9,106.8,72.9,82.2,21.5
326.0,69.6,108.6,77.7,85.3,20.6
328.0,75.8,109.5,80.7,88.7,18.2
330.0,82.3,112.4,83.5,92.8,17.1
332.0,88.1,109.6,84.6,94.1,13.6
334.0,94.4,110.2,85.8,96.8,12.4
336.0,102.9,107.9,86.2,99.0,11.4
338.0,107.3,105.2,84.8,99.1,12.4
340.0,111.0,106.3,83.0,100.1,15.0
342.0,112.6,104.6,82.1,99.8,15.8
344.0,110.5,102.7,81.3,98.1,15.1
346.0,109.8,99.3,79.7,96.3,15.3
348.0,107.8,94.3,78.9,93.7,14.5
350.0,105.9,87.8,79.0,90.9,13.7
352.0,101.5,84.1,75.6,87.1,13.2
354.0,95.8,81.0,74.6,83.8,10.9
356.0,94.7,78.0,72.5,81.7,11.6
358.0,92.0,73.9,70.9,78.9,11.4
360.0,92.4,71.3,69.0,77.6,12.9
362.0,94.3,69.6,67.7,77.2,14.8
364.0,96.2,66.1,66.3,76.2,17.3
366.0,102.5,63.7,64.2,76.8,22.2
368.0,104.5,62.2,64.0,76.9,23.9
370.0,107.2,61.4,63.1,77.2,26.0
372.0,106.7,58.5,62.2,75.8,26.8
374.0,107.6,55.8,61.8,75.1,28.4
376.0,106.9,55.6,61.7,74.7,28.1
378.0,106.3,53.4,60.8,73.5,28.6
380.0,104.5,51.7,59.4,71.9,28.6
382.0,103.5,49.7,60.0,71.1,28.6
384.0,101.5,48.0,59.4,69.6,28.2
386.0,98.8,46.5,60.4,68.6,27.1
388.0,95.8,44.5,60.7,67.0,26.3
390.0,93.0,42.9,60.7,65.5,25.4
392.0,89.2,41.8,59.9,63.6,23.9
394.0,83.6,40.1,59.6,61.1,21.8
396.0,79.6,38.5,58.2,58.8,20.5
398.0,75.3,38.8,57.2,57.1,18.2
400.0,72.3,40.2,57.2,56.6,16.1
402.0,71.4,44.4,57.6,57.8,13.5
404.0,69.8,48.0,56.7,58.2,11.0
406.0,65.3,50.7,57.3,57.8,7.3
408.0,63.3,54.3,58.2,58.6,4.5
410.0,61.8,56.2,58.2,58.8,2.8
412.0,59.2,56.5,56.8,57.5,1.5
414.0,58.0,56.8,55.8,56.9,1.1
416.0,56.7,57.4,53.5,55.9,2.1
418.0,56.2,57.5,51.8,55.2,3.0
420.0,54.1,55.7,50.0,53.3,2.9
422.0,52.3,55.0,50.5,52.6,2.3
424.0,50.6,53.3,49.5,51.1,1.9
426.0,50.9,52.8,49.3,51.0,1.7
428.0,49.7,53.1,48.3,50.4,2.5
430.0,48.7,51.1,47.9,49.2,1.7
432.0,48.2,50.2,47.5,48.6,1.4
434.0,47.0,50.1,47.4,48.2,1.7
436.0,46.1,49.9,45.9,47.3,2.2
438.0,44.9,47.9,45.5,46.1,1.6
440.0,44.1,46.9,44.3,45.1,1.6
442.0,44.5,45.8,42.1,44.2,1.9
444.0,43.5,46.0,41.4,43.6,2.3
446.0,43.0,44.4,40.9,42.8,1.8
448.0,42.6,43.2,39.6,41.8,1.9
450.0,41.9,42.9,37.8,40.9,2.7
452.0,40.9,42.3,38.1,40.4,2.1
454.0,39.8,41.0,37.6,39.4,1.7
456.0,39.2,42.4,36.7,39.4,2.8
458.0,38.4,41.3,35.2,38.3,3.1
460.0,39.5,41.6,33.9,38.3,4.0
462.0,40.8,41.8,33.2,38.6,4.7
464.0,40.7,41.9,31.6,38.1,5.6
466.0,40.9,42.0,31.1,38.0,6.0
468.0,40.6,41.6,30.2,37.5,6.3
470.0,40.9,41.6,29.0,37.2,7.1
472.0,40.4,42.0,28.4,36.9,7.4
474.0,41.4,41.7,27.0,36.7,8.4
476.0,42.2,41.6,25.3,36.4,9.6
478.0,42.0,41.4,24.1,35.8,10.1
480.0,43.5,40.6,23.2,35.8,11.0
482.0,43.9,41.0,22.6,35.8,11.6
484.0,45.0,40.7,21.8,35.9,12.3
486.0,45.8,40.2,21.4,35.8,12.8
488.0,47.0,39.3,,43.2,5.4
490.0,47.5,39.1,,43.3,6.0
492.0,47.7,38.1,,42.9,6.8
494.0,49.5,38.4,,44.0,7.8
496.0,50.2,38.6,,44.4,8.2
498.0,50.7,38.4,,44.5,8.7
500.0,51.3,38.2,,44.8,9.3
502.0,51.7,38.6,,45.2,9.3
504.0,52.7,38.2,,45.4,10.3
506.0,52.8,38.0,,45.4,10.5
508.0,53.2,37.6,,45.4,11.0
510.0,53.3,36.2,,44.8,12.1
512.0,54.7,35.9,,45.3,13.3
514.0,55.6,35.2,,45.4,14.5
516.0,56.2,33.9,,45.1,15.8
518.0,56.9,33.3,,45.1,16.7
520.0,57.2,32.0,,44.6,17.8
522.0,57.9,31.9,,44.9,18.4
524.0,58.5,31.4,,44.9,19.2
526.0,58.7,29.6,,44.2,20.6
528.0,58.7,30.0,,44.4,20.3
530.0,58.0,29.1,,43.5,20.4
532.0,57.6,28.0,,42.8,20.9
534.0,56.7,26.7,,41.7,21.2
536.0,55.9,25.8,,40.8,21.3
538.0,52.9,24.5,,38.7,20.1
540.0,50.1,23.3,,36.7,19.0
542.0,48.4,22.8,,35.6,18.1
544.0,45.3,21.8,,33.5,16.6
546.0,42.5,21.0,,31.8,15.2
548.0,40.0,20.1,,30.1,14.0
550.0,35.5,19.4,,27.5,11.4
552.0,31.4,19.0,,25.2,8.8
554.0,29.0,17.5,,23.3,8.1
556.0,25.6,16.1,,20.9,6.7
558.0,23.0,15.3,,19.2,5.4
560.0,20.7,14.3,,17.5,4.6
562.0,19.7,,,19.7,
563.5,18.8,,,18.8,