File: 01_Data/PVC/Cone/PVC_HRRPUA_75.csv
Time after Ignition,PVC_R1,PVC_R2,PVC_R3,Mean,Std. Dev.
0.0,221.5,199.8,183.4,201.6,19.1
1.25,250.8,236.1,228.1,238.3,11.5
2.5,275.1,262.5,255.5,264.4,10.0
3.75,289.9,290.0,282.0,287.3,4.6
5.0,296.2,301.5,295.3,297.7,3.4
6.25,301.8,305.7,306.9,304.8,2.7
7.5,282.6,306.5,310.2,299.8,15.0
8.75,245.8,312.3,303.9,287.3,36.2
10.0,233.1,316.6,305.3,285.0,45.3
11.25,204.7,311.4,312.0,276.0,61.8
12.5,203.4,318.3,309.0,276.9,63.8
13.75,189.3,318.7,295.7,267.9,69.1
15.0,188.6,314.4,307.5,270.1,70.7
16.25,203.0,317.7,311.9,277.5,64.6
17.5,219.9,313.2,309.1,280.7,52.8
18.75,250.0,315.6,308.4,291.3,36.0
20.0,256.8,297.6,304.1,286.2,25.6
21.25,267.0,287.0,303.2,285.7,18.1
22.5,272.6,274.3,294.3,280.4,12.0
23.75,264.5,262.5,271.6,266.2,4.8
25.0,266.3,255.0,267.2,262.8,6.8
26.25,255.3,254.1,256.9,255.4,1.4
27.5,249.2,249.0,250.9,249.7,1.0
28.75,235.5,242.9,242.6,240.3,4.2
30.0,236.3,238.9,235.9,237.0,1.6
31.25,229.4,233.8,230.3,231.2,2.3
32.5,216.2,229.0,223.6,222.9,6.4
33.75,218.9,225.0,220.7,221.5,3.2
35.0,203.2,227.2,220.1,216.8,12.4
36.25,201.0,226.4,219.7,215.7,13.2
37.5,199.2,217.1,216.4,210.9,10.2
38.75,196.4,218.6,211.2,208.7,11.3
40.0,195.3,211.3,207.6,204.7,8.4
41.25,191.2,212.1,207.7,203.7,11.0
42.5,189.0,206.0,206.9,200.6,10.1
43.75,187.5,201.8,202.8,197.4,8.6
45.0,180.9,198.1,200.5,193.2,10.7
46.25,178.6,196.9,199.9,191.8,11.5
47.5,179.8,190.6,197.1,189.2,8.8
48.75,182.1,190.4,194.7,189.1,6.4
50.0,177.6,181.7,192.9,184.1,7.9
51.25,177.5,184.4,190.3,184.1,6.4
52.5,177.3,182.7,190.3,183.5,6.6
53.75,175.5,185.5,187.5,182.8,6.4
55.0,171.5,179.9,189.3,180.2,8.9
56.25,171.7,180.3,187.7,179.9,8.0
57.5,170.0,179.6,183.2,177.6,6.8
58.75,169.6,179.6,180.1,176.5,5.9
60.0,166.5,177.9,180.3,174.9,7.4
61.25,167.9,173.4,177.0,172.8,4.6
62.5,169.0,174.6,178.4,174.0,4.7
63.75,165.1,176.1,174.5,171.9,5.9
65.0,165.1,173.7,174.8,171.2,5.3
66.25,163.3,171.4,172.0,168.9,4.9
67.5,163.4,170.3,173.7,169.1,5.3
68.75,164.0,168.9,175.0,169.3,5.5
70.0,162.5,166.7,172.1,167.1,4.8
71.25,162.4,165.2,169.7,165.8,3.6
72.5,158.7,163.1,166.1,162.6,3.7
73.75,156.9,162.1,163.7,160.9,3.6
75.0,155.0,160.9,161.3,159.0,3.5
76.25,153.1,159.3,162.4,158.3,4.7
77.5,152.0,158.2,163.3,157.8,5.7
78.75,152.0,158.7,162.6,157.8,5.4
80.0,147.0,156.6,162.3,155.3,7.7
81.25,145.7,153.7,166.2,155.2,10.3
82.5,143.6,154.0,161.6,153.1,9.0
83.75,140.0,151.9,162.9,151.6,11.4
85.0,136.8,146.7,165.9,149.8,14.8
86.25,134.8,147.1,161.0,147.6,13.1
87.5,134.0,147.1,157.8,146.3,11.9
88.75,129.3,143.8,159.6,144.2,15.1
90.0,130.0,145.0,160.2,145.1,15.1
91.25,129.6,142.7,157.4,143.2,13.9
92.5,128.6,141.7,155.2,141.8,13.3
93.75,128.2,138.4,158.0,141.6,15.1
95.0,128.3,140.2,158.2,142.2,15.1
96.25,127.1,137.3,156.0,140.1,14.6
97.5,126.3,139.2,155.9,140.5,14.8
98.75,124.8,139.0,153.6,139.1,14.4
100.0,124.8,136.2,152.1,137.7,13.7
101.25,122.7,135.9,151.2,136.6,14.3
102.5,123.5,138.0,150.9,137.5,13.7
103.75,119.4,137.7,150.8,136.0,15.8
105.0,121.0,139.5,148.2,136.2,13.9
106.25,120.8,135.2,142.6,132.9,11.1
107.5,124.5,138.2,143.7,135.5,9.9
108.75,122.5,139.1,143.8,135.1,11.2
110.0,120.5,140.3,142.7,134.5,12.2
111.25,121.1,141.0,144.1,135.4,12.5
112.5,118.4,139.2,142.3,133.3,13.0
113.75,121.4,141.3,141.7,134.8,11.6
115.0,120.1,142.8,144.0,135.6,13.5
116.25,122.0,145.4,138.4,135.3,12.0
117.5,122.9,152.1,140.2,138.4,14.7
118.75,121.5,151.4,141.1,138.0,15.2
120.0,125.5,155.4,141.4,140.8,15.0
121.25,123.9,158.5,141.2,141.2,17.3
122.5,125.2,159.7,141.3,142.1,17.2
123.75,124.4,165.3,141.1,143.6,20.6
125.0,126.3,166.8,142.8,145.3,20.4
126.25,127.6,170.5,144.4,147.5,21.6
127.5,127.0,169.7,145.8,147.5,21.4
128.75,126.8,174.2,149.6,150.2,23.7
130.0,129.9,171.4,146.5,149.3,20.9
131.25,129.4,174.1,148.4,150.6,22.4
132.5,130.5,170.2,150.0,150.3,19.9
133.75,131.6,168.6,149.0,149.7,18.5
135.0,128.7,165.6,150.4,148.2,18.5
136.25,132.5,160.5,150.4,147.8,14.2
137.5,133.7,163.4,148.8,148.7,14.8
138.75,137.0,160.0,148.4,148.5,11.5
140.0,135.5,157.7,150.7,147.9,11.4
141.25,136.7,156.3,151.4,148.1,10.2
142.5,138.0,155.7,152.0,148.6,9.3
143.75,135.4,159.2,151.2,148.6,12.1
145.0,137.4,159.1,151.5,149.4,11.0
146.25,137.4,158.9,154.4,150.2,11.3
147.5,138.0,156.8,151.7,148.8,9.8
148.75,137.2,157.7,147.3,147.4,10.3
150.0,139.0,155.6,147.4,147.3,8.3
151.25,135.4,153.5,144.5,144.5,9.1
152.5,135.5,153.5,143.4,144.2,9.0
153.75,132.3,147.5,140.3,140.0,7.6
155.0,131.8,148.1,139.2,139.7,8.2
156.25,135.8,142.4,139.3,139.1,3.3
157.5,134.8,141.8,137.0,137.9,3.5
158.75,134.5,139.6,134.9,136.3,2.8
160.0,131.2,138.6,131.0,133.6,4.3
161.25,131.0,138.2,129.8,133.0,4.5
162.5,133.0,132.4,131.0,132.1,1.0
163.75,134.8,130.7,129.8,131.8,2.7
165.0,133.0,130.5,127.0,130.2,3.0
166.25,133.9,129.0,128.2,130.4,3.1
167.5,133.0,125.8,127.6,128.8,3.7
168.75,132.2,124.3,126.5,127.7,4.1
170.0,134.6,124.4,125.3,128.1,5.6
171.25,132.7,120.8,127.4,127.0,5.9
172.5,130.1,122.2,126.7,126.3,4.0
173.75,131.4,120.9,127.3,126.5,5.3
175.0,133.0,119.8,127.5,126.8,6.7
176.25,130.9,118.4,128.0,125.8,6.5
177.5,130.5,115.0,126.7,124.1,8.1
178.75,132.0,113.6,129.0,124.9,9.8
180.0,131.0,112.7,125.7,123.2,9.4
181.25,131.2,110.9,126.2,122.8,10.6
182.5,131.0,110.0,126.4,122.5,11.0
183.75,127.2,111.2,123.3,120.6,8.4
185.0,124.4,109.6,123.6,119.2,8.3
186.25,127.4,107.5,123.1,119.3,10.5
187.5,125.0,107.5,119.9,117.5,9.0
188.75,126.1,108.2,120.2,118.2,9.1
190.0,123.1,107.7,117.5,116.1,7.8
191.25,120.4,104.9,114.5,113.3,7.8
192.5,120.2,103.4,113.4,112.3,8.4
193.75,117.9,104.1,111.6,111.2,6.9
195.0,115.8,101.6,110.0,109.2,7.1
196.25,115.2,100.5,109.6,108.4,7.4
197.5,111.1,98.3,106.9,105.5,6.5
198.75,106.9,98.0,105.8,103.6,4.8
200.0,108.3,97.4,104.7,103.5,5.5
201.25,106.9,96.7,104.3,102.6,5.3
202.5,105.9,95.7,103.1,101.6,5.3
203.75,102.0,94.4,101.9,99.4,4.3
205.0,99.2,94.2,100.7,98.0,3.4
206.25,98.4,93.9,100.3,97.5,3.3
207.5,97.4,93.4,98.3,96.4,2.6
208.75,97.1,92.9,98.8,96.2,3.1
210.0,95.5,91.8,97.9,95.1,3.1
211.25,94.5,92.2,98.7,95.1,3.3
212.5,94.1,91.6,97.3,94.3,2.9
213.75,93.2,91.7,97.7,94.2,3.1
215.0,94.3,91.6,96.7,94.2,2.5
216.25,92.5,90.3,96.4,93.1,3.1
217.5,92.5,91.1,95.5,93.0,2.3
218.75,91.8,90.1,94.6,92.2,2.3
220.0,91.2,90.2,95.0,92.1,2.5
221.25,90.6,89.7,93.3,91.2,1.9
222.5,91.0,88.6,93.6,91.1,2.5
223.75,87.9,87.4,92.3,89.2,2.7
225.0,87.4,87.4,92.4,89.1,2.9
226.25,87.2,84.9,92.0,88.0,3.7
227.5,86.1,83.0,92.1,87.1,4.6
228.75,86.7,81.2,91.9,86.6,5.4
230.0,87.9,79.7,89.4,85.7,5.2
231.25,86.5,78.3,90.6,85.1,6.3
232.5,84.6,77.3,90.3,84.1,6.5
233.75,84.4,77.3,90.0,83.9,6.3
235.0,84.7,76.4,89.3,83.4,6.5
236.25,85.0,76.5,89.0,83.5,6.4
237.5,84.2,76.4,89.6,83.4,6.6
238.75,83.6,74.7,88.7,82.3,7.1
240.0,82.4,74.8,88.7,82.0,7.0
241.25,79.7,73.7,88.4,80.6,7.4
242.5,80.7,74.5,88.6,81.3,7.1
243.75,80.3,73.6,86.5,80.1,6.4
245.0,80.2,73.6,85.9,79.9,6.1
246.25,78.6,74.5,85.9,79.7,5.8
247.5,78.2,72.5,84.4,78.4,5.9
248.75,78.2,72.8,83.0,78.0,5.1
250.0,76.7,73.5,83.4,77.9,5.0
251.25,76.6,73.6,82.9,77.7,4.7
252.5,75.6,74.1,82.1,77.3,4.3
253.75,76.1,74.0,81.9,77.3,4.1
255.0,76.1,73.4,82.2,77.2,4.5
256.25,74.9,73.0,79.5,75.8,3.4
257.5,75.6,71.5,79.9,75.7,4.2
258.75,75.1,71.2,79.5,75.3,4.1
260.0,73.2,69.9,79.7,74.2,5.0
261.25,72.4,69.0,77.9,73.1,4.4
262.5,73.1,68.9,79.4,73.8,5.2
263.75,73.4,67.5,78.0,73.0,5.3
265.0,72.0,66.0,78.1,72.1,6.0
266.25,71.8,65.2,75.8,70.9,5.4
267.5,71.7,64.0,76.7,70.8,6.4
268.75,71.7,63.0,74.8,69.8,6.1
270.0,71.5,61.7,73.9,69.0,6.4
271.25,69.8,62.0,73.9,68.6,6.0
272.5,69.2,59.1,73.0,67.1,7.2
273.75,69.8,60.2,74.6,68.2,7.3
275.0,69.1,57.8,73.0,66.6,7.9
276.25,69.4,58.2,72.2,66.6,7.4
277.5,68.0,58.2,71.7,66.0,7.0
278.75,67.3,57.4,71.9,65.5,7.4
280.0,67.7,56.4,71.2,65.1,7.8
281.25,67.4,56.0,70.0,64.5,7.5
282.5,67.8,55.8,69.9,64.5,7.6
283.75,67.5,54.2,66.9,62.9,7.5
285.0,67.4,54.0,67.6,63.0,7.8
286.25,66.5,52.7,66.1,61.8,7.9
287.5,64.8,52.8,66.3,61.3,7.4
288.75,63.9,51.0,64.0,59.6,7.5
290.0,63.4,50.1,64.6,59.4,8.1
291.25,63.4,50.2,62.7,58.8,7.5
292.5,63.0,50.7,62.7,58.8,7.0
293.75,61.5,49.9,60.8,57.4,6.5
295.0,60.1,49.1,61.5,56.9,6.8
296.25,60.5,47.9,60.0,56.1,7.1
297.5,57.6,46.7,59.5,54.6,6.9
298.75,56.1,45.1,58.4,53.2,7.1
300.0,56.1,44.6,58.1,52.9,7.3
301.25,54.9,43.4,58.4,52.2,7.9
302.5,52.9,,56.2,54.6,2.4
303.75,52.0,,55.5,53.8,2.5
305.0,52.4,,54.9,53.7,1.7
306.25,50.5,,53.7,52.1,2.2
307.5,50.5,,55.1,52.8,3.3
308.75,49.1,,52.8,51.0,2.6
310.0,47.7,,52.4,50.1,3.3
311.25,46.7,,52.8,49.8,4.3
312.5,45.0,,51.0,48.0,4.2
313.75,43.9,,50.4,47.1,4.6
315.0,42.3,,49.8,46.0,5.3
316.25,39.8,,49.6,44.7,6.9
317.5,38.7,,48.7,43.7,7.1
318.75,38.0,,47.7,42.9,6.9
320.0,35.9,,47.7,41.8,8.3
321.25,35.5,,46.1,40.8,7.5
322.5,34.9,,45.5,40.2,7.5
323.75,33.5,,45.6,39.6,8.5
325.0,31.6,,45.4,38.5,9.8
326.25,29.6,,45.6,37.6,11.3
327.5,27.9,,44.4,36.2,11.6
328.5,26.6,,43.9,35.2,12.2