File: 01_Data/Black_PMMA/FTIR/IS/Black_PMMA_IS_S_221012_R2.dpt
7497.03,0.04775
7473.89,0.05528
7450.74,0.05376
7427.6,0.04371
7404.45,0.04803
7381.31,0.05727
7358.16,0.04611
7335.02,0.04675
7311.87,0.05593
7288.73,0.05063
7265.58,0.04996
7242.44,0.05764
7219.29,0.06232
7196.15,0.05824
7173,0.05576
7149.86,0.05200
7126.71,0.05287
7103.57,0.04926
7080.42,0.05602
7057.28,0.05355
7034.13,0.04824
7010.99,0.04940
6987.84,0.05036
6964.7,0.05370
6941.55,0.05377
6918.41,0.05459
6895.26,0.05546
6872.12,0.05743
6848.97,0.05483
6825.83,0.04749
6802.68,0.05331
6779.54,0.05595
6756.39,0.05412
6733.25,0.05174
6710.1,0.05991
6686.96,0.04812
6663.82,0.04966
6640.67,0.05101
6617.53,0.04792
6594.38,0.05149
6571.24,0.05064
6548.09,0.05026
6524.95,0.05014
6501.8,0.05036
6478.66,0.05288
6455.51,0.05414
6432.37,0.04843
6409.22,0.04985
6386.08,0.05023
6362.93,0.05457
6339.79,0.05222
6316.64,0.05135
6293.5,0.05243
6270.35,0.05081
6247.21,0.05307
6224.06,0.05439
6200.92,0.04973
6177.77,0.05375
6154.63,0.05469
6131.48,0.05452
6108.34,0.05452
6085.19,0.05208
6062.05,0.05351
6038.9,0.05254
6015.76,0.05119
5992.61,0.04898
5969.47,0.04903
5946.32,0.05441
5923.18,0.05231
5900.03,0.05181
5876.89,0.05195
5853.74,0.04915
5830.6,0.05205
5807.45,0.05088
5784.31,0.05098
5761.16,0.05166
5738.02,0.05323
5714.87,0.05526
5691.73,0.05447
5668.58,0.05344
5645.44,0.05390
5622.29,0.05348
5599.15,0.05212
5576,0.05419
5552.86,0.05383
5529.71,0.05473
5506.57,0.05448
5483.42,0.05557
5460.28,0.05308
5437.13,0.05475
5413.99,0.05414
5390.84,0.05550
5367.7,0.05525
5344.55,0.05417
5321.41,0.05485
5298.26,0.05498
5275.12,0.05413
5251.97,0.05540
5228.83,0.05357
5205.68,0.05457
5182.54,0.05459
5159.39,0.05415
5136.25,0.05454
5113.1,0.05408
5089.96,0.05358
5066.81,0.05465
5043.67,0.05575
5020.52,0.05393
4997.38,0.05602
4974.23,0.05596
4951.09,0.05583
4927.94,0.05552
4904.8,0.05435
4881.65,0.05501
4858.51,0.05565
4835.36,0.05489
4812.22,0.05507
4789.07,0.05503
4765.93,0.05437
4742.78,0.05439
4719.64,0.05367
4696.49,0.05361
4673.35,0.05481
4650.2,0.05528
4627.06,0.05462
4603.92,0.05537
4580.77,0.05461
4557.63,0.05392
4534.48,0.05398
4511.34,0.05397
4488.19,0.05278
4465.05,0.05222
4441.9,0.05192
4418.76,0.05155
4395.61,0.05152
4372.47,0.05250
4349.32,0.05207
4326.18,0.05326
4303.03,0.05399
4279.89,0.05281
4256.74,0.05413
4233.6,0.05341
4210.45,0.05223
4187.31,0.05316
4164.16,0.05225
4141.02,0.05330
4117.87,0.05289
4094.73,0.05323
4071.58,0.05383
4048.44,0.05338
4025.29,0.05373
4002.15,0.05406
3979,0.05413
3955.86,0.05427
3932.71,0.05437
3909.57,0.05418
3886.42,0.05463
3863.28,0.05459
3840.13,0.05483
3816.99,0.05422
3793.84,0.05495
3770.7,0.05513
3747.55,0.05579
3724.41,0.05429
3701.26,0.05457
3678.12,0.05350
3654.97,0.05181
3631.83,0.05210
3608.68,0.05106
3585.54,0.05165
3562.39,0.05175
3539.25,0.05116
3516.1,0.05084
3492.96,0.05146
3469.81,0.05081
3446.67,0.05113
3423.52,0.05116
3400.38,0.05153
3377.23,0.05163
3354.09,0.05221
3330.94,0.05135
3307.8,0.05175
3284.65,0.05142
3261.51,0.05191
3238.36,0.05195
3215.22,0.05049
3192.07,0.05164
3168.93,0.05068
3145.78,0.05126
3122.64,0.05101
3099.49,0.04976
3076.35,0.04980
3053.2,0.04862
3030.06,0.04760
3006.91,0.04785
2983.77,0.04996
2960.62,0.04886
2937.48,0.05397
2914.33,0.05584
2891.19,0.05389
2868.04,0.05403
2844.9,0.05421
2821.75,0.05285
2798.61,0.05262
2775.46,0.05281
2752.32,0.05250
2729.17,0.05320
2706.03,0.05261
2682.88,0.05308
2659.74,0.05231
2636.59,0.05293
2613.45,0.05242
2590.3,0.05165
2567.16,0.05221
2544.02,0.05250
2520.87,0.05224
2497.73,0.05243
2474.58,0.05227
2451.44,0.05202
2428.29,0.05172
2405.15,0.05197
2382,0.05161
2358.86,0.05148
2335.71,0.05127
2312.57,0.05229
2289.42,0.05162
2266.28,0.05175
2243.13,0.05130
2219.99,0.05165
2196.84,0.05132
2173.7,0.05110
2150.55,0.05096
2127.41,0.05051
2104.26,0.05043
2081.12,0.05053
2057.97,0.05030
2034.83,0.04991
2011.68,0.04968
1988.54,0.04941
1965.39,0.04932
1942.25,0.04922
1919.1,0.04854
1895.96,0.04869
1872.81,0.04802
1849.67,0.04663
1826.52,0.04566
1803.38,0.04391
1780.23,0.04068
1757.09,0.03139
1733.94,0.05967
1710.8,0.07457
1687.65,0.05904
1664.51,0.05539
1641.36,0.05370
1618.22,0.05171
1595.07,0.05086
1571.93,0.04994
1548.78,0.04872
1525.64,0.04724
1502.49,0.04391
1479.35,0.04595
1456.2,0.04565
1433.06,0.05603
1409.91,0.05137
1386.77,0.05011
1363.62,0.04966
1340.48,0.04780
1317.33,0.04478
1294.19,0.04005
1271.04,0.04188
1247.9,0.04412
1224.75,0.05127
1201.61,0.03829
1178.46,0.05353
1155.32,0.06245
1132.17,0.08826
1109.03,0.07531
1085.88,0.06818
1062.74,0.06575
1039.59,0.06386
1016.45,0.05938
993.304,0.05710
970.159,0.06093
947.014,0.06342
923.869,0.06068
900.724,0.06115
877.579,0.05910
854.434,0.05777
831.289,0.06069
808.144,0.05942
784.999,0.05911
761.854,0.05669
738.709,0.06287
715.565,0.06047
692.42,0.05920
669.275,0.05722
646.13,0.05647
622.985,0.05528
599.84,0.05245