File: 01_Data/Black_PMMA/FTIR/IS/Black_PMMA_IS_T_221012_R1.dpt
7497.03,0.02499
7473.89,0.01882
7450.74,0.02691
7427.6,0.02096
7404.45,0.02167
7381.31,0.03003
7358.16,0.01832
7335.02,0.02780
7311.87,0.02427
7288.73,0.02756
7265.58,0.02435
7242.44,0.03014
7219.29,0.02256
7196.15,0.02019
7173,0.02462
7149.86,0.02178
7126.71,0.02094
7103.57,0.02446
7080.42,0.02073
7057.28,0.02577
7034.13,0.02071
7010.99,0.02641
6987.84,0.02545
6964.7,0.02323
6941.55,0.02351
6918.41,0.02540
6895.26,0.02781
6872.12,0.02295
6848.97,0.02357
6825.83,0.01995
6802.68,0.02468
6779.54,0.01956
6756.39,0.01798
6733.25,0.02543
6710.1,0.02627
6686.96,0.02252
6663.82,0.01986
6640.67,0.02763
6617.53,0.01845
6594.38,0.02240
6571.24,0.02299
6548.09,0.01711
6524.95,0.02037
6501.8,0.02221
6478.66,0.02240
6455.51,0.02347
6432.37,0.02501
6409.22,0.02072
6386.08,0.02421
6362.93,0.02460
6339.79,0.01951
6316.64,0.02181
6293.5,0.01932
6270.35,0.02259
6247.21,0.02152
6224.06,0.01884
6200.92,0.02281
6177.77,0.01858
6154.63,0.01934
6131.48,0.01927
6108.34,0.02182
6085.19,0.01925
6062.05,0.02123
6038.9,0.02284
6015.76,0.02161
5992.61,0.01910
5969.47,0.01937
5946.32,0.02283
5923.18,0.02190
5900.03,0.02031
5876.89,0.01987
5853.74,0.01654
5830.6,0.01998
5807.45,0.02105
5784.31,0.01929
5761.16,0.01974
5738.02,0.01765
5714.87,0.02047
5691.73,0.02077
5668.58,0.02026
5645.44,0.02216
5622.29,0.02041
5599.15,0.02042
5576,0.02131
5552.86,0.02180
5529.71,0.02134
5506.57,0.02140
5483.42,0.02112
5460.28,0.02202
5437.13,0.02172
5413.99,0.02402
5390.84,0.02046
5367.7,0.02044
5344.55,0.02049
5321.41,0.02049
5298.26,0.02141
5275.12,0.02130
5251.97,0.02056
5228.83,0.02047
5205.68,0.02258
5182.54,0.02087
5159.39,0.02282
5136.25,0.02135
5113.1,0.01971
5089.96,0.02226
5066.81,0.02255
5043.67,0.02211
5020.52,0.02187
4997.38,0.02107
4974.23,0.02151
4951.09,0.02253
4927.94,0.02188
4904.8,0.02234
4881.65,0.02175
4858.51,0.02133
4835.36,0.02098
4812.22,0.02143
4789.07,0.02104
4765.93,0.02139
4742.78,0.02262
4719.64,0.02087
4696.49,0.02275
4673.35,0.02239
4650.2,0.02196
4627.06,0.02168
4603.92,0.02172
4580.77,0.02155
4557.63,0.02218
4534.48,0.02217
4511.34,0.02169
4488.19,0.02121
4465.05,0.02161
4441.9,0.02102
4418.76,0.02103
4395.61,0.02106
4372.47,0.02167
4349.32,0.02122
4326.18,0.02138
4303.03,0.02214
4279.89,0.02187
4256.74,0.02242
4233.6,0.02215
4210.45,0.02133
4187.31,0.02192
4164.16,0.02227
4141.02,0.02144
4117.87,0.02181
4094.73,0.02133
4071.58,0.02224
4048.44,0.02203
4025.29,0.02220
4002.15,0.02199
3979,0.02168
3955.86,0.02261
3932.71,0.02259
3909.57,0.02180
3886.42,0.02241
3863.28,0.02184
3840.13,0.02285
3816.99,0.02343
3793.84,0.02240
3770.7,0.02231
3747.55,0.02225
3724.41,0.02345
3701.26,0.02211
3678.12,0.02244
3654.97,0.02169
3631.83,0.02147
3608.68,0.02139
3585.54,0.02200
3562.39,0.02063
3539.25,0.02051
3516.1,0.02093
3492.96,0.02060
3469.81,0.02011
3446.67,0.02073
3423.52,0.02027
3400.38,0.02096
3377.23,0.02054
3354.09,0.02012
3330.94,0.01966
3307.8,0.01983
3284.65,0.01991
3261.51,0.01979
3238.36,0.02066
3215.22,0.02044
3192.07,0.02023
3168.93,0.02100
3145.78,0.02078
3122.64,0.02052
3099.49,0.02081
3076.35,0.01980
3053.2,0.02089
3030.06,0.01986
3006.91,0.02005
2983.77,0.01963
2960.62,0.01925
2937.48,0.01956
2914.33,0.01992
2891.19,0.02009
2868.04,0.02029
2844.9,0.02045
2821.75,0.02118
2798.61,0.02108
2775.46,0.02128
2752.32,0.02113
2729.17,0.02089
2706.03,0.02159
2682.88,0.02127
2659.74,0.02115
2636.59,0.02120
2613.45,0.02103
2590.3,0.02096
2567.16,0.02132
2544.02,0.02096
2520.87,0.02090
2497.73,0.02133
2474.58,0.02085
2451.44,0.02114
2428.29,0.02161
2405.15,0.02100
2382,0.02126
2358.86,0.02239
2335.71,0.02262
2312.57,0.02134
2289.42,0.02083
2266.28,0.02108
2243.13,0.02106
2219.99,0.02089
2196.84,0.02091
2173.7,0.02089
2150.55,0.02117
2127.41,0.02085
2104.26,0.02101
2081.12,0.02054
2057.97,0.02078
2034.83,0.02065
2011.68,0.02101
1988.54,0.02038
1965.39,0.02037
1942.25,0.02069
1919.1,0.02057
1895.96,0.02079
1872.81,0.02003
1849.67,0.02029
1826.52,0.02022
1803.38,0.01966
1780.23,0.01918
1757.09,0.01790
1733.94,0.01985
1710.8,0.02110
1687.65,0.01950
1664.51,0.01890
1641.36,0.01855
1618.22,0.01935
1595.07,0.01877
1571.93,0.01847
1548.78,0.01852
1525.64,0.01872
1502.49,0.01851
1479.35,0.01850
1456.2,0.01876
1433.06,0.01898
1409.91,0.01867
1386.77,0.01806
1363.62,0.01831
1340.48,0.01820
1317.33,0.01717
1294.19,0.01784
1271.04,0.01987
1247.9,0.02036
1224.75,0.01955
1201.61,0.01841
1178.46,0.01797
1155.32,0.01770
1132.17,0.01825
1109.03,0.01924
1085.88,0.01849
1062.74,0.01987
1039.59,0.01898
1016.45,0.01997
993.304,0.02064
970.159,0.02051
947.014,0.01961
923.869,0.01926
900.724,0.01883
877.579,0.01868
854.434,0.01969
831.289,0.01788
808.144,0.01879
784.999,0.01863
761.854,0.01815
738.709,0.01887
715.565,0.01734
692.42,0.01785
669.275,0.01720
646.13,0.01604
622.985,0.01510
599.84,0.01662