File: 01_Data/Black_PMMA/FTIR/IS/Black_PMMA_IS_S_221012_R5.dpt
7497.03,0.05336
7473.89,0.05891
7450.74,0.05011
7427.6,0.04658
7404.45,0.05440
7381.31,0.05969
7358.16,0.05406
7335.02,0.04561
7311.87,0.05298
7288.73,0.05572
7265.58,0.04743
7242.44,0.04751
7219.29,0.04524
7196.15,0.05141
7173,0.05631
7149.86,0.04994
7126.71,0.05211
7103.57,0.04559
7080.42,0.05240
7057.28,0.05897
7034.13,0.05859
7010.99,0.05658
6987.84,0.05832
6964.7,0.05164
6941.55,0.04829
6918.41,0.05088
6895.26,0.05164
6872.12,0.04645
6848.97,0.04950
6825.83,0.05502
6802.68,0.05768
6779.54,0.05169
6756.39,0.05144
6733.25,0.05221
6710.1,0.05432
6686.96,0.05161
6663.82,0.04857
6640.67,0.05220
6617.53,0.05029
6594.38,0.05210
6571.24,0.05540
6548.09,0.05272
6524.95,0.05362
6501.8,0.05071
6478.66,0.05238
6455.51,0.05093
6432.37,0.05354
6409.22,0.04976
6386.08,0.05184
6362.93,0.05624
6339.79,0.05165
6316.64,0.04964
6293.5,0.05014
6270.35,0.05074
6247.21,0.04885
6224.06,0.05043
6200.92,0.05601
6177.77,0.05405
6154.63,0.05466
6131.48,0.05196
6108.34,0.04921
6085.19,0.05215
6062.05,0.05149
6038.9,0.05223
6015.76,0.05025
5992.61,0.05237
5969.47,0.05134
5946.32,0.05194
5923.18,0.05123
5900.03,0.05239
5876.89,0.05040
5853.74,0.05104
5830.6,0.05315
5807.45,0.05075
5784.31,0.05157
5761.16,0.05189
5738.02,0.05244
5714.87,0.05568
5691.73,0.05188
5668.58,0.05356
5645.44,0.05325
5622.29,0.05463
5599.15,0.05478
5576,0.05182
5552.86,0.05549
5529.71,0.05372
5506.57,0.05331
5483.42,0.05521
5460.28,0.05734
5437.13,0.05542
5413.99,0.05640
5390.84,0.05188
5367.7,0.05495
5344.55,0.05216
5321.41,0.05449
5298.26,0.05413
5275.12,0.05228
5251.97,0.05471
5228.83,0.05382
5205.68,0.05423
5182.54,0.05385
5159.39,0.05594
5136.25,0.05542
5113.1,0.05408
5089.96,0.05590
5066.81,0.05588
5043.67,0.05502
5020.52,0.05547
4997.38,0.05505
4974.23,0.05562
4951.09,0.05487
4927.94,0.05492
4904.8,0.05641
4881.65,0.05528
4858.51,0.05396
4835.36,0.05570
4812.22,0.05647
4789.07,0.05509
4765.93,0.05479
4742.78,0.05494
4719.64,0.05457
4696.49,0.05482
4673.35,0.05521
4650.2,0.05511
4627.06,0.05509
4603.92,0.05583
4580.77,0.05437
4557.63,0.05542
4534.48,0.05476
4511.34,0.05368
4488.19,0.05329
4465.05,0.05211
4441.9,0.05184
4418.76,0.05257
4395.61,0.05157
4372.47,0.05180
4349.32,0.05274
4326.18,0.05296
4303.03,0.05329
4279.89,0.05362
4256.74,0.05340
4233.6,0.05302
4210.45,0.05355
4187.31,0.05306
4164.16,0.05263
4141.02,0.05221
4117.87,0.05317
4094.73,0.05306
4071.58,0.05395
4048.44,0.05370
4025.29,0.05459
4002.15,0.05431
3979,0.05401
3955.86,0.05379
3932.71,0.05419
3909.57,0.05515
3886.42,0.05519
3863.28,0.05454
3840.13,0.05547
3816.99,0.05500
3793.84,0.05478
3770.7,0.05512
3747.55,0.05551
3724.41,0.05490
3701.26,0.05413
3678.12,0.05249
3654.97,0.05244
3631.83,0.05237
3608.68,0.05172
3585.54,0.05212
3562.39,0.05191
3539.25,0.05185
3516.1,0.05154
3492.96,0.05224
3469.81,0.05176
3446.67,0.05128
3423.52,0.05055
3400.38,0.05240
3377.23,0.05176
3354.09,0.05219
3330.94,0.05220
3307.8,0.05241
3284.65,0.05181
3261.51,0.05181
3238.36,0.05241
3215.22,0.05208
3192.07,0.05204
3168.93,0.05183
3145.78,0.05146
3122.64,0.05115
3099.49,0.05051
3076.35,0.05045
3053.2,0.04954
3030.06,0.04785
3006.91,0.04770
2983.77,0.05058
2960.62,0.04888
2937.48,0.05423
2914.33,0.05621
2891.19,0.05430
2868.04,0.05382
2844.9,0.05413
2821.75,0.05376
2798.61,0.05324
2775.46,0.05257
2752.32,0.05290
2729.17,0.05293
2706.03,0.05322
2682.88,0.05312
2659.74,0.05322
2636.59,0.05289
2613.45,0.05263
2590.3,0.05253
2567.16,0.05278
2544.02,0.05277
2520.87,0.05268
2497.73,0.05269
2474.58,0.05245
2451.44,0.05238
2428.29,0.05192
2405.15,0.05215
2382,0.05194
2358.86,0.05196
2335.71,0.05176
2312.57,0.05202
2289.42,0.05218
2266.28,0.05222
2243.13,0.05177
2219.99,0.05130
2196.84,0.05156
2173.7,0.05120
2150.55,0.05088
2127.41,0.05065
2104.26,0.05082
2081.12,0.05073
2057.97,0.05022
2034.83,0.05031
2011.68,0.04997
1988.54,0.04978
1965.39,0.04956
1942.25,0.04966
1919.1,0.04931
1895.96,0.04860
1872.81,0.04785
1849.67,0.04710
1826.52,0.04610
1803.38,0.04402
1780.23,0.04113
1757.09,0.03170
1733.94,0.05987
1710.8,0.07521
1687.65,0.05968
1664.51,0.05562
1641.36,0.05380
1618.22,0.05241
1595.07,0.05121
1571.93,0.05034
1548.78,0.04876
1525.64,0.04740
1502.49,0.04404
1479.35,0.04583
1456.2,0.04596
1433.06,0.05638
1409.91,0.05157
1386.77,0.05011
1363.62,0.04997
1340.48,0.04783
1317.33,0.04497
1294.19,0.04019
1271.04,0.04214
1247.9,0.04449
1224.75,0.05112
1201.61,0.03885
1178.46,0.05417
1155.32,0.06255
1132.17,0.08797
1109.03,0.07553
1085.88,0.06796
1062.74,0.06629
1039.59,0.06365
1016.45,0.05917
993.304,0.05669
970.159,0.06188
947.014,0.06396
923.869,0.06086
900.724,0.06126
877.579,0.05899
854.434,0.05738
831.289,0.06011
808.144,0.06068
784.999,0.05947
761.854,0.05607
738.709,0.06322
715.565,0.06021
692.42,0.05951
669.275,0.05647
646.13,0.05657
622.985,0.05382
599.84,0.05313