File: 01_Data/Black_PMMA/FTIR/IS/Black_PMMA_IS_S_221012_R3.dpt
7497.03,0.04780
7473.89,0.05264
7450.74,0.05035
7427.6,0.04895
7404.45,0.05370
7381.31,0.05362
7358.16,0.05936
7335.02,0.05248
7311.87,0.05385
7288.73,0.05198
7265.58,0.05834
7242.44,0.04956
7219.29,0.05435
7196.15,0.05898
7173,0.05329
7149.86,0.04858
7126.71,0.04888
7103.57,0.05555
7080.42,0.05775
7057.28,0.05564
7034.13,0.05087
7010.99,0.05475
6987.84,0.05465
6964.7,0.05282
6941.55,0.05153
6918.41,0.05046
6895.26,0.05363
6872.12,0.05601
6848.97,0.05328
6825.83,0.05734
6802.68,0.05276
6779.54,0.05279
6756.39,0.05191
6733.25,0.04934
6710.1,0.05562
6686.96,0.05457
6663.82,0.05047
6640.67,0.05406
6617.53,0.05404
6594.38,0.05317
6571.24,0.05394
6548.09,0.05242
6524.95,0.05210
6501.8,0.05484
6478.66,0.05551
6455.51,0.05398
6432.37,0.05213
6409.22,0.05206
6386.08,0.05260
6362.93,0.05587
6339.79,0.05677
6316.64,0.05783
6293.5,0.05066
6270.35,0.05238
6247.21,0.04955
6224.06,0.05012
6200.92,0.05283
6177.77,0.05113
6154.63,0.05233
6131.48,0.05020
6108.34,0.05147
6085.19,0.05804
6062.05,0.05162
6038.9,0.05382
6015.76,0.05242
5992.61,0.05242
5969.47,0.04878
5946.32,0.05125
5923.18,0.05004
5900.03,0.05227
5876.89,0.05241
5853.74,0.05247
5830.6,0.05356
5807.45,0.05272
5784.31,0.05288
5761.16,0.05205
5738.02,0.05364
5714.87,0.05515
5691.73,0.05107
5668.58,0.05219
5645.44,0.05235
5622.29,0.05251
5599.15,0.05330
5576,0.05306
5552.86,0.05236
5529.71,0.05413
5506.57,0.05544
5483.42,0.05361
5460.28,0.05527
5437.13,0.05402
5413.99,0.05458
5390.84,0.05617
5367.7,0.05398
5344.55,0.05485
5321.41,0.05428
5298.26,0.05523
5275.12,0.05391
5251.97,0.05368
5228.83,0.05317
5205.68,0.05532
5182.54,0.05444
5159.39,0.05442
5136.25,0.05551
5113.1,0.05494
5089.96,0.05592
5066.81,0.05540
5043.67,0.05408
5020.52,0.05536
4997.38,0.05440
4974.23,0.05579
4951.09,0.05401
4927.94,0.05485
4904.8,0.05443
4881.65,0.05426
4858.51,0.05530
4835.36,0.05442
4812.22,0.05478
4789.07,0.05439
4765.93,0.05538
4742.78,0.05460
4719.64,0.05498
4696.49,0.05441
4673.35,0.05549
4650.2,0.05450
4627.06,0.05468
4603.92,0.05411
4580.77,0.05455
4557.63,0.05397
4534.48,0.05506
4511.34,0.05414
4488.19,0.05206
4465.05,0.05210
4441.9,0.05189
4418.76,0.05187
4395.61,0.05209
4372.47,0.05174
4349.32,0.05210
4326.18,0.05225
4303.03,0.05304
4279.89,0.05275
4256.74,0.05275
4233.6,0.05241
4210.45,0.05301
4187.31,0.05235
4164.16,0.05244
4141.02,0.05284
4117.87,0.05303
4094.73,0.05291
4071.58,0.05237
4048.44,0.05323
4025.29,0.05347
4002.15,0.05327
3979,0.05415
3955.86,0.05399
3932.71,0.05384
3909.57,0.05403
3886.42,0.05401
3863.28,0.05462
3840.13,0.05423
3816.99,0.05453
3793.84,0.05489
3770.7,0.05467
3747.55,0.05518
3724.41,0.05498
3701.26,0.05370
3678.12,0.05220
3654.97,0.05215
3631.83,0.05170
3608.68,0.05106
3585.54,0.05213
3562.39,0.05133
3539.25,0.05126
3516.1,0.05100
3492.96,0.05151
3469.81,0.05128
3446.67,0.05011
3423.52,0.05110
3400.38,0.05160
3377.23,0.05118
3354.09,0.05148
3330.94,0.05179
3307.8,0.05201
3284.65,0.05163
3261.51,0.05197
3238.36,0.05184
3215.22,0.05069
3192.07,0.05111
3168.93,0.05105
3145.78,0.05047
3122.64,0.05047
3099.49,0.05008
3076.35,0.04946
3053.2,0.04869
3030.06,0.04724
3006.91,0.04724
2983.77,0.04960
2960.62,0.04876
2937.48,0.05445
2914.33,0.05613
2891.19,0.05362
2868.04,0.05370
2844.9,0.05394
2821.75,0.05260
2798.61,0.05281
2775.46,0.05282
2752.32,0.05263
2729.17,0.05288
2706.03,0.05290
2682.88,0.05225
2659.74,0.05237
2636.59,0.05208
2613.45,0.05185
2590.3,0.05142
2567.16,0.05182
2544.02,0.05200
2520.87,0.05178
2497.73,0.05170
2474.58,0.05234
2451.44,0.05176
2428.29,0.05186
2405.15,0.05162
2382,0.05128
2358.86,0.05166
2335.71,0.05206
2312.57,0.05114
2289.42,0.05182
2266.28,0.05165
2243.13,0.05131
2219.99,0.05120
2196.84,0.05101
2173.7,0.05083
2150.55,0.05066
2127.41,0.05085
2104.26,0.05014
2081.12,0.04984
2057.97,0.04980
2034.83,0.05006
2011.68,0.04952
1988.54,0.04933
1965.39,0.04932
1942.25,0.04882
1919.1,0.04885
1895.96,0.04839
1872.81,0.04740
1849.67,0.04674
1826.52,0.04544
1803.38,0.04366
1780.23,0.04019
1757.09,0.03120
1733.94,0.05987
1710.8,0.07402
1687.65,0.05869
1664.51,0.05507
1641.36,0.05321
1618.22,0.05262
1595.07,0.05103
1571.93,0.04965
1548.78,0.04816
1525.64,0.04692
1502.49,0.04365
1479.35,0.04576
1456.2,0.04609
1433.06,0.05592
1409.91,0.05132
1386.77,0.04956
1363.62,0.04963
1340.48,0.04710
1317.33,0.04420
1294.19,0.03984
1271.04,0.04162
1247.9,0.04413
1224.75,0.05095
1201.61,0.03828
1178.46,0.05362
1155.32,0.06175
1132.17,0.08703
1109.03,0.07467
1085.88,0.06764
1062.74,0.06599
1039.59,0.06327
1016.45,0.05915
993.304,0.05684
970.159,0.06047
947.014,0.06342
923.869,0.06100
900.724,0.06105
877.579,0.05887
854.434,0.05783
831.289,0.06078
808.144,0.06028
784.999,0.05880
761.854,0.05570
738.709,0.06177
715.565,0.05991
692.42,0.05848
669.275,0.05749
646.13,0.05628
622.985,0.05478
599.84,0.05278