File: 01_Data/Black_PMMA/FTIR/IS/Black_PMMA_IS_S_221012_R8.dpt
7497.03,0.05208
7473.89,0.04469
7450.74,0.04486
7427.6,0.05619
7404.45,0.05203
7381.31,0.04706
7358.16,0.05245
7335.02,0.05282
7311.87,0.05275
7288.73,0.05717
7265.58,0.05724
7242.44,0.04667
7219.29,0.05947
7196.15,0.05577
7173,0.05723
7149.86,0.05215
7126.71,0.05546
7103.57,0.05173
7080.42,0.05478
7057.28,0.05132
7034.13,0.05217
7010.99,0.05382
6987.84,0.05332
6964.7,0.05391
6941.55,0.05643
6918.41,0.04594
6895.26,0.05499
6872.12,0.05405
6848.97,0.05355
6825.83,0.05177
6802.68,0.04908
6779.54,0.05735
6756.39,0.05353
6733.25,0.04621
6710.1,0.05331
6686.96,0.05325
6663.82,0.05577
6640.67,0.05618
6617.53,0.05260
6594.38,0.05319
6571.24,0.05118
6548.09,0.05233
6524.95,0.05078
6501.8,0.05299
6478.66,0.05525
6455.51,0.05611
6432.37,0.05179
6409.22,0.05168
6386.08,0.05056
6362.93,0.05105
6339.79,0.05316
6316.64,0.05175
6293.5,0.05437
6270.35,0.05566
6247.21,0.05194
6224.06,0.05347
6200.92,0.05232
6177.77,0.05566
6154.63,0.05496
6131.48,0.05488
6108.34,0.05313
6085.19,0.05289
6062.05,0.05371
6038.9,0.05271
6015.76,0.05306
5992.61,0.05296
5969.47,0.05237
5946.32,0.05228
5923.18,0.04921
5900.03,0.05203
5876.89,0.05033
5853.74,0.05156
5830.6,0.05216
5807.45,0.05059
5784.31,0.05236
5761.16,0.05436
5738.02,0.05214
5714.87,0.05332
5691.73,0.05543
5668.58,0.05406
5645.44,0.05358
5622.29,0.05153
5599.15,0.05378
5576,0.05423
5552.86,0.05419
5529.71,0.05349
5506.57,0.05449
5483.42,0.05409
5460.28,0.05566
5437.13,0.05589
5413.99,0.05434
5390.84,0.05656
5367.7,0.05377
5344.55,0.05433
5321.41,0.05366
5298.26,0.05489
5275.12,0.05315
5251.97,0.05408
5228.83,0.05597
5205.68,0.05376
5182.54,0.05492
5159.39,0.05448
5136.25,0.05354
5113.1,0.05449
5089.96,0.05461
5066.81,0.05515
5043.67,0.05670
5020.52,0.05531
4997.38,0.05477
4974.23,0.05504
4951.09,0.05563
4927.94,0.05553
4904.8,0.05722
4881.65,0.05584
4858.51,0.05560
4835.36,0.05501
4812.22,0.05626
4789.07,0.05557
4765.93,0.05503
4742.78,0.05424
4719.64,0.05494
4696.49,0.05466
4673.35,0.05407
4650.2,0.05549
4627.06,0.05578
4603.92,0.05412
4580.77,0.05466
4557.63,0.05471
4534.48,0.05428
4511.34,0.05377
4488.19,0.05240
4465.05,0.05199
4441.9,0.05166
4418.76,0.05092
4395.61,0.05105
4372.47,0.05183
4349.32,0.05315
4326.18,0.05284
4303.03,0.05324
4279.89,0.05293
4256.74,0.05304
4233.6,0.05256
4210.45,0.05214
4187.31,0.05253
4164.16,0.05274
4141.02,0.05289
4117.87,0.05289
4094.73,0.05283
4071.58,0.05320
4048.44,0.05383
4025.29,0.05349
4002.15,0.05425
3979,0.05446
3955.86,0.05392
3932.71,0.05353
3909.57,0.05435
3886.42,0.05389
3863.28,0.05461
3840.13,0.05448
3816.99,0.05449
3793.84,0.05447
3770.7,0.05441
3747.55,0.05400
3724.41,0.05443
3701.26,0.05380
3678.12,0.05297
3654.97,0.05237
3631.83,0.05221
3608.68,0.05130
3585.54,0.05217
3562.39,0.05131
3539.25,0.05204
3516.1,0.05128
3492.96,0.05185
3469.81,0.05122
3446.67,0.05111
3423.52,0.05084
3400.38,0.05174
3377.23,0.05236
3354.09,0.05169
3330.94,0.05239
3307.8,0.05183
3284.65,0.05152
3261.51,0.05126
3238.36,0.05126
3215.22,0.05116
3192.07,0.05115
3168.93,0.05144
3145.78,0.05082
3122.64,0.05056
3099.49,0.04993
3076.35,0.05003
3053.2,0.04879
3030.06,0.04795
3006.91,0.04782
2983.77,0.05022
2960.62,0.04896
2937.48,0.05427
2914.33,0.05608
2891.19,0.05354
2868.04,0.05357
2844.9,0.05358
2821.75,0.05295
2798.61,0.05327
2775.46,0.05303
2752.32,0.05299
2729.17,0.05265
2706.03,0.05255
2682.88,0.05279
2659.74,0.05266
2636.59,0.05249
2613.45,0.05225
2590.3,0.05202
2567.16,0.05223
2544.02,0.05236
2520.87,0.05198
2497.73,0.05221
2474.58,0.05207
2451.44,0.05190
2428.29,0.05212
2405.15,0.05195
2382,0.05186
2358.86,0.05168
2335.71,0.05137
2312.57,0.05152
2289.42,0.05181
2266.28,0.05116
2243.13,0.05091
2219.99,0.05104
2196.84,0.05109
2173.7,0.05082
2150.55,0.05092
2127.41,0.05064
2104.26,0.05061
2081.12,0.05007
2057.97,0.05007
2034.83,0.04976
2011.68,0.04983
1988.54,0.04936
1965.39,0.04918
1942.25,0.04920
1919.1,0.04869
1895.96,0.04830
1872.81,0.04775
1849.67,0.04704
1826.52,0.04562
1803.38,0.04374
1780.23,0.04065
1757.09,0.03117
1733.94,0.05975
1710.8,0.07453
1687.65,0.05943
1664.51,0.05530
1641.36,0.05330
1618.22,0.05240
1595.07,0.05126
1571.93,0.04960
1548.78,0.04843
1525.64,0.04722
1502.49,0.04418
1479.35,0.04592
1456.2,0.04653
1433.06,0.05619
1409.91,0.05089
1386.77,0.04978
1363.62,0.05005
1340.48,0.04742
1317.33,0.04441
1294.19,0.03972
1271.04,0.04174
1247.9,0.04423
1224.75,0.05129
1201.61,0.03881
1178.46,0.05374
1155.32,0.06200
1132.17,0.08848
1109.03,0.07517
1085.88,0.06663
1062.74,0.06564
1039.59,0.06315
1016.45,0.05927
993.304,0.05710
970.159,0.06139
947.014,0.06319
923.869,0.06126
900.724,0.06143
877.579,0.05911
854.434,0.05767
831.289,0.05979
808.144,0.05977
784.999,0.05841
761.854,0.05627
738.709,0.06220
715.565,0.05983
692.42,0.05888
669.275,0.05756
646.13,0.05670
622.985,0.05673
599.84,0.05236