File: 01_Data/Black_PMMA/FTIR/IS/Black_PMMA_IS_S_221012_R7.dpt
7497.03,0.04390
7473.89,0.04879
7450.74,0.04779
7427.6,0.05470
7404.45,0.05586
7381.31,0.05998
7358.16,0.04434
7335.02,0.05327
7311.87,0.05268
7288.73,0.05114
7265.58,0.06161
7242.44,0.05014
7219.29,0.05378
7196.15,0.04683
7173,0.05801
7149.86,0.05057
7126.71,0.06036
7103.57,0.05489
7080.42,0.05080
7057.28,0.05251
7034.13,0.05692
7010.99,0.05283
6987.84,0.05499
6964.7,0.05892
6941.55,0.05274
6918.41,0.05250
6895.26,0.04875
6872.12,0.05127
6848.97,0.05272
6825.83,0.05899
6802.68,0.05165
6779.54,0.05585
6756.39,0.05698
6733.25,0.05038
6710.1,0.05234
6686.96,0.04910
6663.82,0.05508
6640.67,0.05317
6617.53,0.05362
6594.38,0.05677
6571.24,0.05241
6548.09,0.05110
6524.95,0.05495
6501.8,0.05591
6478.66,0.05492
6455.51,0.05292
6432.37,0.05277
6409.22,0.05076
6386.08,0.05256
6362.93,0.05396
6339.79,0.05338
6316.64,0.05230
6293.5,0.05507
6270.35,0.05278
6247.21,0.05052
6224.06,0.05120
6200.92,0.05444
6177.77,0.05298
6154.63,0.05289
6131.48,0.05260
6108.34,0.05296
6085.19,0.05159
6062.05,0.05476
6038.9,0.05437
6015.76,0.05139
5992.61,0.05298
5969.47,0.05081
5946.32,0.04893
5923.18,0.05409
5900.03,0.05141
5876.89,0.05270
5853.74,0.05051
5830.6,0.05351
5807.45,0.05053
5784.31,0.05186
5761.16,0.05032
5738.02,0.05042
5714.87,0.05113
5691.73,0.05322
5668.58,0.05291
5645.44,0.05314
5622.29,0.05372
5599.15,0.05392
5576,0.05315
5552.86,0.05218
5529.71,0.05576
5506.57,0.05454
5483.42,0.05440
5460.28,0.05436
5437.13,0.05360
5413.99,0.05325
5390.84,0.05342
5367.7,0.05254
5344.55,0.05279
5321.41,0.05408
5298.26,0.05310
5275.12,0.05381
5251.97,0.05290
5228.83,0.05421
5205.68,0.05654
5182.54,0.05467
5159.39,0.05298
5136.25,0.05277
5113.1,0.05448
5089.96,0.05322
5066.81,0.05445
5043.67,0.05517
5020.52,0.05556
4997.38,0.05467
4974.23,0.05413
4951.09,0.05443
4927.94,0.05498
4904.8,0.05504
4881.65,0.05622
4858.51,0.05518
4835.36,0.05568
4812.22,0.05434
4789.07,0.05443
4765.93,0.05455
4742.78,0.05305
4719.64,0.05361
4696.49,0.05467
4673.35,0.05336
4650.2,0.05465
4627.06,0.05465
4603.92,0.05375
4580.77,0.05481
4557.63,0.05430
4534.48,0.05350
4511.34,0.05353
4488.19,0.05301
4465.05,0.05111
4441.9,0.05142
4418.76,0.05120
4395.61,0.05182
4372.47,0.05227
4349.32,0.05183
4326.18,0.05305
4303.03,0.05330
4279.89,0.05268
4256.74,0.05243
4233.6,0.05264
4210.45,0.05156
4187.31,0.05238
4164.16,0.05306
4141.02,0.05273
4117.87,0.05354
4094.73,0.05313
4071.58,0.05267
4048.44,0.05307
4025.29,0.05314
4002.15,0.05336
3979,0.05377
3955.86,0.05411
3932.71,0.05369
3909.57,0.05372
3886.42,0.05362
3863.28,0.05369
3840.13,0.05393
3816.99,0.05400
3793.84,0.05417
3770.7,0.05368
3747.55,0.05395
3724.41,0.05448
3701.26,0.05365
3678.12,0.05269
3654.97,0.05176
3631.83,0.05147
3608.68,0.05216
3585.54,0.05132
3562.39,0.05104
3539.25,0.05133
3516.1,0.05204
3492.96,0.05084
3469.81,0.05152
3446.67,0.05042
3423.52,0.05084
3400.38,0.05138
3377.23,0.05117
3354.09,0.05190
3330.94,0.05149
3307.8,0.05149
3284.65,0.05152
3261.51,0.05048
3238.36,0.05086
3215.22,0.05082
3192.07,0.05078
3168.93,0.05021
3145.78,0.05090
3122.64,0.05050
3099.49,0.04970
3076.35,0.05002
3053.2,0.04929
3030.06,0.04790
3006.91,0.04685
2983.77,0.04921
2960.62,0.04809
2937.48,0.05345
2914.33,0.05557
2891.19,0.05323
2868.04,0.05327
2844.9,0.05342
2821.75,0.05310
2798.61,0.05210
2775.46,0.05237
2752.32,0.05242
2729.17,0.05225
2706.03,0.05256
2682.88,0.05214
2659.74,0.05231
2636.59,0.05181
2613.45,0.05182
2590.3,0.05160
2567.16,0.05164
2544.02,0.05144
2520.87,0.05147
2497.73,0.05162
2474.58,0.05201
2451.44,0.05161
2428.29,0.05166
2405.15,0.05116
2382,0.05136
2358.86,0.05178
2335.71,0.05096
2312.57,0.05125
2289.42,0.05089
2266.28,0.05113
2243.13,0.05067
2219.99,0.05114
2196.84,0.05092
2173.7,0.05084
2150.55,0.05046
2127.41,0.05002
2104.26,0.05016
2081.12,0.04991
2057.97,0.04944
2034.83,0.04949
2011.68,0.04946
1988.54,0.04908
1965.39,0.04875
1942.25,0.04862
1919.1,0.04861
1895.96,0.04815
1872.81,0.04729
1849.67,0.04620
1826.52,0.04543
1803.38,0.04364
1780.23,0.04024
1757.09,0.03072
1733.94,0.05967
1710.8,0.07374
1687.65,0.05843
1664.51,0.05488
1641.36,0.05308
1618.22,0.05211
1595.07,0.05075
1571.93,0.04920
1548.78,0.04817
1525.64,0.04715
1502.49,0.04350
1479.35,0.04552
1456.2,0.04578
1433.06,0.05598
1409.91,0.05089
1386.77,0.04916
1363.62,0.04936
1340.48,0.04701
1317.33,0.04441
1294.19,0.03977
1271.04,0.04144
1247.9,0.04403
1224.75,0.05043
1201.61,0.03821
1178.46,0.05421
1155.32,0.06159
1132.17,0.08758
1109.03,0.07448
1085.88,0.06726
1062.74,0.06501
1039.59,0.06352
1016.45,0.05992
993.304,0.05669
970.159,0.06105
947.014,0.06308
923.869,0.06068
900.724,0.06105
877.579,0.05849
854.434,0.05737
831.289,0.06060
808.144,0.05985
784.999,0.05872
761.854,0.05569
738.709,0.06218
715.565,0.05918
692.42,0.05843
669.275,0.05664
646.13,0.05415
622.985,0.05680
599.84,0.05306