File: 01_Data/Black_PMMA/FTIR/IS/Black_PMMA_IS_S_221012_R6.dpt
7497.03,0.05952
7473.89,0.04738
7450.74,0.04630
7427.6,0.04897
7404.45,0.04735
7381.31,0.04683
7358.16,0.05177
7335.02,0.05734
7311.87,0.04433
7288.73,0.04722
7265.58,0.05445
7242.44,0.05668
7219.29,0.04725
7196.15,0.05610
7173,0.04511
7149.86,0.05009
7126.71,0.05003
7103.57,0.05314
7080.42,0.04739
7057.28,0.04909
7034.13,0.05150
7010.99,0.05241
6987.84,0.05269
6964.7,0.05343
6941.55,0.05447
6918.41,0.05434
6895.26,0.04906
6872.12,0.05354
6848.97,0.05041
6825.83,0.05190
6802.68,0.05549
6779.54,0.05628
6756.39,0.05634
6733.25,0.05010
6710.1,0.05235
6686.96,0.05044
6663.82,0.04975
6640.67,0.05335
6617.53,0.05199
6594.38,0.05117
6571.24,0.05227
6548.09,0.04793
6524.95,0.05017
6501.8,0.05076
6478.66,0.05084
6455.51,0.05624
6432.37,0.05256
6409.22,0.05092
6386.08,0.05271
6362.93,0.05207
6339.79,0.04966
6316.64,0.05315
6293.5,0.05252
6270.35,0.05192
6247.21,0.05425
6224.06,0.05417
6200.92,0.05345
6177.77,0.05225
6154.63,0.05172
6131.48,0.05032
6108.34,0.05094
6085.19,0.05472
6062.05,0.05309
6038.9,0.05343
6015.76,0.05179
5992.61,0.05093
5969.47,0.05110
5946.32,0.05351
5923.18,0.05294
5900.03,0.05386
5876.89,0.05167
5853.74,0.05245
5830.6,0.05486
5807.45,0.05156
5784.31,0.05505
5761.16,0.05188
5738.02,0.05467
5714.87,0.05247
5691.73,0.05241
5668.58,0.05323
5645.44,0.05415
5622.29,0.05427
5599.15,0.05328
5576,0.05236
5552.86,0.05111
5529.71,0.05366
5506.57,0.05381
5483.42,0.05366
5460.28,0.05389
5437.13,0.05536
5413.99,0.05468
5390.84,0.05370
5367.7,0.05457
5344.55,0.05590
5321.41,0.05351
5298.26,0.05315
5275.12,0.05383
5251.97,0.05362
5228.83,0.05244
5205.68,0.05561
5182.54,0.05420
5159.39,0.05468
5136.25,0.05404
5113.1,0.05420
5089.96,0.05394
5066.81,0.05506
5043.67,0.05497
5020.52,0.05448
4997.38,0.05398
4974.23,0.05531
4951.09,0.05506
4927.94,0.05465
4904.8,0.05515
4881.65,0.05481
4858.51,0.05532
4835.36,0.05458
4812.22,0.05494
4789.07,0.05536
4765.93,0.05494
4742.78,0.05492
4719.64,0.05568
4696.49,0.05383
4673.35,0.05421
4650.2,0.05539
4627.06,0.05521
4603.92,0.05466
4580.77,0.05457
4557.63,0.05395
4534.48,0.05362
4511.34,0.05353
4488.19,0.05240
4465.05,0.05222
4441.9,0.05127
4418.76,0.05214
4395.61,0.05195
4372.47,0.05191
4349.32,0.05233
4326.18,0.05281
4303.03,0.05345
4279.89,0.05288
4256.74,0.05291
4233.6,0.05268
4210.45,0.05241
4187.31,0.05219
4164.16,0.05212
4141.02,0.05318
4117.87,0.05352
4094.73,0.05292
4071.58,0.05355
4048.44,0.05386
4025.29,0.05336
4002.15,0.05401
3979,0.05368
3955.86,0.05375
3932.71,0.05345
3909.57,0.05477
3886.42,0.05471
3863.28,0.05393
3840.13,0.05432
3816.99,0.05480
3793.84,0.05459
3770.7,0.05413
3747.55,0.05469
3724.41,0.05490
3701.26,0.05403
3678.12,0.05217
3654.97,0.05194
3631.83,0.05196
3608.68,0.05170
3585.54,0.05269
3562.39,0.05111
3539.25,0.05151
3516.1,0.05170
3492.96,0.05192
3469.81,0.05191
3446.67,0.05129
3423.52,0.05163
3400.38,0.05116
3377.23,0.05113
3354.09,0.05138
3330.94,0.05147
3307.8,0.05155
3284.65,0.05156
3261.51,0.05105
3238.36,0.05157
3215.22,0.05105
3192.07,0.05065
3168.93,0.05073
3145.78,0.05095
3122.64,0.05045
3099.49,0.04947
3076.35,0.04977
3053.2,0.04813
3030.06,0.04801
3006.91,0.04719
2983.77,0.04979
2960.62,0.04850
2937.48,0.05440
2914.33,0.05555
2891.19,0.05339
2868.04,0.05341
2844.9,0.05372
2821.75,0.05288
2798.61,0.05321
2775.46,0.05273
2752.32,0.05255
2729.17,0.05292
2706.03,0.05279
2682.88,0.05271
2659.74,0.05243
2636.59,0.05217
2613.45,0.05231
2590.3,0.05176
2567.16,0.05211
2544.02,0.05199
2520.87,0.05190
2497.73,0.05203
2474.58,0.05251
2451.44,0.05171
2428.29,0.05212
2405.15,0.05145
2382,0.05172
2358.86,0.05189
2335.71,0.05141
2312.57,0.05177
2289.42,0.05136
2266.28,0.05163
2243.13,0.05158
2219.99,0.05131
2196.84,0.05092
2173.7,0.05067
2150.55,0.05046
2127.41,0.05062
2104.26,0.05082
2081.12,0.05023
2057.97,0.05001
2034.83,0.04974
2011.68,0.04993
1988.54,0.04964
1965.39,0.04905
1942.25,0.04921
1919.1,0.04908
1895.96,0.04815
1872.81,0.04778
1849.67,0.04656
1826.52,0.04573
1803.38,0.04384
1780.23,0.04059
1757.09,0.03144
1733.94,0.05987
1710.8,0.07421
1687.65,0.05871
1664.51,0.05494
1641.36,0.05369
1618.22,0.05246
1595.07,0.05083
1571.93,0.05002
1548.78,0.04823
1525.64,0.04716
1502.49,0.04362
1479.35,0.04579
1456.2,0.04608
1433.06,0.05631
1409.91,0.05107
1386.77,0.04921
1363.62,0.04974
1340.48,0.04747
1317.33,0.04447
1294.19,0.03995
1271.04,0.04160
1247.9,0.04433
1224.75,0.05068
1201.61,0.03881
1178.46,0.05336
1155.32,0.06209
1132.17,0.08784
1109.03,0.07564
1085.88,0.06724
1062.74,0.06566
1039.59,0.06377
1016.45,0.05943
993.304,0.05639
970.159,0.06102
947.014,0.06337
923.869,0.06099
900.724,0.06080
877.579,0.05906
854.434,0.05749
831.289,0.06012
808.144,0.06040
784.999,0.05844
761.854,0.05628
738.709,0.06246
715.565,0.05948
692.42,0.05981
669.275,0.05794
646.13,0.05613
622.985,0.05425
599.84,0.05648