File: 01_Data/Black_PMMA/FTIR/IS/Black_PMMA_IS_S_221012_R4.dpt
7497.03,0.04375
7473.89,0.04617
7450.74,0.05564
7427.6,0.04749
7404.45,0.04354
7381.31,0.05615
7358.16,0.05173
7335.02,0.05459
7311.87,0.05692
7288.73,0.05007
7265.58,0.05574
7242.44,0.04922
7219.29,0.05484
7196.15,0.05827
7173,0.05561
7149.86,0.05257
7126.71,0.04835
7103.57,0.04694
7080.42,0.05088
7057.28,0.05678
7034.13,0.05865
7010.99,0.05290
6987.84,0.04856
6964.7,0.04752
6941.55,0.04883
6918.41,0.05949
6895.26,0.05469
6872.12,0.05053
6848.97,0.05779
6825.83,0.05601
6802.68,0.05230
6779.54,0.04756
6756.39,0.05254
6733.25,0.05348
6710.1,0.05185
6686.96,0.05488
6663.82,0.05549
6640.67,0.05487
6617.53,0.05317
6594.38,0.05057
6571.24,0.05352
6548.09,0.05571
6524.95,0.04943
6501.8,0.04661
6478.66,0.05613
6455.51,0.05275
6432.37,0.05426
6409.22,0.05123
6386.08,0.05283
6362.93,0.05209
6339.79,0.05319
6316.64,0.05134
6293.5,0.05372
6270.35,0.05165
6247.21,0.05354
6224.06,0.05091
6200.92,0.05261
6177.77,0.05314
6154.63,0.05319
6131.48,0.05342
6108.34,0.05348
6085.19,0.05397
6062.05,0.05403
6038.9,0.05433
6015.76,0.05323
5992.61,0.05214
5969.47,0.05010
5946.32,0.05150
5923.18,0.05261
5900.03,0.05369
5876.89,0.05260
5853.74,0.05007
5830.6,0.05553
5807.45,0.05354
5784.31,0.05232
5761.16,0.05418
5738.02,0.05302
5714.87,0.05310
5691.73,0.05151
5668.58,0.05278
5645.44,0.05367
5622.29,0.05274
5599.15,0.05410
5576,0.05351
5552.86,0.05353
5529.71,0.05449
5506.57,0.05428
5483.42,0.05318
5460.28,0.05269
5437.13,0.05441
5413.99,0.05475
5390.84,0.05182
5367.7,0.05236
5344.55,0.05482
5321.41,0.05432
5298.26,0.05505
5275.12,0.05431
5251.97,0.05417
5228.83,0.05307
5205.68,0.05386
5182.54,0.05392
5159.39,0.05540
5136.25,0.05564
5113.1,0.05432
5089.96,0.05495
5066.81,0.05452
5043.67,0.05412
5020.52,0.05511
4997.38,0.05492
4974.23,0.05443
4951.09,0.05409
4927.94,0.05509
4904.8,0.05557
4881.65,0.05412
4858.51,0.05566
4835.36,0.05467
4812.22,0.05622
4789.07,0.05546
4765.93,0.05544
4742.78,0.05408
4719.64,0.05469
4696.49,0.05480
4673.35,0.05372
4650.2,0.05447
4627.06,0.05400
4603.92,0.05464
4580.77,0.05389
4557.63,0.05420
4534.48,0.05395
4511.34,0.05297
4488.19,0.05301
4465.05,0.05183
4441.9,0.05086
4418.76,0.05221
4395.61,0.05113
4372.47,0.05156
4349.32,0.05223
4326.18,0.05325
4303.03,0.05321
4279.89,0.05286
4256.74,0.05286
4233.6,0.05292
4210.45,0.05248
4187.31,0.05266
4164.16,0.05149
4141.02,0.05257
4117.87,0.05280
4094.73,0.05296
4071.58,0.05314
4048.44,0.05297
4025.29,0.05356
4002.15,0.05414
3979,0.05414
3955.86,0.05484
3932.71,0.05371
3909.57,0.05449
3886.42,0.05427
3863.28,0.05380
3840.13,0.05423
3816.99,0.05494
3793.84,0.05455
3770.7,0.05435
3747.55,0.05474
3724.41,0.05481
3701.26,0.05407
3678.12,0.05246
3654.97,0.05137
3631.83,0.05146
3608.68,0.05161
3585.54,0.05164
3562.39,0.05138
3539.25,0.05166
3516.1,0.05161
3492.96,0.05216
3469.81,0.05182
3446.67,0.05089
3423.52,0.05030
3400.38,0.05104
3377.23,0.05161
3354.09,0.05149
3330.94,0.05140
3307.8,0.05210
3284.65,0.05127
3261.51,0.05160
3238.36,0.05159
3215.22,0.05116
3192.07,0.05090
3168.93,0.05048
3145.78,0.05081
3122.64,0.05113
3099.49,0.05026
3076.35,0.04994
3053.2,0.04849
3030.06,0.04770
3006.91,0.04780
2983.77,0.05026
2960.62,0.04852
2937.48,0.05376
2914.33,0.05592
2891.19,0.05377
2868.04,0.05375
2844.9,0.05402
2821.75,0.05291
2798.61,0.05301
2775.46,0.05245
2752.32,0.05270
2729.17,0.05227
2706.03,0.05240
2682.88,0.05246
2659.74,0.05203
2636.59,0.05254
2613.45,0.05174
2590.3,0.05216
2567.16,0.05181
2544.02,0.05197
2520.87,0.05192
2497.73,0.05163
2474.58,0.05193
2451.44,0.05191
2428.29,0.05134
2405.15,0.05161
2382,0.05165
2358.86,0.05164
2335.71,0.05141
2312.57,0.05163
2289.42,0.05119
2266.28,0.05111
2243.13,0.05098
2219.99,0.05111
2196.84,0.05090
2173.7,0.05114
2150.55,0.05068
2127.41,0.05033
2104.26,0.05005
2081.12,0.04987
2057.97,0.04990
2034.83,0.04977
2011.68,0.04958
1988.54,0.04946
1965.39,0.04883
1942.25,0.04884
1919.1,0.04863
1895.96,0.04824
1872.81,0.04730
1849.67,0.04670
1826.52,0.04545
1803.38,0.04375
1780.23,0.04048
1757.09,0.03119
1733.94,0.05950
1710.8,0.07427
1687.65,0.05880
1664.51,0.05491
1641.36,0.05345
1618.22,0.05236
1595.07,0.05083
1571.93,0.04960
1548.78,0.04838
1525.64,0.04707
1502.49,0.04380
1479.35,0.04566
1456.2,0.04562
1433.06,0.05598
1409.91,0.05147
1386.77,0.04968
1363.62,0.04947
1340.48,0.04741
1317.33,0.04448
1294.19,0.04002
1271.04,0.04163
1247.9,0.04408
1224.75,0.05076
1201.61,0.03929
1178.46,0.05364
1155.32,0.06146
1132.17,0.08708
1109.03,0.07491
1085.88,0.06738
1062.74,0.06620
1039.59,0.06339
1016.45,0.05925
993.304,0.05643
970.159,0.06103
947.014,0.06294
923.869,0.06045
900.724,0.06105
877.579,0.05872
854.434,0.05758
831.289,0.06048
808.144,0.05931
784.999,0.05878
761.854,0.05589
738.709,0.06285
715.565,0.05975
692.42,0.05905
669.275,0.05715
646.13,0.05642
622.985,0.05718
599.84,0.05418