File: 01_Data/Black_PMMA/FTIR/IS/Black_PMMA_IS_S_221012_R1.dpt
7497.03,0.05452
7473.89,0.06095
7450.74,0.04932
7427.6,0.05529
7404.45,0.05242
7381.31,0.05135
7358.16,0.05708
7335.02,0.04836
7311.87,0.05003
7288.73,0.05376
7265.58,0.04303
7242.44,0.06020
7219.29,0.05010
7196.15,0.05349
7173,0.05088
7149.86,0.05866
7126.71,0.05106
7103.57,0.05152
7080.42,0.04932
7057.28,0.05591
7034.13,0.05230
7010.99,0.04725
6987.84,0.05078
6964.7,0.05553
6941.55,0.05045
6918.41,0.04675
6895.26,0.05528
6872.12,0.05589
6848.97,0.05589
6825.83,0.05225
6802.68,0.05765
6779.54,0.05521
6756.39,0.05701
6733.25,0.05068
6710.1,0.05026
6686.96,0.05260
6663.82,0.05139
6640.67,0.05129
6617.53,0.06150
6594.38,0.05198
6571.24,0.05226
6548.09,0.05201
6524.95,0.05751
6501.8,0.05243
6478.66,0.05189
6455.51,0.05407
6432.37,0.04943
6409.22,0.05285
6386.08,0.05833
6362.93,0.05232
6339.79,0.04870
6316.64,0.05385
6293.5,0.05195
6270.35,0.05034
6247.21,0.05401
6224.06,0.05367
6200.92,0.05318
6177.77,0.05297
6154.63,0.05241
6131.48,0.05310
6108.34,0.05161
6085.19,0.05388
6062.05,0.05337
6038.9,0.05146
6015.76,0.04955
5992.61,0.05352
5969.47,0.05235
5946.32,0.04948
5923.18,0.05105
5900.03,0.05017
5876.89,0.05176
5853.74,0.05283
5830.6,0.05222
5807.45,0.05018
5784.31,0.05220
5761.16,0.05301
5738.02,0.05200
5714.87,0.05428
5691.73,0.05379
5668.58,0.05295
5645.44,0.05129
5622.29,0.05214
5599.15,0.05391
5576,0.05487
5552.86,0.05413
5529.71,0.05365
5506.57,0.05461
5483.42,0.05305
5460.28,0.05445
5437.13,0.05438
5413.99,0.05672
5390.84,0.05477
5367.7,0.05552
5344.55,0.05546
5321.41,0.05454
5298.26,0.05220
5275.12,0.05320
5251.97,0.05333
5228.83,0.05258
5205.68,0.05343
5182.54,0.05425
5159.39,0.05383
5136.25,0.05350
5113.1,0.05412
5089.96,0.05395
5066.81,0.05486
5043.67,0.05418
5020.52,0.05473
4997.38,0.05635
4974.23,0.05492
4951.09,0.05537
4927.94,0.05548
4904.8,0.05426
4881.65,0.05546
4858.51,0.05517
4835.36,0.05524
4812.22,0.05530
4789.07,0.05506
4765.93,0.05436
4742.78,0.05442
4719.64,0.05431
4696.49,0.05550
4673.35,0.05542
4650.2,0.05483
4627.06,0.05409
4603.92,0.05403
4580.77,0.05446
4557.63,0.05384
4534.48,0.05413
4511.34,0.05251
4488.19,0.05242
4465.05,0.05177
4441.9,0.05111
4418.76,0.05200
4395.61,0.05219
4372.47,0.05145
4349.32,0.05246
4326.18,0.05301
4303.03,0.05326
4279.89,0.05285
4256.74,0.05324
4233.6,0.05256
4210.45,0.05201
4187.31,0.05177
4164.16,0.05317
4141.02,0.05315
4117.87,0.05320
4094.73,0.05314
4071.58,0.05314
4048.44,0.05325
4025.29,0.05308
4002.15,0.05307
3979,0.05400
3955.86,0.05412
3932.71,0.05434
3909.57,0.05465
3886.42,0.05408
3863.28,0.05408
3840.13,0.05383
3816.99,0.05418
3793.84,0.05457
3770.7,0.05519
3747.55,0.05391
3724.41,0.05450
3701.26,0.05346
3678.12,0.05212
3654.97,0.05166
3631.83,0.05121
3608.68,0.05081
3585.54,0.05146
3562.39,0.05064
3539.25,0.05117
3516.1,0.05163
3492.96,0.05102
3469.81,0.05076
3446.67,0.05126
3423.52,0.05049
3400.38,0.05131
3377.23,0.05101
3354.09,0.05131
3330.94,0.05148
3307.8,0.05158
3284.65,0.05148
3261.51,0.05132
3238.36,0.05184
3215.22,0.05142
3192.07,0.05150
3168.93,0.05109
3145.78,0.05090
3122.64,0.05032
3099.49,0.04986
3076.35,0.05054
3053.2,0.04908
3030.06,0.04779
3006.91,0.04790
2983.77,0.04982
2960.62,0.04861
2937.48,0.05378
2914.33,0.05541
2891.19,0.05353
2868.04,0.05395
2844.9,0.05356
2821.75,0.05290
2798.61,0.05303
2775.46,0.05247
2752.32,0.05281
2729.17,0.05273
2706.03,0.05330
2682.88,0.05244
2659.74,0.05238
2636.59,0.05250
2613.45,0.05187
2590.3,0.05193
2567.16,0.05176
2544.02,0.05210
2520.87,0.05225
2497.73,0.05220
2474.58,0.05204
2451.44,0.05201
2428.29,0.05194
2405.15,0.05123
2382,0.05156
2358.86,0.05142
2335.71,0.05162
2312.57,0.05175
2289.42,0.05128
2266.28,0.05133
2243.13,0.05127
2219.99,0.05113
2196.84,0.05099
2173.7,0.05115
2150.55,0.05039
2127.41,0.05024
2104.26,0.05035
2081.12,0.05002
2057.97,0.04968
2034.83,0.04991
2011.68,0.04962
1988.54,0.04942
1965.39,0.04911
1942.25,0.04911
1919.1,0.04876
1895.96,0.04836
1872.81,0.04763
1849.67,0.04664
1826.52,0.04543
1803.38,0.04357
1780.23,0.04048
1757.09,0.03155
1733.94,0.05938
1710.8,0.07445
1687.65,0.05946
1664.51,0.05527
1641.36,0.05359
1618.22,0.05209
1595.07,0.05113
1571.93,0.04956
1548.78,0.04854
1525.64,0.04719
1502.49,0.04326
1479.35,0.04597
1456.2,0.04598
1433.06,0.05554
1409.91,0.05119
1386.77,0.04996
1363.62,0.04943
1340.48,0.04723
1317.33,0.04446
1294.19,0.03966
1271.04,0.04178
1247.9,0.04412
1224.75,0.05101
1201.61,0.03823
1178.46,0.05374
1155.32,0.06210
1132.17,0.08734
1109.03,0.07495
1085.88,0.06724
1062.74,0.06661
1039.59,0.06315
1016.45,0.05916
993.304,0.05706
970.159,0.06121
947.014,0.06312
923.869,0.06084
900.724,0.06035
877.579,0.05879
854.434,0.05719
831.289,0.06025
808.144,0.06026
784.999,0.05872
761.854,0.05584
738.709,0.06142
715.565,0.05941
692.42,0.05880
669.275,0.05761
646.13,0.05652
622.985,0.05489
599.84,0.05479