File: 01_Data/Polyolefin_Carpet_Low_Pile/FTIR/IS/Polyolefin_Carpet_Low_Pile_IS_T_220819_R3.dpt
7497.03,0.01969
7473.89,0.01718
7450.74,0.02213
7427.6,0.01359
7404.45,0.01900
7381.31,0.03023
7358.16,0.02686
7335.02,0.02631
7311.87,0.02240
7288.73,0.01773
7265.58,0.01893
7242.44,0.02094
7219.29,0.02354
7196.15,0.01883
7173,0.01888
7149.86,0.01988
7126.71,0.02386
7103.57,0.02068
7080.42,0.02041
7057.28,0.02349
7034.13,0.01831
7010.99,0.02443
6987.84,0.01410
6964.7,0.02213
6941.55,0.02619
6918.41,0.02427
6895.26,0.02432
6872.12,0.02071
6848.97,0.01790
6825.83,0.01796
6802.68,0.02052
6779.54,0.01591
6756.39,0.02102
6733.25,0.02030
6710.1,0.01922
6686.96,0.01643
6663.82,0.02284
6640.67,0.01857
6617.53,0.01941
6594.38,0.02035
6571.24,0.02040
6548.09,0.01548
6524.95,0.01952
6501.8,0.02319
6478.66,0.01819
6455.51,0.01732
6432.37,0.01979
6409.22,0.01810
6386.08,0.01986
6362.93,0.02022
6339.79,0.02370
6316.64,0.01708
6293.5,0.02012
6270.35,0.01949
6247.21,0.01872
6224.06,0.01648
6200.92,0.01800
6177.77,0.01983
6154.63,0.01921
6131.48,0.01832
6108.34,0.01999
6085.19,0.01772
6062.05,0.02154
6038.9,0.02015
6015.76,0.01681
5992.61,0.02125
5969.47,0.01883
5946.32,0.01928
5923.18,0.01754
5900.03,0.01674
5876.89,0.01911
5853.74,0.01814
5830.6,0.01909
5807.45,0.02116
5784.31,0.01868
5761.16,0.01987
5738.02,0.01874
5714.87,0.02111
5691.73,0.01996
5668.58,0.01890
5645.44,0.01829
5622.29,0.02070
5599.15,0.01859
5576,0.01938
5552.86,0.01942
5529.71,0.01902
5506.57,0.01803
5483.42,0.01887
5460.28,0.01926
5437.13,0.02022
5413.99,0.01872
5390.84,0.02186
5367.7,0.01889
5344.55,0.02159
5321.41,0.01857
5298.26,0.01928
5275.12,0.01987
5251.97,0.01970
5228.83,0.01986
5205.68,0.02048
5182.54,0.02004
5159.39,0.02116
5136.25,0.01901
5113.1,0.01880
5089.96,0.01967
5066.81,0.02024
5043.67,0.01953
5020.52,0.01860
4997.38,0.02008
4974.23,0.01978
4951.09,0.01969
4927.94,0.01894
4904.8,0.01963
4881.65,0.01981
4858.51,0.01975
4835.36,0.01917
4812.22,0.02016
4789.07,0.01908
4765.93,0.01985
4742.78,0.01899
4719.64,0.02094
4696.49,0.01947
4673.35,0.01866
4650.2,0.01957
4627.06,0.01934
4603.92,0.01917
4580.77,0.02022
4557.63,0.01989
4534.48,0.01895
4511.34,0.01992
4488.19,0.02024
4465.05,0.02023
4441.9,0.01992
4418.76,0.01947
4395.61,0.01980
4372.47,0.01984
4349.32,0.01990
4326.18,0.02047
4303.03,0.02010
4279.89,0.01882
4256.74,0.01985
4233.6,0.01978
4210.45,0.02029
4187.31,0.02024
4164.16,0.01987
4141.02,0.01935
4117.87,0.01969
4094.73,0.02070
4071.58,0.02055
4048.44,0.02009
4025.29,0.02002
4002.15,0.02010
3979,0.02040
3955.86,0.02028
3932.71,0.01948
3909.57,0.02025
3886.42,0.01942
3863.28,0.01987
3840.13,0.02011
3816.99,0.02041
3793.84,0.01999
3770.7,0.01981
3747.55,0.01967
3724.41,0.01971
3701.26,0.01992
3678.12,0.01992
3654.97,0.01910
3631.83,0.01881
3608.68,0.01931
3585.54,0.01907
3562.39,0.01888
3539.25,0.01820
3516.1,0.01798
3492.96,0.01858
3469.81,0.01809
3446.67,0.01756
3423.52,0.01780
3400.38,0.01766
3377.23,0.01752
3354.09,0.01727
3330.94,0.01707
3307.8,0.01762
3284.65,0.01769
3261.51,0.01809
3238.36,0.01816
3215.22,0.01779
3192.07,0.01797
3168.93,0.01759
3145.78,0.01836
3122.64,0.01847
3099.49,0.01776
3076.35,0.01811
3053.2,0.01751
3030.06,0.01853
3006.91,0.01769
2983.77,0.01730
2960.62,0.01656
2937.48,0.01653
2914.33,0.01755
2891.19,0.01780
2868.04,0.01776
2844.9,0.01859
2821.75,0.01854
2798.61,0.01801
2775.46,0.01843
2752.32,0.01827
2729.17,0.01806
2706.03,0.01858
2682.88,0.01848
2659.74,0.01882
2636.59,0.01891
2613.45,0.01825
2590.3,0.01848
2567.16,0.01841
2544.02,0.01863
2520.87,0.01861
2497.73,0.01885
2474.58,0.01882
2451.44,0.01862
2428.29,0.01825
2405.15,0.01870
2382,0.01848
2358.86,0.01861
2335.71,0.01879
2312.57,0.01828
2289.42,0.01859
2266.28,0.01804
2243.13,0.01839
2219.99,0.01827
2196.84,0.01819
2173.7,0.01843
2150.55,0.01836
2127.41,0.01798
2104.26,0.01864
2081.12,0.01816
2057.97,0.01842
2034.83,0.01792
2011.68,0.01808
1988.54,0.01813
1965.39,0.01782
1942.25,0.01820
1919.1,0.01800
1895.96,0.01772
1872.81,0.01778
1849.67,0.01771
1826.52,0.01766
1803.38,0.01648
1780.23,0.01620
1757.09,0.01490
1733.94,0.01691
1710.8,0.01782
1687.65,0.01637
1664.51,0.01562
1641.36,0.01578
1618.22,0.01593
1595.07,0.01612
1571.93,0.01545
1548.78,0.01565
1525.64,0.01538
1502.49,0.01607
1479.35,0.01577
1456.2,0.01588
1433.06,0.01608
1409.91,0.01562
1386.77,0.01554
1363.62,0.01528
1340.48,0.01536
1317.33,0.01444
1294.19,0.01516
1271.04,0.01622
1247.9,0.01747
1224.75,0.01645
1201.61,0.01564
1178.46,0.01508
1155.32,0.01457
1132.17,0.01543
1109.03,0.01580
1085.88,0.01500
1062.74,0.01762
1039.59,0.01633
1016.45,0.01644
993.304,0.01868
970.159,0.01727
947.014,0.01720
923.869,0.01678
900.724,0.01661
877.579,0.01648
854.434,0.01707
831.289,0.01594
808.144,0.01672
784.999,0.01540
761.854,0.01483
738.709,0.01592
715.565,0.01570
692.42,0.01537
669.275,0.01427
646.13,0.01569
622.985,0.01254
599.84,0.01243