File: 01_Data/Polyolefin_Carpet_Low_Pile/FTIR/IS/Polyolefin_Carpet_Low_Pile_IS_S_220819_R1.dpt
7497.03,0.12729
7473.89,0.11761
7450.74,0.12310
7427.6,0.11929
7404.45,0.11789
7381.31,0.12139
7358.16,0.11568
7335.02,0.11136
7311.87,0.12164
7288.73,0.11484
7265.58,0.11345
7242.44,0.12369
7219.29,0.11376
7196.15,0.11917
7173,0.11867
7149.86,0.11911
7126.71,0.12455
7103.57,0.11593
7080.42,0.11030
7057.28,0.11941
7034.13,0.11252
7010.99,0.12150
6987.84,0.11288
6964.7,0.11849
6941.55,0.11393
6918.41,0.11902
6895.26,0.11548
6872.12,0.12311
6848.97,0.11783
6825.83,0.11495
6802.68,0.12287
6779.54,0.11737
6756.39,0.11145
6733.25,0.12139
6710.1,0.11801
6686.96,0.11971
6663.82,0.11501
6640.67,0.11876
6617.53,0.11579
6594.38,0.12016
6571.24,0.12173
6548.09,0.11616
6524.95,0.12008
6501.8,0.12018
6478.66,0.12343
6455.51,0.11740
6432.37,0.11918
6409.22,0.12041
6386.08,0.12025
6362.93,0.11716
6339.79,0.11925
6316.64,0.11953
6293.5,0.11982
6270.35,0.12129
6247.21,0.11871
6224.06,0.11809
6200.92,0.11817
6177.77,0.12140
6154.63,0.11952
6131.48,0.11823
6108.34,0.11777
6085.19,0.11868
6062.05,0.12056
6038.9,0.11880
6015.76,0.11643
5992.61,0.11852
5969.47,0.11708
5946.32,0.11657
5923.18,0.11088
5900.03,0.10617
5876.89,0.10556
5853.74,0.09858
5830.6,0.10426
5807.45,0.10004
5784.31,0.10444
5761.16,0.10151
5738.02,0.10673
5714.87,0.10774
5691.73,0.10931
5668.58,0.11058
5645.44,0.10989
5622.29,0.11202
5599.15,0.11195
5576,0.11263
5552.86,0.11267
5529.71,0.11230
5506.57,0.11300
5483.42,0.11098
5460.28,0.11291
5437.13,0.11290
5413.99,0.11625
5390.84,0.11576
5367.7,0.11827
5344.55,0.11699
5321.41,0.11540
5298.26,0.11841
5275.12,0.11764
5251.97,0.11851
5228.83,0.11763
5205.68,0.11859
5182.54,0.11834
5159.39,0.11872
5136.25,0.11798
5113.1,0.11867
5089.96,0.11825
5066.81,0.11735
5043.67,0.11817
5020.52,0.11870
4997.38,0.12038
4974.23,0.11996
4951.09,0.11977
4927.94,0.12066
4904.8,0.12154
4881.65,0.12036
4858.51,0.12225
4835.36,0.12105
4812.22,0.12091
4789.07,0.12173
4765.93,0.12185
4742.78,0.12155
4719.64,0.12222
4696.49,0.12220
4673.35,0.12194
4650.2,0.12018
4627.06,0.12012
4603.92,0.12119
4580.77,0.11930
4557.63,0.11910
4534.48,0.12048
4511.34,0.11955
4488.19,0.11889
4465.05,0.11796
4441.9,0.11329
4418.76,0.09594
4395.61,0.07632
4372.47,0.08467
4349.32,0.08350
4326.18,0.05859
4303.03,0.06843
4279.89,0.07398
4256.74,0.06995
4233.6,0.06599
4210.45,0.07139
4187.31,0.07979
4164.16,0.07504
4141.02,0.08151
4117.87,0.07821
4094.73,0.08516
4071.58,0.07448
4048.44,0.07876
4025.29,0.08750
4002.15,0.09222
3979,0.09517
3955.86,0.09845
3932.71,0.09837
3909.57,0.10046
3886.42,0.10078
3863.28,0.10195
3840.13,0.10342
3816.99,0.10257
3793.84,0.10477
3770.7,0.10335
3747.55,0.10576
3724.41,0.10815
3701.26,0.10816
3678.12,0.10960
3654.97,0.11362
3631.83,0.11053
3608.68,0.11400
3585.54,0.11376
3562.39,0.11185
3539.25,0.11013
3516.1,0.10754
3492.96,0.10623
3469.81,0.10352
3446.67,0.09764
3423.52,0.09428
3400.38,0.09385
3377.23,0.09213
3354.09,0.08885
3330.94,0.09227
3307.8,0.09320
3284.65,0.09094
3261.51,0.09146
3238.36,0.09011
3215.22,0.07462
3192.07,0.06542
3168.93,0.06933
3145.78,0.06573
3122.64,0.07034
3099.49,0.07236
3076.35,0.07119
3053.2,0.06491
3030.06,0.05627
3006.91,0.03550
2983.77,0.01781
2960.62,0.01705
2937.48,0.01734
2914.33,0.01930
2891.19,0.01869
2868.04,0.01924
2844.9,0.01875
2821.75,0.02177
2798.61,0.03046
2775.46,0.04990
2752.32,0.05719
2729.17,0.04315
2706.03,0.05321
2682.88,0.05820
2659.74,0.05966
2636.59,0.06889
2613.45,0.06432
2590.3,0.07073
2567.16,0.07624
2544.02,0.08567
2520.87,0.09575
2497.73,0.10069
2474.58,0.10486
2451.44,0.10432
2428.29,0.09564
2405.15,0.09979
2382,0.10281
2358.86,0.10121
2335.71,0.10861
2312.57,0.11669
2289.42,0.11782
2266.28,0.11314
2243.13,0.11646
2219.99,0.11849
2196.84,0.11590
2173.7,0.11348
2150.55,0.12135
2127.41,0.11844
2104.26,0.13213
2081.12,0.13601
2057.97,0.14081
2034.83,0.13957
2011.68,0.14171
1988.54,0.14029
1965.39,0.14017
1942.25,0.13860
1919.1,0.13705
1895.96,0.13246
1872.81,0.13728
1849.67,0.13457
1826.52,0.13157
1803.38,0.13397
1780.23,0.12896
1757.09,0.11729
1733.94,0.10114
1710.8,0.10515
1687.65,0.10135
1664.51,0.10204
1641.36,0.09216
1618.22,0.09743
1595.07,0.10313
1571.93,0.10348
1548.78,0.09482
1525.64,0.08921
1502.49,0.07520
1479.35,0.03430
1456.2,0.01782
1433.06,0.02760
1409.91,0.05573
1386.77,0.02767
1363.62,0.02649
1340.48,0.05925
1317.33,0.07067
1294.19,0.05659
1271.04,0.07967
1247.9,0.07096
1224.75,0.07936
1201.61,0.08433
1178.46,0.06045
1155.32,0.03530
1132.17,0.08068
1109.03,0.07423
1085.88,0.09326
1062.74,0.09904
1039.59,0.08181
1016.45,0.08483
993.304,0.04300
970.159,0.03300
947.014,0.10561
923.869,0.12745
900.724,0.06478
877.579,0.11551
854.434,0.09115
831.289,0.08211
808.144,0.06033
784.999,0.13724
761.854,0.15116
738.709,0.15138
715.565,0.14314
692.42,0.15131
669.275,0.15077
646.13,0.15432
622.985,0.15470
599.84,0.15478