File: 01_Data/Polyolefin_Carpet_Low_Pile/FTIR/IS/Polyolefin_Carpet_Low_Pile_IS_T_220819_R2.dpt
7497.03,0.02266
7473.89,0.02846
7450.74,0.01870
7427.6,0.02500
7404.45,0.01539
7381.31,0.02418
7358.16,0.02833
7335.02,0.01872
7311.87,0.02164
7288.73,0.01770
7265.58,0.02137
7242.44,0.02351
7219.29,0.01994
7196.15,0.02561
7173,0.02575
7149.86,0.01754
7126.71,0.02256
7103.57,0.01462
7080.42,0.01904
7057.28,0.02362
7034.13,0.02222
7010.99,0.02271
6987.84,0.01794
6964.7,0.01872
6941.55,0.02054
6918.41,0.02366
6895.26,0.02265
6872.12,0.01952
6848.97,0.01937
6825.83,0.01905
6802.68,0.02253
6779.54,0.02066
6756.39,0.01889
6733.25,0.02089
6710.1,0.01982
6686.96,0.01990
6663.82,0.01696
6640.67,0.02315
6617.53,0.02430
6594.38,0.02086
6571.24,0.01933
6548.09,0.02022
6524.95,0.01852
6501.8,0.01882
6478.66,0.01858
6455.51,0.02018
6432.37,0.02075
6409.22,0.01959
6386.08,0.02084
6362.93,0.02124
6339.79,0.01993
6316.64,0.02020
6293.5,0.02047
6270.35,0.01987
6247.21,0.01709
6224.06,0.01669
6200.92,0.02003
6177.77,0.01748
6154.63,0.02057
6131.48,0.02127
6108.34,0.01913
6085.19,0.01762
6062.05,0.01710
6038.9,0.01967
6015.76,0.01833
5992.61,0.01988
5969.47,0.01752
5946.32,0.01974
5923.18,0.01877
5900.03,0.01820
5876.89,0.02049
5853.74,0.01844
5830.6,0.02184
5807.45,0.01892
5784.31,0.01898
5761.16,0.01747
5738.02,0.01944
5714.87,0.01848
5691.73,0.01878
5668.58,0.01923
5645.44,0.01960
5622.29,0.01755
5599.15,0.01988
5576,0.01889
5552.86,0.01993
5529.71,0.01973
5506.57,0.01928
5483.42,0.01999
5460.28,0.01852
5437.13,0.02143
5413.99,0.01934
5390.84,0.01777
5367.7,0.02038
5344.55,0.01945
5321.41,0.02181
5298.26,0.01836
5275.12,0.01848
5251.97,0.01967
5228.83,0.01864
5205.68,0.01934
5182.54,0.01911
5159.39,0.01851
5136.25,0.01956
5113.1,0.01807
5089.96,0.01874
5066.81,0.01985
5043.67,0.01933
5020.52,0.01845
4997.38,0.01913
4974.23,0.01958
4951.09,0.01900
4927.94,0.01925
4904.8,0.01866
4881.65,0.01945
4858.51,0.01920
4835.36,0.01887
4812.22,0.01941
4789.07,0.01897
4765.93,0.01819
4742.78,0.02055
4719.64,0.01932
4696.49,0.01929
4673.35,0.01911
4650.2,0.01986
4627.06,0.01916
4603.92,0.01949
4580.77,0.01872
4557.63,0.01897
4534.48,0.01861
4511.34,0.01934
4488.19,0.01928
4465.05,0.01937
4441.9,0.01909
4418.76,0.01943
4395.61,0.02001
4372.47,0.02013
4349.32,0.01970
4326.18,0.01958
4303.03,0.01958
4279.89,0.01915
4256.74,0.01837
4233.6,0.01932
4210.45,0.01982
4187.31,0.01905
4164.16,0.01898
4141.02,0.01913
4117.87,0.01955
4094.73,0.01920
4071.58,0.01950
4048.44,0.01952
4025.29,0.01928
4002.15,0.01956
3979,0.01907
3955.86,0.01979
3932.71,0.01978
3909.57,0.01969
3886.42,0.01905
3863.28,0.01915
3840.13,0.01983
3816.99,0.01950
3793.84,0.01933
3770.7,0.01903
3747.55,0.01973
3724.41,0.01960
3701.26,0.01922
3678.12,0.01926
3654.97,0.01885
3631.83,0.01911
3608.68,0.01936
3585.54,0.01861
3562.39,0.01741
3539.25,0.01803
3516.1,0.01844
3492.96,0.01778
3469.81,0.01826
3446.67,0.01741
3423.52,0.01696
3400.38,0.01750
3377.23,0.01719
3354.09,0.01677
3330.94,0.01683
3307.8,0.01654
3284.65,0.01718
3261.51,0.01708
3238.36,0.01753
3215.22,0.01720
3192.07,0.01726
3168.93,0.01749
3145.78,0.01764
3122.64,0.01728
3099.49,0.01775
3076.35,0.01718
3053.2,0.01744
3030.06,0.01771
3006.91,0.01757
2983.77,0.01693
2960.62,0.01598
2937.48,0.01635
2914.33,0.01724
2891.19,0.01712
2868.04,0.01721
2844.9,0.01771
2821.75,0.01797
2798.61,0.01794
2775.46,0.01802
2752.32,0.01805
2729.17,0.01842
2706.03,0.01827
2682.88,0.01809
2659.74,0.01808
2636.59,0.01805
2613.45,0.01809
2590.3,0.01806
2567.16,0.01827
2544.02,0.01807
2520.87,0.01806
2497.73,0.01807
2474.58,0.01804
2451.44,0.01790
2428.29,0.01820
2405.15,0.01823
2382,0.01800
2358.86,0.01790
2335.71,0.01776
2312.57,0.01803
2289.42,0.01817
2266.28,0.01780
2243.13,0.01782
2219.99,0.01820
2196.84,0.01763
2173.7,0.01777
2150.55,0.01790
2127.41,0.01761
2104.26,0.01771
2081.12,0.01765
2057.97,0.01758
2034.83,0.01783
2011.68,0.01786
1988.54,0.01733
1965.39,0.01764
1942.25,0.01762
1919.1,0.01740
1895.96,0.01781
1872.81,0.01729
1849.67,0.01718
1826.52,0.01701
1803.38,0.01665
1780.23,0.01614
1757.09,0.01438
1733.94,0.01655
1710.8,0.01728
1687.65,0.01633
1664.51,0.01531
1641.36,0.01560
1618.22,0.01600
1595.07,0.01568
1571.93,0.01511
1548.78,0.01484
1525.64,0.01527
1502.49,0.01537
1479.35,0.01520
1456.2,0.01562
1433.06,0.01566
1409.91,0.01528
1386.77,0.01470
1363.62,0.01521
1340.48,0.01474
1317.33,0.01401
1294.19,0.01457
1271.04,0.01573
1247.9,0.01661
1224.75,0.01628
1201.61,0.01543
1178.46,0.01479
1155.32,0.01475
1132.17,0.01495
1109.03,0.01626
1085.88,0.01538
1062.74,0.01663
1039.59,0.01659
1016.45,0.01636
993.304,0.01789
970.159,0.01680
947.014,0.01692
923.869,0.01587
900.724,0.01616
877.579,0.01574
854.434,0.01525
831.289,0.01608
808.144,0.01647
784.999,0.01540
761.854,0.01480
738.709,0.01578
715.565,0.01490
692.42,0.01466
669.275,0.01596
646.13,0.01428
622.985,0.01392
599.84,0.01376