File: 01_Data/Polyolefin_Carpet_Low_Pile/FTIR/IS/Polyolefin_Carpet_Low_Pile_IS_S_220819_R3.dpt
7497.03,0.11507
7473.89,0.12213
7450.74,0.11719
7427.6,0.11778
7404.45,0.11607
7381.31,0.10803
7358.16,0.12471
7335.02,0.11593
7311.87,0.11267
7288.73,0.12303
7265.58,0.11535
7242.44,0.11483
7219.29,0.11682
7196.15,0.11703
7173,0.11400
7149.86,0.11788
7126.71,0.11318
7103.57,0.11532
7080.42,0.11694
7057.28,0.11382
7034.13,0.11075
7010.99,0.11747
6987.84,0.11337
6964.7,0.11408
6941.55,0.11468
6918.41,0.12475
6895.26,0.11745
6872.12,0.11589
6848.97,0.11638
6825.83,0.11414
6802.68,0.11764
6779.54,0.11960
6756.39,0.11704
6733.25,0.11279
6710.1,0.11499
6686.96,0.12098
6663.82,0.11460
6640.67,0.11672
6617.53,0.11615
6594.38,0.11718
6571.24,0.12081
6548.09,0.11773
6524.95,0.11867
6501.8,0.12001
6478.66,0.12170
6455.51,0.11903
6432.37,0.11490
6409.22,0.12042
6386.08,0.11908
6362.93,0.11949
6339.79,0.11826
6316.64,0.11688
6293.5,0.12000
6270.35,0.11920
6247.21,0.11836
6224.06,0.11801
6200.92,0.11842
6177.77,0.11850
6154.63,0.11877
6131.48,0.11661
6108.34,0.11917
6085.19,0.11894
6062.05,0.11801
6038.9,0.11756
6015.76,0.12030
5992.61,0.11768
5969.47,0.11704
5946.32,0.11501
5923.18,0.11025
5900.03,0.10326
5876.89,0.10342
5853.74,0.09980
5830.6,0.10509
5807.45,0.10158
5784.31,0.10241
5761.16,0.09983
5738.02,0.10606
5714.87,0.10894
5691.73,0.11001
5668.58,0.10707
5645.44,0.11045
5622.29,0.11000
5599.15,0.11260
5576,0.11177
5552.86,0.11247
5529.71,0.11501
5506.57,0.11140
5483.42,0.11174
5460.28,0.11244
5437.13,0.11317
5413.99,0.11443
5390.84,0.11602
5367.7,0.11700
5344.55,0.11582
5321.41,0.11807
5298.26,0.11644
5275.12,0.11587
5251.97,0.11671
5228.83,0.11648
5205.68,0.11703
5182.54,0.11766
5159.39,0.11732
5136.25,0.11752
5113.1,0.11888
5089.96,0.11883
5066.81,0.11764
5043.67,0.11787
5020.52,0.11901
4997.38,0.11893
4974.23,0.11953
4951.09,0.12050
4927.94,0.12059
4904.8,0.12070
4881.65,0.11978
4858.51,0.12089
4835.36,0.12165
4812.22,0.12062
4789.07,0.12090
4765.93,0.12195
4742.78,0.12247
4719.64,0.12231
4696.49,0.12166
4673.35,0.12156
4650.2,0.12008
4627.06,0.12034
4603.92,0.11977
4580.77,0.11880
4557.63,0.11872
4534.48,0.11894
4511.34,0.11870
4488.19,0.11841
4465.05,0.11735
4441.9,0.11201
4418.76,0.09587
4395.61,0.07635
4372.47,0.08331
4349.32,0.08335
4326.18,0.05799
4303.03,0.06754
4279.89,0.07298
4256.74,0.06960
4233.6,0.06606
4210.45,0.07108
4187.31,0.07869
4164.16,0.07500
4141.02,0.08019
4117.87,0.07753
4094.73,0.08436
4071.58,0.07380
4048.44,0.07790
4025.29,0.08746
4002.15,0.09196
3979,0.09467
3955.86,0.09839
3932.71,0.09694
3909.57,0.09901
3886.42,0.10038
3863.28,0.10160
3840.13,0.10289
3816.99,0.10214
3793.84,0.10421
3770.7,0.10320
3747.55,0.10531
3724.41,0.10728
3701.26,0.10684
3678.12,0.10924
3654.97,0.11302
3631.83,0.11112
3608.68,0.11352
3585.54,0.11307
3562.39,0.11186
3539.25,0.10919
3516.1,0.10739
3492.96,0.10493
3469.81,0.10270
3446.67,0.09731
3423.52,0.09228
3400.38,0.09248
3377.23,0.09134
3354.09,0.08890
3330.94,0.09128
3307.8,0.09275
3284.65,0.09121
3261.51,0.09093
3238.36,0.08807
3215.22,0.07346
3192.07,0.06442
3168.93,0.06841
3145.78,0.06501
3122.64,0.06865
3099.49,0.07153
3076.35,0.07127
3053.2,0.06375
3030.06,0.05561
3006.91,0.03525
2983.77,0.01766
2960.62,0.01654
2937.48,0.01701
2914.33,0.01879
2891.19,0.01828
2868.04,0.01859
2844.9,0.01801
2821.75,0.02130
2798.61,0.03001
2775.46,0.04929
2752.32,0.05718
2729.17,0.04191
2706.03,0.05198
2682.88,0.05788
2659.74,0.05940
2636.59,0.06866
2613.45,0.06335
2590.3,0.07005
2567.16,0.07536
2544.02,0.08525
2520.87,0.09523
2497.73,0.10006
2474.58,0.10468
2451.44,0.10383
2428.29,0.09433
2405.15,0.09968
2382,0.10215
2358.86,0.10050
2335.71,0.10760
2312.57,0.11588
2289.42,0.11701
2266.28,0.11223
2243.13,0.11614
2219.99,0.11777
2196.84,0.11522
2173.7,0.11302
2150.55,0.12046
2127.41,0.11804
2104.26,0.13172
2081.12,0.13520
2057.97,0.14011
2034.83,0.13959
2011.68,0.14086
1988.54,0.13969
1965.39,0.13942
1942.25,0.13840
1919.1,0.13617
1895.96,0.13203
1872.81,0.13656
1849.67,0.13371
1826.52,0.13071
1803.38,0.13291
1780.23,0.12816
1757.09,0.11659
1733.94,0.10034
1710.8,0.10439
1687.65,0.10056
1664.51,0.10166
1641.36,0.09219
1618.22,0.09720
1595.07,0.10203
1571.93,0.10280
1548.78,0.09453
1525.64,0.08871
1502.49,0.07451
1479.35,0.03390
1456.2,0.01686
1433.06,0.02737
1409.91,0.05523
1386.77,0.02782
1363.62,0.02540
1340.48,0.05878
1317.33,0.07021
1294.19,0.05603
1271.04,0.07870
1247.9,0.07078
1224.75,0.07819
1201.61,0.08412
1178.46,0.05919
1155.32,0.03431
1132.17,0.08005
1109.03,0.07288
1085.88,0.09266
1062.74,0.09870
1039.59,0.08186
1016.45,0.08420
993.304,0.04287
970.159,0.03203
947.014,0.10526
923.869,0.12688
900.724,0.06376
877.579,0.11440
854.434,0.09109
831.289,0.08100
808.144,0.05919
784.999,0.13633
761.854,0.15041
738.709,0.15036
715.565,0.14282
692.42,0.15088
669.275,0.15177
646.13,0.15280
622.985,0.15327
599.84,0.15591