File: 01_Data/Polyolefin_Carpet_Low_Pile/FTIR/IS/Polyolefin_Carpet_Low_Pile_IS_S_220819_R8.dpt
7497.03,0.11431
7473.89,0.11597
7450.74,0.11756
7427.6,0.11448
7404.45,0.11634
7381.31,0.11272
7358.16,0.12817
7335.02,0.11760
7311.87,0.11693
7288.73,0.11322
7265.58,0.12263
7242.44,0.11442
7219.29,0.12532
7196.15,0.11584
7173,0.11002
7149.86,0.10958
7126.71,0.11544
7103.57,0.11445
7080.42,0.11870
7057.28,0.11838
7034.13,0.11599
7010.99,0.11103
6987.84,0.11414
6964.7,0.11662
6941.55,0.11862
6918.41,0.12452
6895.26,0.11389
6872.12,0.11693
6848.97,0.11441
6825.83,0.11687
6802.68,0.11785
6779.54,0.11905
6756.39,0.12161
6733.25,0.11875
6710.1,0.11867
6686.96,0.12344
6663.82,0.11989
6640.67,0.12311
6617.53,0.11803
6594.38,0.11655
6571.24,0.12179
6548.09,0.11639
6524.95,0.11956
6501.8,0.11795
6478.66,0.11913
6455.51,0.12012
6432.37,0.11495
6409.22,0.11823
6386.08,0.11771
6362.93,0.11825
6339.79,0.11851
6316.64,0.11947
6293.5,0.12071
6270.35,0.11912
6247.21,0.11737
6224.06,0.11826
6200.92,0.11859
6177.77,0.11845
6154.63,0.12015
6131.48,0.11808
6108.34,0.11973
6085.19,0.11631
6062.05,0.11939
6038.9,0.11870
6015.76,0.11918
5992.61,0.11845
5969.47,0.11886
5946.32,0.11586
5923.18,0.11287
5900.03,0.10642
5876.89,0.10101
5853.74,0.10010
5830.6,0.10429
5807.45,0.09915
5784.31,0.10219
5761.16,0.10124
5738.02,0.10523
5714.87,0.10810
5691.73,0.10825
5668.58,0.10977
5645.44,0.11017
5622.29,0.11052
5599.15,0.11104
5576,0.11325
5552.86,0.11186
5529.71,0.11260
5506.57,0.11233
5483.42,0.11159
5460.28,0.11309
5437.13,0.11260
5413.99,0.11664
5390.84,0.11561
5367.7,0.11703
5344.55,0.11760
5321.41,0.11703
5298.26,0.11591
5275.12,0.11645
5251.97,0.11725
5228.83,0.11754
5205.68,0.11686
5182.54,0.11653
5159.39,0.11880
5136.25,0.11821
5113.1,0.11882
5089.96,0.11785
5066.81,0.11864
5043.67,0.11837
5020.52,0.11811
4997.38,0.12018
4974.23,0.12182
4951.09,0.11931
4927.94,0.12111
4904.8,0.12016
4881.65,0.11932
4858.51,0.12085
4835.36,0.12111
4812.22,0.12156
4789.07,0.12050
4765.93,0.12193
4742.78,0.12093
4719.64,0.12228
4696.49,0.12090
4673.35,0.12045
4650.2,0.12141
4627.06,0.12040
4603.92,0.11952
4580.77,0.12008
4557.63,0.11937
4534.48,0.11887
4511.34,0.11927
4488.19,0.11849
4465.05,0.11666
4441.9,0.11266
4418.76,0.09621
4395.61,0.07579
4372.47,0.08329
4349.32,0.08308
4326.18,0.05801
4303.03,0.06822
4279.89,0.07453
4256.74,0.06948
4233.6,0.06575
4210.45,0.07111
4187.31,0.07904
4164.16,0.07459
4141.02,0.08055
4117.87,0.07852
4094.73,0.08477
4071.58,0.07434
4048.44,0.07762
4025.29,0.08770
4002.15,0.09147
3979,0.09538
3955.86,0.09867
3932.71,0.09771
3909.57,0.09906
3886.42,0.10047
3863.28,0.10186
3840.13,0.10314
3816.99,0.10288
3793.84,0.10438
3770.7,0.10306
3747.55,0.10477
3724.41,0.10763
3701.26,0.10680
3678.12,0.10866
3654.97,0.11318
3631.83,0.11183
3608.68,0.11433
3585.54,0.11318
3562.39,0.11152
3539.25,0.10930
3516.1,0.10765
3492.96,0.10582
3469.81,0.10242
3446.67,0.09810
3423.52,0.09278
3400.38,0.09288
3377.23,0.09165
3354.09,0.08905
3330.94,0.09132
3307.8,0.09227
3284.65,0.09136
3261.51,0.09146
3238.36,0.08866
3215.22,0.07437
3192.07,0.06528
3168.93,0.06822
3145.78,0.06509
3122.64,0.06919
3099.49,0.07181
3076.35,0.07061
3053.2,0.06435
3030.06,0.05544
3006.91,0.03491
2983.77,0.01737
2960.62,0.01618
2937.48,0.01645
2914.33,0.01892
2891.19,0.01862
2868.04,0.01867
2844.9,0.01860
2821.75,0.02115
2798.61,0.02953
2775.46,0.04951
2752.32,0.05644
2729.17,0.04210
2706.03,0.05267
2682.88,0.05796
2659.74,0.05920
2636.59,0.06879
2613.45,0.06373
2590.3,0.07006
2567.16,0.07566
2544.02,0.08513
2520.87,0.09499
2497.73,0.10025
2474.58,0.10450
2451.44,0.10361
2428.29,0.09500
2405.15,0.09941
2382,0.10210
2358.86,0.10064
2335.71,0.10776
2312.57,0.11617
2289.42,0.11719
2266.28,0.11234
2243.13,0.11610
2219.99,0.11844
2196.84,0.11533
2173.7,0.11317
2150.55,0.12077
2127.41,0.11814
2104.26,0.13165
2081.12,0.13545
2057.97,0.14048
2034.83,0.13959
2011.68,0.14106
1988.54,0.14006
1965.39,0.13961
1942.25,0.13855
1919.1,0.13632
1895.96,0.13218
1872.81,0.13658
1849.67,0.13402
1826.52,0.13056
1803.38,0.13322
1780.23,0.12850
1757.09,0.11658
1733.94,0.10042
1710.8,0.10500
1687.65,0.10075
1664.51,0.10167
1641.36,0.09212
1618.22,0.09684
1595.07,0.10261
1571.93,0.10285
1548.78,0.09437
1525.64,0.08910
1502.49,0.07428
1479.35,0.03386
1456.2,0.01659
1433.06,0.02761
1409.91,0.05533
1386.77,0.02699
1363.62,0.02548
1340.48,0.05886
1317.33,0.07036
1294.19,0.05602
1271.04,0.07924
1247.9,0.07071
1224.75,0.07883
1201.61,0.08396
1178.46,0.06000
1155.32,0.03399
1132.17,0.08001
1109.03,0.07377
1085.88,0.09230
1062.74,0.09888
1039.59,0.08113
1016.45,0.08453
993.304,0.04178
970.159,0.03254
947.014,0.10453
923.869,0.12779
900.724,0.06429
877.579,0.11525
854.434,0.09080
831.289,0.08069
808.144,0.06000
784.999,0.13705
761.854,0.15068
738.709,0.14954
715.565,0.14244
692.42,0.15071
669.275,0.15194
646.13,0.15189
622.985,0.15280
599.84,0.15313