File: 01_Data/Polyolefin_Carpet_Low_Pile/FTIR/IS/Polyolefin_Carpet_Low_Pile_IS_T_220819_R1.dpt
7497.03,0.02199
7473.89,0.01128
7450.74,0.02094
7427.6,0.01997
7404.45,0.02193
7381.31,0.02479
7358.16,0.01642
7335.02,0.01672
7311.87,0.02429
7288.73,0.01785
7265.58,0.01536
7242.44,0.01925
7219.29,0.01429
7196.15,0.02121
7173,0.01514
7149.86,0.02289
7126.71,0.02122
7103.57,0.02671
7080.42,0.02422
7057.28,0.02125
7034.13,0.02100
7010.99,0.02476
6987.84,0.01714
6964.7,0.02198
6941.55,0.01664
6918.41,0.02019
6895.26,0.01897
6872.12,0.02352
6848.97,0.02143
6825.83,0.02168
6802.68,0.01581
6779.54,0.02374
6756.39,0.01978
6733.25,0.01683
6710.1,0.01231
6686.96,0.01845
6663.82,0.01675
6640.67,0.02143
6617.53,0.02014
6594.38,0.02031
6571.24,0.01994
6548.09,0.02087
6524.95,0.02216
6501.8,0.02647
6478.66,0.02266
6455.51,0.01995
6432.37,0.01626
6409.22,0.02135
6386.08,0.02212
6362.93,0.01693
6339.79,0.01817
6316.64,0.02057
6293.5,0.01899
6270.35,0.01718
6247.21,0.02244
6224.06,0.01871
6200.92,0.02033
6177.77,0.01817
6154.63,0.01909
6131.48,0.01921
6108.34,0.01735
6085.19,0.02324
6062.05,0.01990
6038.9,0.01796
6015.76,0.02153
5992.61,0.02002
5969.47,0.02065
5946.32,0.01612
5923.18,0.01928
5900.03,0.01943
5876.89,0.01987
5853.74,0.01773
5830.6,0.01665
5807.45,0.01940
5784.31,0.01976
5761.16,0.01983
5738.02,0.01889
5714.87,0.01834
5691.73,0.01964
5668.58,0.02078
5645.44,0.01888
5622.29,0.01726
5599.15,0.01992
5576,0.01959
5552.86,0.01910
5529.71,0.01865
5506.57,0.01889
5483.42,0.01927
5460.28,0.01893
5437.13,0.01831
5413.99,0.02071
5390.84,0.01836
5367.7,0.01965
5344.55,0.01968
5321.41,0.01863
5298.26,0.01975
5275.12,0.01899
5251.97,0.02037
5228.83,0.01967
5205.68,0.02003
5182.54,0.02014
5159.39,0.02107
5136.25,0.01987
5113.1,0.02048
5089.96,0.02099
5066.81,0.02002
5043.67,0.02111
5020.52,0.01964
4997.38,0.02005
4974.23,0.01880
4951.09,0.01991
4927.94,0.01968
4904.8,0.02011
4881.65,0.01914
4858.51,0.01893
4835.36,0.02011
4812.22,0.01854
4789.07,0.01994
4765.93,0.01991
4742.78,0.01941
4719.64,0.02011
4696.49,0.02018
4673.35,0.01988
4650.2,0.01936
4627.06,0.02053
4603.92,0.02021
4580.77,0.01977
4557.63,0.01839
4534.48,0.01970
4511.34,0.01978
4488.19,0.01898
4465.05,0.02009
4441.9,0.01906
4418.76,0.02024
4395.61,0.01935
4372.47,0.02015
4349.32,0.02019
4326.18,0.02065
4303.03,0.02036
4279.89,0.01990
4256.74,0.01940
4233.6,0.02057
4210.45,0.02044
4187.31,0.01967
4164.16,0.01990
4141.02,0.02008
4117.87,0.02024
4094.73,0.02049
4071.58,0.01997
4048.44,0.01973
4025.29,0.01997
4002.15,0.01971
3979,0.01992
3955.86,0.01996
3932.71,0.01984
3909.57,0.02001
3886.42,0.02004
3863.28,0.02057
3840.13,0.02035
3816.99,0.02030
3793.84,0.02028
3770.7,0.02007
3747.55,0.02056
3724.41,0.01964
3701.26,0.01912
3678.12,0.01986
3654.97,0.01975
3631.83,0.01871
3608.68,0.01932
3585.54,0.01888
3562.39,0.01789
3539.25,0.01810
3516.1,0.01843
3492.96,0.01822
3469.81,0.01872
3446.67,0.01811
3423.52,0.01757
3400.38,0.01715
3377.23,0.01770
3354.09,0.01733
3330.94,0.01755
3307.8,0.01716
3284.65,0.01756
3261.51,0.01664
3238.36,0.01783
3215.22,0.01778
3192.07,0.01842
3168.93,0.01823
3145.78,0.01901
3122.64,0.01853
3099.49,0.01775
3076.35,0.01808
3053.2,0.01777
3030.06,0.01817
3006.91,0.01832
2983.77,0.01695
2960.62,0.01712
2937.48,0.01661
2914.33,0.01752
2891.19,0.01785
2868.04,0.01797
2844.9,0.01834
2821.75,0.01875
2798.61,0.01866
2775.46,0.01897
2752.32,0.01842
2729.17,0.01840
2706.03,0.01904
2682.88,0.01844
2659.74,0.01856
2636.59,0.01828
2613.45,0.01898
2590.3,0.01848
2567.16,0.01874
2544.02,0.01841
2520.87,0.01798
2497.73,0.01853
2474.58,0.01909
2451.44,0.01837
2428.29,0.01831
2405.15,0.01849
2382,0.01870
2358.86,0.01874
2335.71,0.01864
2312.57,0.01866
2289.42,0.01836
2266.28,0.01856
2243.13,0.01845
2219.99,0.01834
2196.84,0.01828
2173.7,0.01833
2150.55,0.01815
2127.41,0.01828
2104.26,0.01832
2081.12,0.01875
2057.97,0.01838
2034.83,0.01808
2011.68,0.01802
1988.54,0.01832
1965.39,0.01823
1942.25,0.01801
1919.1,0.01805
1895.96,0.01790
1872.81,0.01778
1849.67,0.01764
1826.52,0.01725
1803.38,0.01708
1780.23,0.01611
1757.09,0.01481
1733.94,0.01682
1710.8,0.01820
1687.65,0.01648
1664.51,0.01575
1641.36,0.01608
1618.22,0.01605
1595.07,0.01615
1571.93,0.01563
1548.78,0.01537
1525.64,0.01544
1502.49,0.01623
1479.35,0.01539
1456.2,0.01611
1433.06,0.01568
1409.91,0.01564
1386.77,0.01519
1363.62,0.01563
1340.48,0.01513
1317.33,0.01432
1294.19,0.01530
1271.04,0.01662
1247.9,0.01743
1224.75,0.01675
1201.61,0.01560
1178.46,0.01548
1155.32,0.01473
1132.17,0.01522
1109.03,0.01659
1085.88,0.01522
1062.74,0.01709
1039.59,0.01649
1016.45,0.01666
993.304,0.01840
970.159,0.01727
947.014,0.01680
923.869,0.01599
900.724,0.01616
877.579,0.01609
854.434,0.01588
831.289,0.01580
808.144,0.01584
784.999,0.01567
761.854,0.01522
738.709,0.01582
715.565,0.01515
692.42,0.01621
669.275,0.01402
646.13,0.01242
622.985,0.01254
599.84,0.01458