File: 01_Data/Polyolefin_Carpet_Low_Pile/FTIR/IS/Polyolefin_Carpet_Low_Pile_IS_S_220819_R4.dpt
7497.03,0.12205
7473.89,0.12356
7450.74,0.12144
7427.6,0.12096
7404.45,0.11478
7381.31,0.11373
7358.16,0.11196
7335.02,0.11958
7311.87,0.11854
7288.73,0.12143
7265.58,0.11994
7242.44,0.12180
7219.29,0.11209
7196.15,0.11462
7173,0.11522
7149.86,0.11688
7126.71,0.10975
7103.57,0.11881
7080.42,0.11773
7057.28,0.12102
7034.13,0.11541
7010.99,0.12216
6987.84,0.12106
6964.7,0.11921
6941.55,0.11312
6918.41,0.11976
6895.26,0.11852
6872.12,0.12012
6848.97,0.12162
6825.83,0.11703
6802.68,0.11742
6779.54,0.11872
6756.39,0.11844
6733.25,0.12037
6710.1,0.11555
6686.96,0.11600
6663.82,0.11553
6640.67,0.11503
6617.53,0.11929
6594.38,0.11884
6571.24,0.12078
6548.09,0.11723
6524.95,0.12192
6501.8,0.11987
6478.66,0.11781
6455.51,0.12171
6432.37,0.11724
6409.22,0.11737
6386.08,0.11694
6362.93,0.11997
6339.79,0.12142
6316.64,0.11896
6293.5,0.11665
6270.35,0.11787
6247.21,0.11964
6224.06,0.11780
6200.92,0.11722
6177.77,0.11597
6154.63,0.11926
6131.48,0.11799
6108.34,0.11486
6085.19,0.12021
6062.05,0.12201
6038.9,0.11672
6015.76,0.11780
5992.61,0.11629
5969.47,0.11529
5946.32,0.11711
5923.18,0.11460
5900.03,0.10542
5876.89,0.10303
5853.74,0.09971
5830.6,0.10329
5807.45,0.10325
5784.31,0.10108
5761.16,0.10033
5738.02,0.10543
5714.87,0.10892
5691.73,0.11109
5668.58,0.10898
5645.44,0.11083
5622.29,0.10834
5599.15,0.11314
5576,0.11167
5552.86,0.11333
5529.71,0.11170
5506.57,0.11349
5483.42,0.11373
5460.28,0.11129
5437.13,0.11283
5413.99,0.11381
5390.84,0.11577
5367.7,0.11659
5344.55,0.11793
5321.41,0.11687
5298.26,0.11562
5275.12,0.11729
5251.97,0.11542
5228.83,0.11752
5205.68,0.11684
5182.54,0.11627
5159.39,0.11838
5136.25,0.11759
5113.1,0.11726
5089.96,0.11744
5066.81,0.11862
5043.67,0.11758
5020.52,0.11925
4997.38,0.12011
4974.23,0.11888
4951.09,0.12025
4927.94,0.12029
4904.8,0.12100
4881.65,0.12134
4858.51,0.12090
4835.36,0.12030
4812.22,0.12120
4789.07,0.12160
4765.93,0.12165
4742.78,0.12201
4719.64,0.12186
4696.49,0.12131
4673.35,0.12080
4650.2,0.12089
4627.06,0.12049
4603.92,0.11983
4580.77,0.11889
4557.63,0.11880
4534.48,0.11909
4511.34,0.11949
4488.19,0.11880
4465.05,0.11732
4441.9,0.11247
4418.76,0.09556
4395.61,0.07633
4372.47,0.08382
4349.32,0.08307
4326.18,0.05741
4303.03,0.06867
4279.89,0.07372
4256.74,0.06959
4233.6,0.06656
4210.45,0.07077
4187.31,0.07906
4164.16,0.07464
4141.02,0.08065
4117.87,0.07763
4094.73,0.08496
4071.58,0.07422
4048.44,0.07804
4025.29,0.08765
4002.15,0.09144
3979,0.09441
3955.86,0.09805
3932.71,0.09805
3909.57,0.09912
3886.42,0.10023
3863.28,0.10140
3840.13,0.10308
3816.99,0.10204
3793.84,0.10306
3770.7,0.10344
3747.55,0.10432
3724.41,0.10698
3701.26,0.10750
3678.12,0.10891
3654.97,0.11369
3631.83,0.11089
3608.68,0.11410
3585.54,0.11300
3562.39,0.11145
3539.25,0.10915
3516.1,0.10731
3492.96,0.10545
3469.81,0.10189
3446.67,0.09795
3423.52,0.09287
3400.38,0.09230
3377.23,0.09168
3354.09,0.08823
3330.94,0.09133
3307.8,0.09216
3284.65,0.09110
3261.51,0.09119
3238.36,0.08917
3215.22,0.07342
3192.07,0.06403
3168.93,0.06799
3145.78,0.06498
3122.64,0.06925
3099.49,0.07239
3076.35,0.07078
3053.2,0.06424
3030.06,0.05524
3006.91,0.03498
2983.77,0.01733
2960.62,0.01655
2937.48,0.01672
2914.33,0.01879
2891.19,0.01855
2868.04,0.01859
2844.9,0.01833
2821.75,0.02137
2798.61,0.02981
2775.46,0.04929
2752.32,0.05625
2729.17,0.04226
2706.03,0.05222
2682.88,0.05774
2659.74,0.05915
2636.59,0.06851
2613.45,0.06355
2590.3,0.07005
2567.16,0.07556
2544.02,0.08510
2520.87,0.09486
2497.73,0.09981
2474.58,0.10456
2451.44,0.10363
2428.29,0.09474
2405.15,0.09931
2382,0.10207
2358.86,0.10018
2335.71,0.10775
2312.57,0.11574
2289.42,0.11689
2266.28,0.11216
2243.13,0.11600
2219.99,0.11768
2196.84,0.11495
2173.7,0.11307
2150.55,0.12074
2127.41,0.11755
2104.26,0.13113
2081.12,0.13485
2057.97,0.14019
2034.83,0.13935
2011.68,0.14073
1988.54,0.13942
1965.39,0.13929
1942.25,0.13816
1919.1,0.13592
1895.96,0.13191
1872.81,0.13648
1849.67,0.13380
1826.52,0.13052
1803.38,0.13273
1780.23,0.12813
1757.09,0.11596
1733.94,0.10004
1710.8,0.10463
1687.65,0.10047
1664.51,0.10143
1641.36,0.09204
1618.22,0.09698
1595.07,0.10219
1571.93,0.10279
1548.78,0.09416
1525.64,0.08903
1502.49,0.07483
1479.35,0.03365
1456.2,0.01757
1433.06,0.02777
1409.91,0.05542
1386.77,0.02741
1363.62,0.02541
1340.48,0.05860
1317.33,0.07007
1294.19,0.05580
1271.04,0.07928
1247.9,0.07073
1224.75,0.07858
1201.61,0.08380
1178.46,0.05969
1155.32,0.03415
1132.17,0.07963
1109.03,0.07332
1085.88,0.09210
1062.74,0.09909
1039.59,0.08175
1016.45,0.08413
993.304,0.04193
970.159,0.03289
947.014,0.10474
923.869,0.12814
900.724,0.06397
877.579,0.11474
854.434,0.08982
831.289,0.08132
808.144,0.05993
784.999,0.13641
761.854,0.15001
738.709,0.14995
715.565,0.14166
692.42,0.15175
669.275,0.15149
646.13,0.15376
622.985,0.15219
599.84,0.15205