File: 01_Data/Polyolefin_Carpet_Low_Pile/FTIR/IS/Polyolefin_Carpet_Low_Pile_IS_T_220819_R7.dpt
7497.03,0.02443
7473.89,0.01834
7450.74,0.02765
7427.6,0.02482
7404.45,0.01627
7381.31,0.02634
7358.16,0.02114
7335.02,0.01853
7311.87,0.01915
7288.73,0.02424
7265.58,0.01304
7242.44,0.02326
7219.29,0.02230
7196.15,0.02244
7173,0.02150
7149.86,0.02487
7126.71,0.02502
7103.57,0.02564
7080.42,0.01924
7057.28,0.02513
7034.13,0.02223
7010.99,0.02488
6987.84,0.02428
6964.7,0.02800
6941.55,0.02089
6918.41,0.01906
6895.26,0.02015
6872.12,0.02885
6848.97,0.02145
6825.83,0.02022
6802.68,0.02443
6779.54,0.01881
6756.39,0.01703
6733.25,0.01854
6710.1,0.01894
6686.96,0.02339
6663.82,0.01876
6640.67,0.02251
6617.53,0.02177
6594.38,0.01669
6571.24,0.01800
6548.09,0.02193
6524.95,0.01947
6501.8,0.01975
6478.66,0.02306
6455.51,0.01996
6432.37,0.01904
6409.22,0.01612
6386.08,0.01690
6362.93,0.01814
6339.79,0.01940
6316.64,0.01985
6293.5,0.02126
6270.35,0.02117
6247.21,0.02283
6224.06,0.01975
6200.92,0.02122
6177.77,0.01888
6154.63,0.01883
6131.48,0.01888
6108.34,0.01810
6085.19,0.02021
6062.05,0.01924
6038.9,0.01911
6015.76,0.02024
5992.61,0.01636
5969.47,0.01968
5946.32,0.02099
5923.18,0.02023
5900.03,0.01799
5876.89,0.02061
5853.74,0.01891
5830.6,0.01913
5807.45,0.01845
5784.31,0.01834
5761.16,0.02105
5738.02,0.01859
5714.87,0.01871
5691.73,0.01940
5668.58,0.01881
5645.44,0.01988
5622.29,0.01986
5599.15,0.02041
5576,0.01809
5552.86,0.01961
5529.71,0.01964
5506.57,0.01834
5483.42,0.01913
5460.28,0.02001
5437.13,0.02130
5413.99,0.01988
5390.84,0.02107
5367.7,0.02180
5344.55,0.01952
5321.41,0.01837
5298.26,0.01908
5275.12,0.02038
5251.97,0.01852
5228.83,0.01984
5205.68,0.01890
5182.54,0.01929
5159.39,0.01894
5136.25,0.01951
5113.1,0.01993
5089.96,0.01916
5066.81,0.01970
5043.67,0.01986
5020.52,0.01990
4997.38,0.01836
4974.23,0.02068
4951.09,0.01945
4927.94,0.02063
4904.8,0.01920
4881.65,0.01893
4858.51,0.01976
4835.36,0.01931
4812.22,0.01939
4789.07,0.02047
4765.93,0.01909
4742.78,0.01825
4719.64,0.01962
4696.49,0.01983
4673.35,0.01945
4650.2,0.01967
4627.06,0.02022
4603.92,0.01957
4580.77,0.02032
4557.63,0.02002
4534.48,0.02004
4511.34,0.02039
4488.19,0.01884
4465.05,0.01994
4441.9,0.01920
4418.76,0.01937
4395.61,0.01955
4372.47,0.02011
4349.32,0.01955
4326.18,0.01992
4303.03,0.01986
4279.89,0.01957
4256.74,0.01979
4233.6,0.01918
4210.45,0.02013
4187.31,0.01994
4164.16,0.01927
4141.02,0.01979
4117.87,0.01914
4094.73,0.01937
4071.58,0.01981
4048.44,0.02014
4025.29,0.01966
4002.15,0.01993
3979,0.01988
3955.86,0.01928
3932.71,0.01993
3909.57,0.01979
3886.42,0.01970
3863.28,0.01960
3840.13,0.01882
3816.99,0.02062
3793.84,0.01994
3770.7,0.02026
3747.55,0.02023
3724.41,0.01986
3701.26,0.01890
3678.12,0.01926
3654.97,0.01895
3631.83,0.01926
3608.68,0.01886
3585.54,0.01936
3562.39,0.01807
3539.25,0.01764
3516.1,0.01781
3492.96,0.01833
3469.81,0.01780
3446.67,0.01778
3423.52,0.01769
3400.38,0.01702
3377.23,0.01741
3354.09,0.01689
3330.94,0.01715
3307.8,0.01657
3284.65,0.01720
3261.51,0.01723
3238.36,0.01743
3215.22,0.01747
3192.07,0.01846
3168.93,0.01840
3145.78,0.01784
3122.64,0.01806
3099.49,0.01817
3076.35,0.01799
3053.2,0.01746
3030.06,0.01778
3006.91,0.01772
2983.77,0.01686
2960.62,0.01631
2937.48,0.01649
2914.33,0.01678
2891.19,0.01754
2868.04,0.01764
2844.9,0.01801
2821.75,0.01835
2798.61,0.01779
2775.46,0.01809
2752.32,0.01794
2729.17,0.01857
2706.03,0.01842
2682.88,0.01845
2659.74,0.01863
2636.59,0.01820
2613.45,0.01815
2590.3,0.01791
2567.16,0.01845
2544.02,0.01836
2520.87,0.01798
2497.73,0.01864
2474.58,0.01819
2451.44,0.01876
2428.29,0.01834
2405.15,0.01792
2382,0.01808
2358.86,0.01855
2335.71,0.01832
2312.57,0.01827
2289.42,0.01804
2266.28,0.01816
2243.13,0.01797
2219.99,0.01825
2196.84,0.01791
2173.7,0.01807
2150.55,0.01811
2127.41,0.01793
2104.26,0.01783
2081.12,0.01823
2057.97,0.01807
2034.83,0.01809
2011.68,0.01790
1988.54,0.01801
1965.39,0.01768
1942.25,0.01773
1919.1,0.01782
1895.96,0.01774
1872.81,0.01757
1849.67,0.01717
1826.52,0.01726
1803.38,0.01691
1780.23,0.01607
1757.09,0.01441
1733.94,0.01715
1710.8,0.01759
1687.65,0.01656
1664.51,0.01517
1641.36,0.01537
1618.22,0.01602
1595.07,0.01606
1571.93,0.01557
1548.78,0.01546
1525.64,0.01557
1502.49,0.01575
1479.35,0.01549
1456.2,0.01585
1433.06,0.01525
1409.91,0.01553
1386.77,0.01524
1363.62,0.01462
1340.48,0.01508
1317.33,0.01427
1294.19,0.01465
1271.04,0.01630
1247.9,0.01757
1224.75,0.01663
1201.61,0.01569
1178.46,0.01524
1155.32,0.01415
1132.17,0.01536
1109.03,0.01612
1085.88,0.01572
1062.74,0.01741
1039.59,0.01679
1016.45,0.01690
993.304,0.01747
970.159,0.01757
947.014,0.01667
923.869,0.01633
900.724,0.01555
877.579,0.01710
854.434,0.01595
831.289,0.01681
808.144,0.01619
784.999,0.01688
761.854,0.01560
738.709,0.01462
715.565,0.01468
692.42,0.01466
669.275,0.01328
646.13,0.01446
622.985,0.01369
599.84,0.01311