File: 01_Data/Polyolefin_Carpet_Low_Pile/FTIR/IS/Polyolefin_Carpet_Low_Pile_IS_S_220819_R5.dpt
7497.03,0.11210
7473.89,0.11808
7450.74,0.11351
7427.6,0.12120
7404.45,0.11303
7381.31,0.12100
7358.16,0.10981
7335.02,0.11643
7311.87,0.12203
7288.73,0.11867
7265.58,0.11951
7242.44,0.11949
7219.29,0.11442
7196.15,0.12162
7173,0.11416
7149.86,0.11516
7126.71,0.12367
7103.57,0.11685
7080.42,0.11387
7057.28,0.12033
7034.13,0.12151
7010.99,0.12168
6987.84,0.11660
6964.7,0.12057
6941.55,0.11382
6918.41,0.11848
6895.26,0.11465
6872.12,0.11468
6848.97,0.11699
6825.83,0.11735
6802.68,0.11490
6779.54,0.11636
6756.39,0.12594
6733.25,0.12029
6710.1,0.11459
6686.96,0.11742
6663.82,0.11715
6640.67,0.11739
6617.53,0.11750
6594.38,0.11787
6571.24,0.11832
6548.09,0.11691
6524.95,0.12158
6501.8,0.11815
6478.66,0.11593
6455.51,0.11866
6432.37,0.11625
6409.22,0.12083
6386.08,0.11918
6362.93,0.11960
6339.79,0.11868
6316.64,0.11828
6293.5,0.11929
6270.35,0.11899
6247.21,0.11827
6224.06,0.11904
6200.92,0.11892
6177.77,0.12080
6154.63,0.11901
6131.48,0.11957
6108.34,0.11871
6085.19,0.11979
6062.05,0.11749
6038.9,0.11642
6015.76,0.12122
5992.61,0.11647
5969.47,0.11679
5946.32,0.11698
5923.18,0.11111
5900.03,0.10509
5876.89,0.10242
5853.74,0.10184
5830.6,0.10307
5807.45,0.09957
5784.31,0.10019
5761.16,0.09989
5738.02,0.10656
5714.87,0.10964
5691.73,0.10856
5668.58,0.10873
5645.44,0.10778
5622.29,0.11070
5599.15,0.11244
5576,0.11222
5552.86,0.11170
5529.71,0.11266
5506.57,0.11123
5483.42,0.11346
5460.28,0.11199
5437.13,0.11442
5413.99,0.11435
5390.84,0.11541
5367.7,0.11549
5344.55,0.11545
5321.41,0.11749
5298.26,0.11543
5275.12,0.11665
5251.97,0.11802
5228.83,0.11490
5205.68,0.11547
5182.54,0.11717
5159.39,0.11638
5136.25,0.11708
5113.1,0.11733
5089.96,0.11697
5066.81,0.11883
5043.67,0.11831
5020.52,0.11935
4997.38,0.12006
4974.23,0.11906
4951.09,0.12067
4927.94,0.11941
4904.8,0.12085
4881.65,0.12047
4858.51,0.12048
4835.36,0.11977
4812.22,0.12008
4789.07,0.11904
4765.93,0.11990
4742.78,0.12064
4719.64,0.12125
4696.49,0.12086
4673.35,0.12045
4650.2,0.11974
4627.06,0.11952
4603.92,0.12041
4580.77,0.11896
4557.63,0.11943
4534.48,0.11898
4511.34,0.11862
4488.19,0.11846
4465.05,0.11718
4441.9,0.11172
4418.76,0.09530
4395.61,0.07647
4372.47,0.08345
4349.32,0.08292
4326.18,0.05833
4303.03,0.06839
4279.89,0.07369
4256.74,0.06980
4233.6,0.06662
4210.45,0.07133
4187.31,0.07902
4164.16,0.07483
4141.02,0.08033
4117.87,0.07746
4094.73,0.08394
4071.58,0.07452
4048.44,0.07829
4025.29,0.08719
4002.15,0.09222
3979,0.09478
3955.86,0.09820
3932.71,0.09781
3909.57,0.09851
3886.42,0.10035
3863.28,0.10216
3840.13,0.10319
3816.99,0.10192
3793.84,0.10402
3770.7,0.10326
3747.55,0.10438
3724.41,0.10725
3701.26,0.10756
3678.12,0.10887
3654.97,0.11239
3631.83,0.11025
3608.68,0.11371
3585.54,0.11365
3562.39,0.11111
3539.25,0.10873
3516.1,0.10737
3492.96,0.10494
3469.81,0.10189
3446.67,0.09784
3423.52,0.09299
3400.38,0.09324
3377.23,0.09123
3354.09,0.08840
3330.94,0.09125
3307.8,0.09281
3284.65,0.09042
3261.51,0.09192
3238.36,0.08887
3215.22,0.07369
3192.07,0.06396
3168.93,0.06804
3145.78,0.06540
3122.64,0.06979
3099.49,0.07188
3076.35,0.07080
3053.2,0.06361
3030.06,0.05537
3006.91,0.03507
2983.77,0.01764
2960.62,0.01680
2937.48,0.01669
2914.33,0.01888
2891.19,0.01855
2868.04,0.01833
2844.9,0.01841
2821.75,0.02129
2798.61,0.02999
2775.46,0.04963
2752.32,0.05658
2729.17,0.04217
2706.03,0.05249
2682.88,0.05744
2659.74,0.05906
2636.59,0.06869
2613.45,0.06339
2590.3,0.06966
2567.16,0.07543
2544.02,0.08527
2520.87,0.09463
2497.73,0.10001
2474.58,0.10423
2451.44,0.10378
2428.29,0.09459
2405.15,0.09932
2382,0.10217
2358.86,0.10012
2335.71,0.10738
2312.57,0.11591
2289.42,0.11647
2266.28,0.11193
2243.13,0.11588
2219.99,0.11762
2196.84,0.11506
2173.7,0.11276
2150.55,0.12054
2127.41,0.11754
2104.26,0.13114
2081.12,0.13489
2057.97,0.13995
2034.83,0.13910
2011.68,0.14055
1988.54,0.13927
1965.39,0.13912
1942.25,0.13788
1919.1,0.13592
1895.96,0.13144
1872.81,0.13607
1849.67,0.13339
1826.52,0.13028
1803.38,0.13271
1780.23,0.12800
1757.09,0.11630
1733.94,0.09996
1710.8,0.10469
1687.65,0.10042
1664.51,0.10123
1641.36,0.09153
1618.22,0.09684
1595.07,0.10208
1571.93,0.10260
1548.78,0.09415
1525.64,0.08852
1502.49,0.07431
1479.35,0.03354
1456.2,0.01747
1433.06,0.02729
1409.91,0.05555
1386.77,0.02698
1363.62,0.02541
1340.48,0.05867
1317.33,0.06991
1294.19,0.05570
1271.04,0.07890
1247.9,0.07065
1224.75,0.07858
1201.61,0.08397
1178.46,0.05995
1155.32,0.03434
1132.17,0.07984
1109.03,0.07292
1085.88,0.09164
1062.74,0.09928
1039.59,0.08091
1016.45,0.08447
993.304,0.04170
970.159,0.03266
947.014,0.10458
923.869,0.12737
900.724,0.06455
877.579,0.11440
854.434,0.09065
831.289,0.08084
808.144,0.05979
784.999,0.13632
761.854,0.15050
738.709,0.14995
715.565,0.14302
692.42,0.14984
669.275,0.15193
646.13,0.15380
622.985,0.15311
599.84,0.15401