File: 01_Data/Polyolefin_Carpet_Low_Pile/FTIR/IS/Polyolefin_Carpet_Low_Pile_IS_T_220819_R5.dpt
7497.03,0.02006
7473.89,0.03040
7450.74,0.01852
7427.6,0.02609
7404.45,0.02187
7381.31,0.01899
7358.16,0.02258
7335.02,0.02173
7311.87,0.02434
7288.73,0.02005
7265.58,0.02391
7242.44,0.01681
7219.29,0.02292
7196.15,0.02325
7173,0.01806
7149.86,0.02167
7126.71,0.02332
7103.57,0.02073
7080.42,0.02036
7057.28,0.02466
7034.13,0.02085
7010.99,0.01886
6987.84,0.02195
6964.7,0.02223
6941.55,0.02271
6918.41,0.01888
6895.26,0.01958
6872.12,0.02117
6848.97,0.02228
6825.83,0.01873
6802.68,0.01848
6779.54,0.01989
6756.39,0.01937
6733.25,0.01866
6710.1,0.01632
6686.96,0.02482
6663.82,0.02359
6640.67,0.02219
6617.53,0.01784
6594.38,0.02270
6571.24,0.02327
6548.09,0.02048
6524.95,0.02222
6501.8,0.01913
6478.66,0.01789
6455.51,0.02183
6432.37,0.02496
6409.22,0.02022
6386.08,0.02117
6362.93,0.02194
6339.79,0.02242
6316.64,0.01734
6293.5,0.01959
6270.35,0.01716
6247.21,0.01842
6224.06,0.01920
6200.92,0.01981
6177.77,0.01783
6154.63,0.02211
6131.48,0.01860
6108.34,0.01801
6085.19,0.01819
6062.05,0.01976
6038.9,0.01818
6015.76,0.01931
5992.61,0.02000
5969.47,0.01922
5946.32,0.01918
5923.18,0.01841
5900.03,0.01846
5876.89,0.02148
5853.74,0.02004
5830.6,0.01933
5807.45,0.01922
5784.31,0.01719
5761.16,0.01854
5738.02,0.01810
5714.87,0.02014
5691.73,0.01993
5668.58,0.02105
5645.44,0.01821
5622.29,0.01819
5599.15,0.01887
5576,0.01931
5552.86,0.02046
5529.71,0.01785
5506.57,0.01833
5483.42,0.01881
5460.28,0.01965
5437.13,0.01850
5413.99,0.01986
5390.84,0.01915
5367.7,0.02010
5344.55,0.01994
5321.41,0.01905
5298.26,0.01847
5275.12,0.01953
5251.97,0.01889
5228.83,0.02095
5205.68,0.01972
5182.54,0.01906
5159.39,0.01919
5136.25,0.01973
5113.1,0.01976
5089.96,0.01940
5066.81,0.01942
5043.67,0.01829
5020.52,0.01923
4997.38,0.01876
4974.23,0.01982
4951.09,0.01885
4927.94,0.01984
4904.8,0.02015
4881.65,0.01914
4858.51,0.01861
4835.36,0.01958
4812.22,0.01997
4789.07,0.01957
4765.93,0.01966
4742.78,0.01903
4719.64,0.02004
4696.49,0.01942
4673.35,0.01942
4650.2,0.02015
4627.06,0.01825
4603.92,0.01967
4580.77,0.01990
4557.63,0.01890
4534.48,0.01942
4511.34,0.01985
4488.19,0.02026
4465.05,0.01944
4441.9,0.01979
4418.76,0.01944
4395.61,0.01934
4372.47,0.01895
4349.32,0.01998
4326.18,0.01961
4303.03,0.01991
4279.89,0.01964
4256.74,0.01927
4233.6,0.01977
4210.45,0.01942
4187.31,0.01892
4164.16,0.01975
4141.02,0.02006
4117.87,0.01939
4094.73,0.01942
4071.58,0.01963
4048.44,0.01930
4025.29,0.01916
4002.15,0.01925
3979,0.01993
3955.86,0.01959
3932.71,0.01993
3909.57,0.01980
3886.42,0.01952
3863.28,0.01959
3840.13,0.02016
3816.99,0.02016
3793.84,0.01945
3770.7,0.01967
3747.55,0.02005
3724.41,0.01943
3701.26,0.01952
3678.12,0.01900
3654.97,0.01848
3631.83,0.01865
3608.68,0.01852
3585.54,0.01791
3562.39,0.01855
3539.25,0.01815
3516.1,0.01846
3492.96,0.01758
3469.81,0.01774
3446.67,0.01762
3423.52,0.01811
3400.38,0.01732
3377.23,0.01767
3354.09,0.01667
3330.94,0.01798
3307.8,0.01686
3284.65,0.01731
3261.51,0.01708
3238.36,0.01770
3215.22,0.01743
3192.07,0.01789
3168.93,0.01744
3145.78,0.01824
3122.64,0.01813
3099.49,0.01802
3076.35,0.01768
3053.2,0.01778
3030.06,0.01765
3006.91,0.01731
2983.77,0.01664
2960.62,0.01617
2937.48,0.01664
2914.33,0.01781
2891.19,0.01763
2868.04,0.01747
2844.9,0.01793
2821.75,0.01814
2798.61,0.01871
2775.46,0.01824
2752.32,0.01837
2729.17,0.01780
2706.03,0.01818
2682.88,0.01838
2659.74,0.01836
2636.59,0.01864
2613.45,0.01827
2590.3,0.01828
2567.16,0.01833
2544.02,0.01834
2520.87,0.01849
2497.73,0.01845
2474.58,0.01880
2451.44,0.01857
2428.29,0.01846
2405.15,0.01815
2382,0.01836
2358.86,0.01820
2335.71,0.01809
2312.57,0.01770
2289.42,0.01828
2266.28,0.01798
2243.13,0.01812
2219.99,0.01817
2196.84,0.01814
2173.7,0.01817
2150.55,0.01806
2127.41,0.01812
2104.26,0.01809
2081.12,0.01793
2057.97,0.01792
2034.83,0.01790
2011.68,0.01788
1988.54,0.01785
1965.39,0.01790
1942.25,0.01743
1919.1,0.01788
1895.96,0.01788
1872.81,0.01763
1849.67,0.01736
1826.52,0.01703
1803.38,0.01685
1780.23,0.01626
1757.09,0.01447
1733.94,0.01700
1710.8,0.01804
1687.65,0.01624
1664.51,0.01593
1641.36,0.01579
1618.22,0.01603
1595.07,0.01586
1571.93,0.01533
1548.78,0.01531
1525.64,0.01526
1502.49,0.01579
1479.35,0.01587
1456.2,0.01575
1433.06,0.01549
1409.91,0.01544
1386.77,0.01504
1363.62,0.01513
1340.48,0.01504
1317.33,0.01408
1294.19,0.01500
1271.04,0.01650
1247.9,0.01695
1224.75,0.01668
1201.61,0.01595
1178.46,0.01496
1155.32,0.01478
1132.17,0.01514
1109.03,0.01580
1085.88,0.01531
1062.74,0.01715
1039.59,0.01657
1016.45,0.01640
993.304,0.01823
970.159,0.01725
947.014,0.01640
923.869,0.01602
900.724,0.01626
877.579,0.01617
854.434,0.01518
831.289,0.01561
808.144,0.01551
784.999,0.01512
761.854,0.01522
738.709,0.01574
715.565,0.01468
692.42,0.01523
669.275,0.01511
646.13,0.01369
622.985,0.01468
599.84,0.01155