File: 01_Data/Polyolefin_Carpet_Low_Pile/FTIR/IS/Polyolefin_Carpet_Low_Pile_IS_S_220819_R7.dpt
7497.03,0.11985
7473.89,0.12034
7450.74,0.12043
7427.6,0.11628
7404.45,0.11358
7381.31,0.12630
7358.16,0.12451
7335.02,0.11480
7311.87,0.11679
7288.73,0.11364
7265.58,0.11436
7242.44,0.11231
7219.29,0.11437
7196.15,0.11712
7173,0.11526
7149.86,0.11556
7126.71,0.11723
7103.57,0.11902
7080.42,0.11876
7057.28,0.11482
7034.13,0.11154
7010.99,0.11834
6987.84,0.11431
6964.7,0.11540
6941.55,0.11542
6918.41,0.11799
6895.26,0.11655
6872.12,0.11483
6848.97,0.11873
6825.83,0.12108
6802.68,0.11941
6779.54,0.11766
6756.39,0.11966
6733.25,0.11611
6710.1,0.11700
6686.96,0.11263
6663.82,0.12145
6640.67,0.11640
6617.53,0.11431
6594.38,0.11776
6571.24,0.11800
6548.09,0.11749
6524.95,0.12461
6501.8,0.11867
6478.66,0.12207
6455.51,0.11906
6432.37,0.11921
6409.22,0.12053
6386.08,0.12054
6362.93,0.11971
6339.79,0.11866
6316.64,0.11839
6293.5,0.11705
6270.35,0.12116
6247.21,0.11838
6224.06,0.11883
6200.92,0.11929
6177.77,0.11778
6154.63,0.11937
6131.48,0.11939
6108.34,0.12063
6085.19,0.11800
6062.05,0.11918
6038.9,0.11649
6015.76,0.12025
5992.61,0.11814
5969.47,0.11962
5946.32,0.11851
5923.18,0.11244
5900.03,0.10634
5876.89,0.10367
5853.74,0.09956
5830.6,0.10482
5807.45,0.10244
5784.31,0.10165
5761.16,0.10094
5738.02,0.10531
5714.87,0.10705
5691.73,0.11005
5668.58,0.10910
5645.44,0.10979
5622.29,0.11142
5599.15,0.11182
5576,0.11136
5552.86,0.11148
5529.71,0.11172
5506.57,0.11243
5483.42,0.11138
5460.28,0.11476
5437.13,0.11380
5413.99,0.11507
5390.84,0.11620
5367.7,0.11604
5344.55,0.11689
5321.41,0.11645
5298.26,0.11619
5275.12,0.11728
5251.97,0.11630
5228.83,0.11754
5205.68,0.11677
5182.54,0.11653
5159.39,0.11696
5136.25,0.11721
5113.1,0.11716
5089.96,0.11788
5066.81,0.11888
5043.67,0.11859
5020.52,0.11940
4997.38,0.11967
4974.23,0.11967
4951.09,0.12056
4927.94,0.12033
4904.8,0.12012
4881.65,0.12097
4858.51,0.12030
4835.36,0.12009
4812.22,0.12145
4789.07,0.12232
4765.93,0.12147
4742.78,0.12094
4719.64,0.12221
4696.49,0.12234
4673.35,0.12081
4650.2,0.12069
4627.06,0.12078
4603.92,0.12019
4580.77,0.11987
4557.63,0.11925
4534.48,0.11956
4511.34,0.12011
4488.19,0.11868
4465.05,0.11751
4441.9,0.11172
4418.76,0.09636
4395.61,0.07630
4372.47,0.08382
4349.32,0.08398
4326.18,0.05806
4303.03,0.06890
4279.89,0.07442
4256.74,0.06887
4233.6,0.06592
4210.45,0.07157
4187.31,0.07921
4164.16,0.07452
4141.02,0.08096
4117.87,0.07789
4094.73,0.08482
4071.58,0.07430
4048.44,0.07810
4025.29,0.08744
4002.15,0.09163
3979,0.09504
3955.86,0.09814
3932.71,0.09755
3909.57,0.09921
3886.42,0.10028
3863.28,0.10147
3840.13,0.10314
3816.99,0.10223
3793.84,0.10406
3770.7,0.10316
3747.55,0.10467
3724.41,0.10770
3701.26,0.10775
3678.12,0.10919
3654.97,0.11374
3631.83,0.11138
3608.68,0.11361
3585.54,0.11421
3562.39,0.11230
3539.25,0.10936
3516.1,0.10747
3492.96,0.10583
3469.81,0.10273
3446.67,0.09799
3423.52,0.09308
3400.38,0.09355
3377.23,0.09211
3354.09,0.08749
3330.94,0.09127
3307.8,0.09258
3284.65,0.09100
3261.51,0.09111
3238.36,0.08993
3215.22,0.07493
3192.07,0.06447
3168.93,0.06802
3145.78,0.06534
3122.64,0.06945
3099.49,0.07229
3076.35,0.07083
3053.2,0.06435
3030.06,0.05502
3006.91,0.03515
2983.77,0.01744
2960.62,0.01665
2937.48,0.01699
2914.33,0.01903
2891.19,0.01834
2868.04,0.01850
2844.9,0.01815
2821.75,0.02132
2798.61,0.02989
2775.46,0.04924
2752.32,0.05644
2729.17,0.04249
2706.03,0.05235
2682.88,0.05797
2659.74,0.05915
2636.59,0.06948
2613.45,0.06431
2590.3,0.07049
2567.16,0.07608
2544.02,0.08526
2520.87,0.09510
2497.73,0.10092
2474.58,0.10492
2451.44,0.10363
2428.29,0.09504
2405.15,0.09991
2382,0.10225
2358.86,0.10100
2335.71,0.10800
2312.57,0.11621
2289.42,0.11741
2266.28,0.11290
2243.13,0.11681
2219.99,0.11834
2196.84,0.11534
2173.7,0.11320
2150.55,0.12144
2127.41,0.11818
2104.26,0.13226
2081.12,0.13570
2057.97,0.14070
2034.83,0.14001
2011.68,0.14133
1988.54,0.14003
1965.39,0.13977
1942.25,0.13874
1919.1,0.13702
1895.96,0.13212
1872.81,0.13682
1849.67,0.13417
1826.52,0.13100
1803.38,0.13393
1780.23,0.12834
1757.09,0.11689
1733.94,0.10091
1710.8,0.10507
1687.65,0.10059
1664.51,0.10186
1641.36,0.09227
1618.22,0.09771
1595.07,0.10204
1571.93,0.10356
1548.78,0.09470
1525.64,0.08894
1502.49,0.07481
1479.35,0.03384
1456.2,0.01731
1433.06,0.02736
1409.91,0.05564
1386.77,0.02752
1363.62,0.02595
1340.48,0.05915
1317.33,0.07034
1294.19,0.05596
1271.04,0.07900
1247.9,0.07123
1224.75,0.07885
1201.61,0.08420
1178.46,0.06038
1155.32,0.03402
1132.17,0.08045
1109.03,0.07350
1085.88,0.09270
1062.74,0.09912
1039.59,0.08163
1016.45,0.08474
993.304,0.04258
970.159,0.03280
947.014,0.10463
923.869,0.12766
900.724,0.06474
877.579,0.11482
854.434,0.09049
831.289,0.08049
808.144,0.05924
784.999,0.13665
761.854,0.15007
738.709,0.15109
715.565,0.14306
692.42,0.15177
669.275,0.15160
646.13,0.15368
622.985,0.15300
599.84,0.15354