File: 01_Data/Polyolefin_Carpet_Low_Pile/FTIR/IS/Polyolefin_Carpet_Low_Pile_IS_S_220819_R6.dpt
7497.03,0.11084
7473.89,0.12339
7450.74,0.11661
7427.6,0.11801
7404.45,0.11827
7381.31,0.11460
7358.16,0.11456
7335.02,0.11558
7311.87,0.11532
7288.73,0.11541
7265.58,0.12355
7242.44,0.11860
7219.29,0.11265
7196.15,0.11969
7173,0.11704
7149.86,0.11927
7126.71,0.11345
7103.57,0.11891
7080.42,0.11673
7057.28,0.11513
7034.13,0.11332
7010.99,0.11903
6987.84,0.11636
6964.7,0.12143
6941.55,0.12107
6918.41,0.11490
6895.26,0.11740
6872.12,0.11786
6848.97,0.11769
6825.83,0.11891
6802.68,0.11997
6779.54,0.12123
6756.39,0.11639
6733.25,0.12040
6710.1,0.11525
6686.96,0.11819
6663.82,0.12205
6640.67,0.11768
6617.53,0.11696
6594.38,0.12079
6571.24,0.11527
6548.09,0.11996
6524.95,0.11782
6501.8,0.11750
6478.66,0.11731
6455.51,0.12150
6432.37,0.11791
6409.22,0.11795
6386.08,0.11761
6362.93,0.11592
6339.79,0.11845
6316.64,0.11890
6293.5,0.12126
6270.35,0.11648
6247.21,0.12073
6224.06,0.12004
6200.92,0.11948
6177.77,0.11937
6154.63,0.12155
6131.48,0.11749
6108.34,0.11849
6085.19,0.11857
6062.05,0.11572
6038.9,0.11693
6015.76,0.11819
5992.61,0.11669
5969.47,0.11874
5946.32,0.11781
5923.18,0.11176
5900.03,0.10542
5876.89,0.10384
5853.74,0.09966
5830.6,0.10385
5807.45,0.10123
5784.31,0.09950
5761.16,0.09901
5738.02,0.10534
5714.87,0.10888
5691.73,0.10937
5668.58,0.10930
5645.44,0.10784
5622.29,0.10929
5599.15,0.11273
5576,0.11223
5552.86,0.11072
5529.71,0.11283
5506.57,0.11258
5483.42,0.11207
5460.28,0.11337
5437.13,0.11289
5413.99,0.11394
5390.84,0.11582
5367.7,0.11825
5344.55,0.11625
5321.41,0.11728
5298.26,0.11622
5275.12,0.11769
5251.97,0.11747
5228.83,0.11641
5205.68,0.11682
5182.54,0.11850
5159.39,0.11798
5136.25,0.11842
5113.1,0.11943
5089.96,0.11777
5066.81,0.11897
5043.67,0.11843
5020.52,0.11829
4997.38,0.11860
4974.23,0.11927
4951.09,0.12087
4927.94,0.12142
4904.8,0.12039
4881.65,0.12084
4858.51,0.12089
4835.36,0.12052
4812.22,0.12110
4789.07,0.12121
4765.93,0.12094
4742.78,0.12127
4719.64,0.12139
4696.49,0.12228
4673.35,0.12121
4650.2,0.12070
4627.06,0.12025
4603.92,0.12141
4580.77,0.11907
4557.63,0.11951
4534.48,0.11927
4511.34,0.11890
4488.19,0.11797
4465.05,0.11768
4441.9,0.11193
4418.76,0.09634
4395.61,0.07667
4372.47,0.08380
4349.32,0.08259
4326.18,0.05795
4303.03,0.06796
4279.89,0.07425
4256.74,0.06985
4233.6,0.06509
4210.45,0.07131
4187.31,0.07950
4164.16,0.07418
4141.02,0.08072
4117.87,0.07790
4094.73,0.08536
4071.58,0.07471
4048.44,0.07762
4025.29,0.08721
4002.15,0.09206
3979,0.09425
3955.86,0.09870
3932.71,0.09799
3909.57,0.09989
3886.42,0.10020
3863.28,0.10165
3840.13,0.10326
3816.99,0.10247
3793.84,0.10378
3770.7,0.10245
3747.55,0.10520
3724.41,0.10787
3701.26,0.10764
3678.12,0.10821
3654.97,0.11361
3631.83,0.11064
3608.68,0.11407
3585.54,0.11320
3562.39,0.11198
3539.25,0.10928
3516.1,0.10748
3492.96,0.10608
3469.81,0.10272
3446.67,0.09767
3423.52,0.09374
3400.38,0.09361
3377.23,0.09080
3354.09,0.08845
3330.94,0.09113
3307.8,0.09267
3284.65,0.09124
3261.51,0.09128
3238.36,0.08853
3215.22,0.07334
3192.07,0.06496
3168.93,0.06856
3145.78,0.06504
3122.64,0.06860
3099.49,0.07192
3076.35,0.07138
3053.2,0.06465
3030.06,0.05547
3006.91,0.03523
2983.77,0.01706
2960.62,0.01678
2937.48,0.01685
2914.33,0.01921
2891.19,0.01898
2868.04,0.01877
2844.9,0.01860
2821.75,0.02105
2798.61,0.02992
2775.46,0.04952
2752.32,0.05644
2729.17,0.04231
2706.03,0.05276
2682.88,0.05699
2659.74,0.05867
2636.59,0.06932
2613.45,0.06365
2590.3,0.07031
2567.16,0.07550
2544.02,0.08539
2520.87,0.09519
2497.73,0.10034
2474.58,0.10411
2451.44,0.10378
2428.29,0.09492
2405.15,0.09946
2382,0.10237
2358.86,0.10026
2335.71,0.10788
2312.57,0.11591
2289.42,0.11765
2266.28,0.11241
2243.13,0.11615
2219.99,0.11818
2196.84,0.11530
2173.7,0.11334
2150.55,0.12110
2127.41,0.11775
2104.26,0.13185
2081.12,0.13525
2057.97,0.14054
2034.83,0.13952
2011.68,0.14078
1988.54,0.13975
1965.39,0.13968
1942.25,0.13874
1919.1,0.13645
1895.96,0.13221
1872.81,0.13685
1849.67,0.13387
1826.52,0.13066
1803.38,0.13329
1780.23,0.12847
1757.09,0.11649
1733.94,0.10070
1710.8,0.10443
1687.65,0.10077
1664.51,0.10169
1641.36,0.09197
1618.22,0.09697
1595.07,0.10265
1571.93,0.10316
1548.78,0.09461
1525.64,0.08908
1502.49,0.07488
1479.35,0.03377
1456.2,0.01702
1433.06,0.02764
1409.91,0.05544
1386.77,0.02710
1363.62,0.02601
1340.48,0.05915
1317.33,0.07006
1294.19,0.05581
1271.04,0.07925
1247.9,0.07088
1224.75,0.07857
1201.61,0.08378
1178.46,0.05983
1155.32,0.03436
1132.17,0.08047
1109.03,0.07305
1085.88,0.09224
1062.74,0.09976
1039.59,0.08145
1016.45,0.08472
993.304,0.04221
970.159,0.03219
947.014,0.10514
923.869,0.12806
900.724,0.06408
877.579,0.11565
854.434,0.09034
831.289,0.08178
808.144,0.05973
784.999,0.13684
761.854,0.15059
738.709,0.14968
715.565,0.14353
692.42,0.15115
669.275,0.15132
646.13,0.15303
622.985,0.15465
599.84,0.15471