File: 01_Data/Wool_Rug/FTIR/IS/Wool_Rug_IS_S_220826_R1.dpt
7497.03,0.54541
7473.89,0.55327
7450.74,0.55436
7427.6,0.54652
7404.45,0.53983
7381.31,0.54657
7358.16,0.54063
7335.02,0.54004
7311.87,0.53551
7288.73,0.52996
7265.58,0.52502
7242.44,0.51646
7219.29,0.51645
7196.15,0.50839
7173,0.48895
7149.86,0.48554
7126.71,0.47370
7103.57,0.46322
7080.42,0.44771
7057.28,0.43642
7034.13,0.43074
7010.99,0.42414
6987.84,0.42309
6964.7,0.41408
6941.55,0.40635
6918.41,0.40078
6895.26,0.40423
6872.12,0.40082
6848.97,0.39360
6825.83,0.39533
6802.68,0.38957
6779.54,0.38297
6756.39,0.37654
6733.25,0.36287
6710.1,0.35588
6686.96,0.35502
6663.82,0.35088
6640.67,0.35194
6617.53,0.35176
6594.38,0.35565
6571.24,0.35698
6548.09,0.36707
6524.95,0.37215
6501.8,0.37781
6478.66,0.38387
6455.51,0.39336
6432.37,0.40077
6409.22,0.40347
6386.08,0.40531
6362.93,0.40540
6339.79,0.41190
6316.64,0.41192
6293.5,0.41461
6270.35,0.42213
6247.21,0.43069
6224.06,0.43550
6200.92,0.43906
6177.77,0.44392
6154.63,0.45064
6131.48,0.45232
6108.34,0.45433
6085.19,0.45704
6062.05,0.45826
6038.9,0.46040
6015.76,0.45363
5992.61,0.43932
5969.47,0.42073
5946.32,0.40031
5923.18,0.37870
5900.03,0.36815
5876.89,0.37026
5853.74,0.37151
5830.6,0.37001
5807.45,0.35756
5784.31,0.34667
5761.16,0.34008
5738.02,0.34114
5714.87,0.35444
5691.73,0.36780
5668.58,0.37960
5645.44,0.39134
5622.29,0.39686
5599.15,0.40011
5576,0.39984
5552.86,0.40164
5529.71,0.40261
5506.57,0.40389
5483.42,0.40917
5460.28,0.41295
5437.13,0.41662
5413.99,0.42060
5390.84,0.42035
5367.7,0.41680
5344.55,0.40563
5321.41,0.38380
5298.26,0.34169
5275.12,0.29200
5251.97,0.24655
5228.83,0.21473
5205.68,0.19515
5182.54,0.18286
5159.39,0.17758
5136.25,0.17857
5113.1,0.18326
5089.96,0.18578
5066.81,0.18523
5043.67,0.18970
5020.52,0.19504
4997.38,0.20111
4974.23,0.20522
4951.09,0.20233
4927.94,0.19558
4904.8,0.18506
4881.65,0.17052
4858.51,0.16695
4835.36,0.17905
4812.22,0.19474
4789.07,0.20682
4765.93,0.21247
4742.78,0.21200
4719.64,0.20663
4696.49,0.19738
4673.35,0.18283
4650.2,0.16785
4627.06,0.15198
4603.92,0.14446
4580.77,0.14534
4557.63,0.15022
4534.48,0.15705
4511.34,0.16452
4488.19,0.17269
4465.05,0.17309
4441.9,0.16278
4418.76,0.14679
4395.61,0.13851
4372.47,0.13290
4349.32,0.13282
4326.18,0.13732
4303.03,0.14189
4279.89,0.13891
4256.74,0.13721
4233.6,0.14158
4210.45,0.14589
4187.31,0.14680
4164.16,0.14703
4141.02,0.14502
4117.87,0.14131
4094.73,0.13338
4071.58,0.12375
4048.44,0.11884
4025.29,0.12010
4002.15,0.12009
3979,0.11818
3955.86,0.11715
3932.71,0.11638
3909.57,0.12125
3886.42,0.12990
3863.28,0.13587
3840.13,0.14004
3816.99,0.14080
3793.84,0.13914
3770.7,0.13423
3747.55,0.12512
3724.41,0.11136
3701.26,0.09025
3678.12,0.05713
3654.97,0.03631
3631.83,0.02768
3608.68,0.02292
3585.54,0.02059
3562.39,0.01999
3539.25,0.01970
3516.1,0.01876
3492.96,0.01871
3469.81,0.01762
3446.67,0.01836
3423.52,0.01804
3400.38,0.01735
3377.23,0.01720
3354.09,0.01707
3330.94,0.01717
3307.8,0.01744
3284.65,0.01695
3261.51,0.01765
3238.36,0.01758
3215.22,0.01805
3192.07,0.01832
3168.93,0.01794
3145.78,0.01891
3122.64,0.01821
3099.49,0.01823
3076.35,0.01860
3053.2,0.01912
3030.06,0.01922
3006.91,0.01890
2983.77,0.01890
2960.62,0.01815
2937.48,0.01749
2914.33,0.01840
2891.19,0.01967
2868.04,0.01940
2844.9,0.02166
2821.75,0.02217
2798.61,0.02361
2775.46,0.02520
2752.32,0.02606
2729.17,0.02749
2706.03,0.02941
2682.88,0.03066
2659.74,0.03223
2636.59,0.03361
2613.45,0.03451
2590.3,0.03642
2567.16,0.03786
2544.02,0.03996
2520.87,0.04138
2497.73,0.04282
2474.58,0.04512
2451.44,0.04740
2428.29,0.05039
2405.15,0.05214
2382,0.05449
2358.86,0.05579
2335.71,0.05673
2312.57,0.05660
2289.42,0.05724
2266.28,0.05678
2243.13,0.05612
2219.99,0.05556
2196.84,0.05507
2173.7,0.05458
2150.55,0.05407
2127.41,0.05397
2104.26,0.05363
2081.12,0.05470
2057.97,0.05665
2034.83,0.05828
2011.68,0.05956
1988.54,0.06042
1965.39,0.06114
1942.25,0.06180
1919.1,0.06124
1895.96,0.05887
1872.81,0.05701
1849.67,0.05407
1826.52,0.04910
1803.38,0.04273
1780.23,0.03553
1757.09,0.02788
1733.94,0.01998
1710.8,0.01521
1687.65,0.01359
1664.51,0.01474
1641.36,0.01710
1618.22,0.01775
1595.07,0.01714
1571.93,0.01635
1548.78,0.01579
1525.64,0.01758
1502.49,0.01858
1479.35,0.01870
1456.2,0.01750
1433.06,0.01768
1409.91,0.01731
1386.77,0.01751
1363.62,0.01763
1340.48,0.01777
1317.33,0.01701
1294.19,0.01712
1271.04,0.01731
1247.9,0.01763
1224.75,0.01777
1201.61,0.01881
1178.46,0.01861
1155.32,0.01854
1132.17,0.01891
1109.03,0.01846
1085.88,0.01879
1062.74,0.01968
1039.59,0.01975
1016.45,0.02360
993.304,0.02528
970.159,0.02623
947.014,0.02619
923.869,0.02546
900.724,0.02438
877.579,0.02417
854.434,0.02290
831.289,0.02015
808.144,0.01980
784.999,0.01864
761.854,0.01768
738.709,0.01704
715.565,0.01585
692.42,0.01627
669.275,0.01640
646.13,0.01646
622.985,0.01481
599.84,0.01552