File: 01_Data/Wool_Rug/FTIR/IS/Wool_Rug_IS_T_220826_R1.dpt
7497.03,0.02452
7473.89,0.02569
7450.74,0.02472
7427.6,0.02558
7404.45,0.02168
7381.31,0.02708
7358.16,0.02214
7335.02,0.02475
7311.87,0.03058
7288.73,0.02493
7265.58,0.03024
7242.44,0.02787
7219.29,0.02166
7196.15,0.02222
7173,0.02236
7149.86,0.02367
7126.71,0.02369
7103.57,0.02157
7080.42,0.02777
7057.28,0.02642
7034.13,0.02578
7010.99,0.02549
6987.84,0.02148
6964.7,0.02272
6941.55,0.02372
6918.41,0.02420
6895.26,0.02549
6872.12,0.02297
6848.97,0.02732
6825.83,0.02320
6802.68,0.02058
6779.54,0.02244
6756.39,0.02679
6733.25,0.02532
6710.1,0.02663
6686.96,0.02589
6663.82,0.02309
6640.67,0.02070
6617.53,0.02591
6594.38,0.01792
6571.24,0.02581
6548.09,0.01948
6524.95,0.02956
6501.8,0.02262
6478.66,0.02589
6455.51,0.02526
6432.37,0.02339
6409.22,0.02355
6386.08,0.02516
6362.93,0.02097
6339.79,0.01918
6316.64,0.02300
6293.5,0.02114
6270.35,0.02121
6247.21,0.02337
6224.06,0.02149
6200.92,0.02202
6177.77,0.02156
6154.63,0.02319
6131.48,0.02285
6108.34,0.02438
6085.19,0.01942
6062.05,0.02245
6038.9,0.02144
6015.76,0.02078
5992.61,0.02357
5969.47,0.02292
5946.32,0.02392
5923.18,0.02229
5900.03,0.02354
5876.89,0.02244
5853.74,0.02057
5830.6,0.02166
5807.45,0.02233
5784.31,0.02255
5761.16,0.02156
5738.02,0.02368
5714.87,0.02318
5691.73,0.02385
5668.58,0.02222
5645.44,0.02197
5622.29,0.02257
5599.15,0.02181
5576,0.02167
5552.86,0.02223
5529.71,0.02151
5506.57,0.02059
5483.42,0.02411
5460.28,0.02183
5437.13,0.02268
5413.99,0.02275
5390.84,0.02382
5367.7,0.02129
5344.55,0.02246
5321.41,0.02287
5298.26,0.02314
5275.12,0.02216
5251.97,0.02179
5228.83,0.02295
5205.68,0.02167
5182.54,0.02240
5159.39,0.02251
5136.25,0.02173
5113.1,0.02306
5089.96,0.02184
5066.81,0.02313
5043.67,0.02216
5020.52,0.02266
4997.38,0.02249
4974.23,0.02093
4951.09,0.02177
4927.94,0.02166
4904.8,0.02112
4881.65,0.02190
4858.51,0.02173
4835.36,0.02257
4812.22,0.02259
4789.07,0.02201
4765.93,0.02310
4742.78,0.02197
4719.64,0.02263
4696.49,0.02144
4673.35,0.02235
4650.2,0.02291
4627.06,0.02159
4603.92,0.02293
4580.77,0.02327
4557.63,0.02231
4534.48,0.02306
4511.34,0.02168
4488.19,0.02279
4465.05,0.02230
4441.9,0.02290
4418.76,0.02143
4395.61,0.02294
4372.47,0.02246
4349.32,0.02298
4326.18,0.02221
4303.03,0.02246
4279.89,0.02276
4256.74,0.02303
4233.6,0.02209
4210.45,0.02298
4187.31,0.02278
4164.16,0.02278
4141.02,0.02284
4117.87,0.02264
4094.73,0.02270
4071.58,0.02234
4048.44,0.02208
4025.29,0.02320
4002.15,0.02327
3979,0.02267
3955.86,0.02292
3932.71,0.02239
3909.57,0.02245
3886.42,0.02313
3863.28,0.02296
3840.13,0.02208
3816.99,0.02316
3793.84,0.02255
3770.7,0.02255
3747.55,0.02280
3724.41,0.02289
3701.26,0.02247
3678.12,0.02222
3654.97,0.02230
3631.83,0.02133
3608.68,0.02172
3585.54,0.02141
3562.39,0.02129
3539.25,0.02059
3516.1,0.02044
3492.96,0.02104
3469.81,0.02061
3446.67,0.02082
3423.52,0.02044
3400.38,0.02087
3377.23,0.02022
3354.09,0.02019
3330.94,0.02101
3307.8,0.01983
3284.65,0.02081
3261.51,0.02092
3238.36,0.02064
3215.22,0.02103
3192.07,0.02121
3168.93,0.02046
3145.78,0.02051
3122.64,0.02044
3099.49,0.02100
3076.35,0.02022
3053.2,0.02082
3030.06,0.02063
3006.91,0.02004
2983.77,0.01992
2960.62,0.01949
2937.48,0.02007
2914.33,0.01965
2891.19,0.02078
2868.04,0.02082
2844.9,0.02124
2821.75,0.02155
2798.61,0.02106
2775.46,0.02132
2752.32,0.02100
2729.17,0.02092
2706.03,0.02122
2682.88,0.02113
2659.74,0.02117
2636.59,0.02123
2613.45,0.02149
2590.3,0.02122
2567.16,0.02130
2544.02,0.02126
2520.87,0.02120
2497.73,0.02109
2474.58,0.02064
2451.44,0.02110
2428.29,0.02118
2405.15,0.02081
2382,0.02104
2358.86,0.02077
2335.71,0.02127
2312.57,0.02096
2289.42,0.02123
2266.28,0.02090
2243.13,0.02138
2219.99,0.02109
2196.84,0.02091
2173.7,0.02099
2150.55,0.02084
2127.41,0.02101
2104.26,0.02123
2081.12,0.02053
2057.97,0.02067
2034.83,0.02083
2011.68,0.02082
1988.54,0.02068
1965.39,0.02046
1942.25,0.02089
1919.1,0.02077
1895.96,0.02065
1872.81,0.02009
1849.67,0.02015
1826.52,0.01997
1803.38,0.01948
1780.23,0.01890
1757.09,0.01769
1733.94,0.02016
1710.8,0.02040
1687.65,0.01880
1664.51,0.01872
1641.36,0.01838
1618.22,0.01910
1595.07,0.01855
1571.93,0.01811
1548.78,0.01834
1525.64,0.01844
1502.49,0.01861
1479.35,0.01822
1456.2,0.01794
1433.06,0.01887
1409.91,0.01786
1386.77,0.01801
1363.62,0.01776
1340.48,0.01777
1317.33,0.01684
1294.19,0.01781
1271.04,0.01883
1247.9,0.02026
1224.75,0.01904
1201.61,0.01824
1178.46,0.01787
1155.32,0.01784
1132.17,0.01786
1109.03,0.01880
1085.88,0.01766
1062.74,0.01937
1039.59,0.01990
1016.45,0.01902
993.304,0.02100
970.159,0.02010
947.014,0.01991
923.869,0.01928
900.724,0.01916
877.579,0.01836
854.434,0.01841
831.289,0.01858
808.144,0.01823
784.999,0.01776
761.854,0.01821
738.709,0.01792
715.565,0.01823
692.42,0.01804
669.275,0.01759
646.13,0.01701
622.985,0.01539
599.84,0.01712