File: 01_Data/Wool_Rug/FTIR/IS/Wool_Rug_IS_S_220826_R8.dpt
7497.03,0.56221
7473.89,0.56841
7450.74,0.56288
7427.6,0.56281
7404.45,0.55326
7381.31,0.54173
7358.16,0.54578
7335.02,0.53711
7311.87,0.54384
7288.73,0.54008
7265.58,0.53936
7242.44,0.52943
7219.29,0.52528
7196.15,0.51312
7173,0.51461
7149.86,0.51606
7126.71,0.50226
7103.57,0.49794
7080.42,0.48728
7057.28,0.48267
7034.13,0.48327
7010.99,0.46574
6987.84,0.46709
6964.7,0.46390
6941.55,0.46225
6918.41,0.45217
6895.26,0.44852
6872.12,0.44341
6848.97,0.43321
6825.83,0.43657
6802.68,0.42777
6779.54,0.42537
6756.39,0.40473
6733.25,0.38844
6710.1,0.37564
6686.96,0.36559
6663.82,0.36321
6640.67,0.36625
6617.53,0.36822
6594.38,0.36760
6571.24,0.37228
6548.09,0.38410
6524.95,0.39055
6501.8,0.39263
6478.66,0.40574
6455.51,0.41431
6432.37,0.41479
6409.22,0.42249
6386.08,0.42363
6362.93,0.42233
6339.79,0.42555
6316.64,0.42979
6293.5,0.43705
6270.35,0.44065
6247.21,0.44554
6224.06,0.44936
6200.92,0.45419
6177.77,0.45779
6154.63,0.46364
6131.48,0.46765
6108.34,0.47062
6085.19,0.47181
6062.05,0.47179
6038.9,0.47004
6015.76,0.46292
5992.61,0.44919
5969.47,0.42832
5946.32,0.40541
5923.18,0.38189
5900.03,0.36830
5876.89,0.37043
5853.74,0.37522
5830.6,0.36884
5807.45,0.35709
5784.31,0.34850
5761.16,0.34173
5738.02,0.34257
5714.87,0.35663
5691.73,0.37465
5668.58,0.38665
5645.44,0.40148
5622.29,0.41023
5599.15,0.41594
5576,0.41497
5552.86,0.41526
5529.71,0.41554
5506.57,0.41575
5483.42,0.41834
5460.28,0.42448
5437.13,0.42842
5413.99,0.43256
5390.84,0.43360
5367.7,0.43333
5344.55,0.42808
5321.41,0.41522
5298.26,0.38853
5275.12,0.34711
5251.97,0.30991
5228.83,0.28176
5205.68,0.26070
5182.54,0.24904
5159.39,0.24140
5136.25,0.23889
5113.1,0.23862
5089.96,0.23288
5066.81,0.22313
5043.67,0.22214
5020.52,0.22563
4997.38,0.22678
4974.23,0.22646
4951.09,0.21918
4927.94,0.20690
4904.8,0.19044
4881.65,0.17551
4858.51,0.17040
4835.36,0.18285
4812.22,0.20057
4789.07,0.21299
4765.93,0.21936
4742.78,0.21750
4719.64,0.21179
4696.49,0.20014
4673.35,0.18288
4650.2,0.16651
4627.06,0.15043
4603.92,0.14322
4580.77,0.14386
4557.63,0.14932
4534.48,0.15645
4511.34,0.16470
4488.19,0.17229
4465.05,0.17229
4441.9,0.16212
4418.76,0.14370
4395.61,0.13628
4372.47,0.13044
4349.32,0.13084
4326.18,0.13495
4303.03,0.13958
4279.89,0.13808
4256.74,0.13678
4233.6,0.14139
4210.45,0.14644
4187.31,0.14927
4164.16,0.15113
4141.02,0.15027
4117.87,0.14911
4094.73,0.13999
4071.58,0.13031
4048.44,0.12568
4025.29,0.12882
4002.15,0.12850
3979,0.12663
3955.86,0.12432
3932.71,0.12221
3909.57,0.12767
3886.42,0.13842
3863.28,0.14693
3840.13,0.15275
3816.99,0.15698
3793.84,0.15799
3770.7,0.15724
3747.55,0.15037
3724.41,0.13902
3701.26,0.11712
3678.12,0.08166
3654.97,0.05336
3631.83,0.03835
3608.68,0.03026
3585.54,0.02638
3562.39,0.02327
3539.25,0.02152
3516.1,0.02026
3492.96,0.01895
3469.81,0.01854
3446.67,0.01796
3423.52,0.01774
3400.38,0.01770
3377.23,0.01657
3354.09,0.01667
3330.94,0.01715
3307.8,0.01719
3284.65,0.01789
3261.51,0.01753
3238.36,0.01724
3215.22,0.01775
3192.07,0.01825
3168.93,0.01903
3145.78,0.01868
3122.64,0.01912
3099.49,0.01887
3076.35,0.01869
3053.2,0.01901
3030.06,0.01884
3006.91,0.01921
2983.77,0.01839
2960.62,0.01752
2937.48,0.01780
2914.33,0.01810
2891.19,0.01922
2868.04,0.01957
2844.9,0.02070
2821.75,0.02283
2798.61,0.02367
2775.46,0.02424
2752.32,0.02581
2729.17,0.02670
2706.03,0.02886
2682.88,0.02955
2659.74,0.03096
2636.59,0.03195
2613.45,0.03344
2590.3,0.03533
2567.16,0.03671
2544.02,0.03858
2520.87,0.04023
2497.73,0.04145
2474.58,0.04353
2451.44,0.04649
2428.29,0.04846
2405.15,0.05101
2382,0.05335
2358.86,0.05596
2335.71,0.05695
2312.57,0.05817
2289.42,0.05888
2266.28,0.06017
2243.13,0.06020
2219.99,0.06069
2196.84,0.06070
2173.7,0.06125
2150.55,0.06138
2127.41,0.06102
2104.26,0.06106
2081.12,0.06186
2057.97,0.06264
2034.83,0.06389
2011.68,0.06481
1988.54,0.06494
1965.39,0.06457
1942.25,0.06443
1919.1,0.06359
1895.96,0.06073
1872.81,0.05813
1849.67,0.05498
1826.52,0.04961
1803.38,0.04300
1780.23,0.03540
1757.09,0.02729
1733.94,0.01962
1710.8,0.01498
1687.65,0.01365
1664.51,0.01517
1641.36,0.01722
1618.22,0.01732
1595.07,0.01686
1571.93,0.01633
1548.78,0.01556
1525.64,0.01740
1502.49,0.01796
1479.35,0.01789
1456.2,0.01747
1433.06,0.01758
1409.91,0.01706
1386.77,0.01685
1363.62,0.01718
1340.48,0.01707
1317.33,0.01677
1294.19,0.01689
1271.04,0.01738
1247.9,0.01688
1224.75,0.01789
1201.61,0.01870
1178.46,0.01780
1155.32,0.01844
1132.17,0.01867
1109.03,0.01824
1085.88,0.01899
1062.74,0.01953
1039.59,0.01915
1016.45,0.02268
993.304,0.02592
970.159,0.02761
947.014,0.02729
923.869,0.02620
900.724,0.02637
877.579,0.02473
854.434,0.02390
831.289,0.02253
808.144,0.02107
784.999,0.01976
761.854,0.01890
738.709,0.01825
715.565,0.01679
692.42,0.01548
669.275,0.01571
646.13,0.01378
622.985,0.01737
599.84,0.01788