File: 01_Data/Wool_Rug/FTIR/IS/Wool_Rug_IS_S_220826_R6.dpt
7497.03,0.56866
7473.89,0.56554
7450.74,0.56505
7427.6,0.56373
7404.45,0.55378
7381.31,0.56061
7358.16,0.54514
7335.02,0.54095
7311.87,0.54383
7288.73,0.53520
7265.58,0.53405
7242.44,0.52847
7219.29,0.53054
7196.15,0.51859
7173,0.51223
7149.86,0.50764
7126.71,0.50446
7103.57,0.49034
7080.42,0.48610
7057.28,0.48299
7034.13,0.47316
7010.99,0.46468
6987.84,0.46453
6964.7,0.45645
6941.55,0.46026
6918.41,0.45054
6895.26,0.43957
6872.12,0.43964
6848.97,0.43480
6825.83,0.42911
6802.68,0.42690
6779.54,0.41498
6756.39,0.40400
6733.25,0.38741
6710.1,0.37289
6686.96,0.36714
6663.82,0.36371
6640.67,0.36278
6617.53,0.36396
6594.38,0.36921
6571.24,0.37821
6548.09,0.37763
6524.95,0.38730
6501.8,0.38980
6478.66,0.39962
6455.51,0.40498
6432.37,0.41638
6409.22,0.42086
6386.08,0.42005
6362.93,0.41850
6339.79,0.42658
6316.64,0.42624
6293.5,0.43190
6270.35,0.43702
6247.21,0.44143
6224.06,0.44869
6200.92,0.45498
6177.77,0.45687
6154.63,0.46240
6131.48,0.46923
6108.34,0.46969
6085.19,0.47012
6062.05,0.46983
6038.9,0.46894
6015.76,0.46150
5992.61,0.44861
5969.47,0.42766
5946.32,0.40529
5923.18,0.38099
5900.03,0.37222
5876.89,0.37041
5853.74,0.37517
5830.6,0.37127
5807.45,0.35897
5784.31,0.34830
5761.16,0.34264
5738.02,0.34387
5714.87,0.35562
5691.73,0.37429
5668.58,0.38692
5645.44,0.40071
5622.29,0.40888
5599.15,0.41110
5576,0.41410
5552.86,0.41305
5529.71,0.41501
5506.57,0.41623
5483.42,0.41724
5460.28,0.42382
5437.13,0.42802
5413.99,0.43244
5390.84,0.43320
5367.7,0.43166
5344.55,0.42454
5321.41,0.41380
5298.26,0.38240
5275.12,0.33943
5251.97,0.29898
5228.83,0.27087
5205.68,0.25161
5182.54,0.23744
5159.39,0.23027
5136.25,0.23041
5113.1,0.23138
5089.96,0.22631
5066.81,0.21741
5043.67,0.21867
5020.52,0.22196
4997.38,0.22510
4974.23,0.22363
4951.09,0.21696
4927.94,0.20521
4904.8,0.19005
4881.65,0.17595
4858.51,0.17043
4835.36,0.18309
4812.22,0.20065
4789.07,0.21332
4765.93,0.21762
4742.78,0.21719
4719.64,0.21089
4696.49,0.19990
4673.35,0.18236
4650.2,0.16649
4627.06,0.15060
4603.92,0.14372
4580.77,0.14367
4557.63,0.14845
4534.48,0.15663
4511.34,0.16465
4488.19,0.17130
4465.05,0.17300
4441.9,0.16130
4418.76,0.14423
4395.61,0.13553
4372.47,0.13059
4349.32,0.12969
4326.18,0.13502
4303.03,0.13989
4279.89,0.13893
4256.74,0.13670
4233.6,0.14082
4210.45,0.14622
4187.31,0.14919
4164.16,0.15078
4141.02,0.14915
4117.87,0.14698
4094.73,0.14002
4071.58,0.12979
4048.44,0.12478
4025.29,0.12734
4002.15,0.12666
3979,0.12575
3955.86,0.12270
3932.71,0.12086
3909.57,0.12659
3886.42,0.13662
3863.28,0.14545
3840.13,0.15132
3816.99,0.15473
3793.84,0.15564
3770.7,0.15386
3747.55,0.14617
3724.41,0.13500
3701.26,0.11270
3678.12,0.07670
3654.97,0.04982
3631.83,0.03651
3608.68,0.02890
3585.54,0.02520
3562.39,0.02265
3539.25,0.02080
3516.1,0.02031
3492.96,0.01925
3469.81,0.01854
3446.67,0.01839
3423.52,0.01749
3400.38,0.01743
3377.23,0.01730
3354.09,0.01735
3330.94,0.01739
3307.8,0.01681
3284.65,0.01773
3261.51,0.01753
3238.36,0.01812
3215.22,0.01799
3192.07,0.01743
3168.93,0.01840
3145.78,0.01941
3122.64,0.01892
3099.49,0.01859
3076.35,0.01818
3053.2,0.01812
3030.06,0.01889
3006.91,0.01872
2983.77,0.01850
2960.62,0.01736
2937.48,0.01805
2914.33,0.01810
2891.19,0.01950
2868.04,0.01894
2844.9,0.02114
2821.75,0.02225
2798.61,0.02318
2775.46,0.02442
2752.32,0.02574
2729.17,0.02684
2706.03,0.02831
2682.88,0.03034
2659.74,0.03109
2636.59,0.03247
2613.45,0.03339
2590.3,0.03555
2567.16,0.03672
2544.02,0.03859
2520.87,0.04006
2497.73,0.04177
2474.58,0.04361
2451.44,0.04616
2428.29,0.04924
2405.15,0.05103
2382,0.05377
2358.86,0.05585
2335.71,0.05726
2312.57,0.05783
2289.42,0.05848
2266.28,0.05990
2243.13,0.05975
2219.99,0.05972
2196.84,0.06030
2173.7,0.06065
2150.55,0.06051
2127.41,0.06005
2104.26,0.06009
2081.12,0.06080
2057.97,0.06222
2034.83,0.06295
2011.68,0.06432
1988.54,0.06429
1965.39,0.06400
1942.25,0.06353
1919.1,0.06323
1895.96,0.06071
1872.81,0.05803
1849.67,0.05472
1826.52,0.04920
1803.38,0.04313
1780.23,0.03523
1757.09,0.02763
1733.94,0.01948
1710.8,0.01465
1687.65,0.01313
1664.51,0.01461
1641.36,0.01755
1618.22,0.01763
1595.07,0.01698
1571.93,0.01586
1548.78,0.01550
1525.64,0.01723
1502.49,0.01792
1479.35,0.01800
1456.2,0.01717
1433.06,0.01746
1409.91,0.01739
1386.77,0.01702
1363.62,0.01752
1340.48,0.01731
1317.33,0.01681
1294.19,0.01737
1271.04,0.01700
1247.9,0.01708
1224.75,0.01805
1201.61,0.01799
1178.46,0.01761
1155.32,0.01860
1132.17,0.01880
1109.03,0.01875
1085.88,0.01820
1062.74,0.01909
1039.59,0.01942
1016.45,0.02338
993.304,0.02496
970.159,0.02695
947.014,0.02728
923.869,0.02598
900.724,0.02581
877.579,0.02496
854.434,0.02457
831.289,0.02238
808.144,0.02100
784.999,0.02043
761.854,0.01812
738.709,0.01737
715.565,0.01727
692.42,0.01546
669.275,0.01591
646.13,0.01717
622.985,0.01561
599.84,0.01853