File: 01_Data/Wool_Rug/FTIR/IS/Wool_Rug_IS_S_220826_R5.dpt
7497.03,0.56444
7473.89,0.56621
7450.74,0.55827
7427.6,0.55594
7404.45,0.55730
7381.31,0.54913
7358.16,0.55753
7335.02,0.54182
7311.87,0.54053
7288.73,0.53474
7265.58,0.53197
7242.44,0.53113
7219.29,0.52485
7196.15,0.51698
7173,0.50483
7149.86,0.50667
7126.71,0.49647
7103.57,0.48534
7080.42,0.47728
7057.28,0.47351
7034.13,0.46261
7010.99,0.46590
6987.84,0.45547
6964.7,0.45539
6941.55,0.45014
6918.41,0.44167
6895.26,0.43799
6872.12,0.43255
6848.97,0.42785
6825.83,0.41949
6802.68,0.41937
6779.54,0.41171
6756.39,0.39497
6733.25,0.38508
6710.1,0.37091
6686.96,0.36489
6663.82,0.36371
6640.67,0.35916
6617.53,0.36517
6594.38,0.36633
6571.24,0.36532
6548.09,0.38000
6524.95,0.38706
6501.8,0.39166
6478.66,0.40172
6455.51,0.40792
6432.37,0.41432
6409.22,0.41812
6386.08,0.42004
6362.93,0.41584
6339.79,0.42204
6316.64,0.42488
6293.5,0.43351
6270.35,0.43701
6247.21,0.44218
6224.06,0.44887
6200.92,0.45190
6177.77,0.45705
6154.63,0.46375
6131.48,0.46286
6108.34,0.46991
6085.19,0.47146
6062.05,0.47100
6038.9,0.46440
6015.76,0.45964
5992.61,0.44676
5969.47,0.42624
5946.32,0.40506
5923.18,0.38223
5900.03,0.36850
5876.89,0.37111
5853.74,0.37445
5830.6,0.37016
5807.45,0.35791
5784.31,0.34812
5761.16,0.33995
5738.02,0.34445
5714.87,0.35352
5691.73,0.37243
5668.58,0.38480
5645.44,0.39884
5622.29,0.40768
5599.15,0.40852
5576,0.41047
5552.86,0.41174
5529.71,0.41356
5506.57,0.41593
5483.42,0.41782
5460.28,0.42053
5437.13,0.42638
5413.99,0.43112
5390.84,0.43186
5367.7,0.43062
5344.55,0.42389
5321.41,0.40849
5298.26,0.37819
5275.12,0.33343
5251.97,0.29287
5228.83,0.26311
5205.68,0.24554
5182.54,0.23191
5159.39,0.22401
5136.25,0.22345
5113.1,0.22526
5089.96,0.22171
5066.81,0.21595
5043.67,0.21484
5020.52,0.21703
4997.38,0.22287
4974.23,0.22189
4951.09,0.21588
4927.94,0.20367
4904.8,0.18822
4881.65,0.17479
4858.51,0.17023
4835.36,0.18153
4812.22,0.19831
4789.07,0.21291
4765.93,0.21776
4742.78,0.21555
4719.64,0.21025
4696.49,0.19962
4673.35,0.18337
4650.2,0.16643
4627.06,0.15035
4603.92,0.14357
4580.77,0.14378
4557.63,0.14853
4534.48,0.15602
4511.34,0.16372
4488.19,0.17265
4465.05,0.17211
4441.9,0.16176
4418.76,0.14368
4395.61,0.13566
4372.47,0.13015
4349.32,0.13032
4326.18,0.13510
4303.03,0.13966
4279.89,0.13860
4256.74,0.13618
4233.6,0.14079
4210.45,0.14517
4187.31,0.14808
4164.16,0.15039
4141.02,0.14850
4117.87,0.14691
4094.73,0.13811
4071.58,0.12835
4048.44,0.12407
4025.29,0.12639
4002.15,0.12692
3979,0.12425
3955.86,0.12208
3932.71,0.12057
3909.57,0.12602
3886.42,0.13607
3863.28,0.14439
3840.13,0.14945
3816.99,0.15301
3793.84,0.15351
3770.7,0.15142
3747.55,0.14372
3724.41,0.13244
3701.26,0.11043
3678.12,0.07397
3654.97,0.04794
3631.83,0.03468
3608.68,0.02810
3585.54,0.02454
3562.39,0.02242
3539.25,0.02057
3516.1,0.01974
3492.96,0.01921
3469.81,0.01806
3446.67,0.01778
3423.52,0.01783
3400.38,0.01821
3377.23,0.01735
3354.09,0.01762
3330.94,0.01746
3307.8,0.01683
3284.65,0.01708
3261.51,0.01736
3238.36,0.01843
3215.22,0.01809
3192.07,0.01822
3168.93,0.01910
3145.78,0.01917
3122.64,0.01900
3099.49,0.01916
3076.35,0.01858
3053.2,0.01867
3030.06,0.01903
3006.91,0.01902
2983.77,0.01850
2960.62,0.01784
2937.48,0.01749
2914.33,0.01863
2891.19,0.01903
2868.04,0.01921
2844.9,0.02094
2821.75,0.02244
2798.61,0.02263
2775.46,0.02456
2752.32,0.02540
2729.17,0.02676
2706.03,0.02855
2682.88,0.02975
2659.74,0.03109
2636.59,0.03242
2613.45,0.03352
2590.3,0.03533
2567.16,0.03695
2544.02,0.03817
2520.87,0.04029
2497.73,0.04142
2474.58,0.04373
2451.44,0.04629
2428.29,0.04914
2405.15,0.05108
2382,0.05387
2358.86,0.05568
2335.71,0.05723
2312.57,0.05729
2289.42,0.05837
2266.28,0.05912
2243.13,0.05942
2219.99,0.05920
2196.84,0.05953
2173.7,0.06003
2150.55,0.05982
2127.41,0.05931
2104.26,0.05956
2081.12,0.06012
2057.97,0.06123
2034.83,0.06230
2011.68,0.06358
1988.54,0.06401
1965.39,0.06361
1942.25,0.06360
1919.1,0.06288
1895.96,0.06044
1872.81,0.05800
1849.67,0.05467
1826.52,0.04906
1803.38,0.04306
1780.23,0.03530
1757.09,0.02718
1733.94,0.01924
1710.8,0.01477
1687.65,0.01314
1664.51,0.01484
1641.36,0.01759
1618.22,0.01771
1595.07,0.01703
1571.93,0.01628
1548.78,0.01587
1525.64,0.01660
1502.49,0.01825
1479.35,0.01864
1456.2,0.01750
1433.06,0.01752
1409.91,0.01723
1386.77,0.01722
1363.62,0.01749
1340.48,0.01735
1317.33,0.01687
1294.19,0.01693
1271.04,0.01708
1247.9,0.01722
1224.75,0.01735
1201.61,0.01787
1178.46,0.01834
1155.32,0.01806
1132.17,0.01886
1109.03,0.01800
1085.88,0.01863
1062.74,0.01929
1039.59,0.01977
1016.45,0.02321
993.304,0.02548
970.159,0.02769
947.014,0.02678
923.869,0.02566
900.724,0.02602
877.579,0.02454
854.434,0.02455
831.289,0.02127
808.144,0.02090
784.999,0.01949
761.854,0.01759
738.709,0.01803
715.565,0.01817
692.42,0.01601
669.275,0.01505
646.13,0.01568
622.985,0.01424
599.84,0.01355