File: 01_Data/Wool_Rug/FTIR/IS/Wool_Rug_IS_S_220826_R7.dpt
7497.03,0.57487
7473.89,0.55645
7450.74,0.55652
7427.6,0.56146
7404.45,0.56203
7381.31,0.56406
7358.16,0.55213
7335.02,0.55757
7311.87,0.54453
7288.73,0.53129
7265.58,0.53544
7242.44,0.53971
7219.29,0.53176
7196.15,0.51853
7173,0.51469
7149.86,0.50622
7126.71,0.49441
7103.57,0.49091
7080.42,0.48409
7057.28,0.47842
7034.13,0.47616
7010.99,0.46861
6987.84,0.46744
6964.7,0.45781
6941.55,0.46069
6918.41,0.45377
6895.26,0.45049
6872.12,0.43784
6848.97,0.43465
6825.83,0.43241
6802.68,0.42587
6779.54,0.41786
6756.39,0.40723
6733.25,0.38844
6710.1,0.37483
6686.96,0.36170
6663.82,0.36438
6640.67,0.36701
6617.53,0.36285
6594.38,0.37202
6571.24,0.37464
6548.09,0.37977
6524.95,0.38998
6501.8,0.39487
6478.66,0.39992
6455.51,0.40694
6432.37,0.41799
6409.22,0.42224
6386.08,0.42073
6362.93,0.42357
6339.79,0.42546
6316.64,0.43162
6293.5,0.43482
6270.35,0.43821
6247.21,0.44758
6224.06,0.45073
6200.92,0.45238
6177.77,0.46098
6154.63,0.46489
6131.48,0.46865
6108.34,0.47077
6085.19,0.47044
6062.05,0.47160
6038.9,0.46851
6015.76,0.46056
5992.61,0.45021
5969.47,0.42948
5946.32,0.40608
5923.18,0.38169
5900.03,0.37345
5876.89,0.37103
5853.74,0.37488
5830.6,0.37116
5807.45,0.35974
5784.31,0.34744
5761.16,0.34236
5738.02,0.34337
5714.87,0.35552
5691.73,0.37516
5668.58,0.39150
5645.44,0.40183
5622.29,0.41121
5599.15,0.41484
5576,0.41434
5552.86,0.41516
5529.71,0.41576
5506.57,0.41744
5483.42,0.41924
5460.28,0.42514
5437.13,0.43071
5413.99,0.43166
5390.84,0.43587
5367.7,0.43235
5344.55,0.42860
5321.41,0.41383
5298.26,0.38581
5275.12,0.34551
5251.97,0.30563
5228.83,0.27602
5205.68,0.25807
5182.54,0.24340
5159.39,0.23522
5136.25,0.23526
5113.1,0.23607
5089.96,0.23112
5066.81,0.22167
5043.67,0.22088
5020.52,0.22436
4997.38,0.22734
4974.23,0.22502
4951.09,0.21880
4927.94,0.20606
4904.8,0.19127
4881.65,0.17548
4858.51,0.17087
4835.36,0.18377
4812.22,0.20158
4789.07,0.21423
4765.93,0.21826
4742.78,0.21762
4719.64,0.21174
4696.49,0.20009
4673.35,0.18351
4650.2,0.16608
4627.06,0.15006
4603.92,0.14290
4580.77,0.14401
4557.63,0.15019
4534.48,0.15681
4511.34,0.16394
4488.19,0.17215
4465.05,0.17238
4441.9,0.16189
4418.76,0.14530
4395.61,0.13607
4372.47,0.13003
4349.32,0.13086
4326.18,0.13514
4303.03,0.14037
4279.89,0.13788
4256.74,0.13750
4233.6,0.14193
4210.45,0.14671
4187.31,0.14948
4164.16,0.15132
4141.02,0.15003
4117.87,0.14835
4094.73,0.13976
4071.58,0.13092
4048.44,0.12599
4025.29,0.12792
4002.15,0.12822
3979,0.12614
3955.86,0.12338
3932.71,0.12156
3909.57,0.12716
3886.42,0.13814
3863.28,0.14634
3840.13,0.15218
3816.99,0.15661
3793.84,0.15797
3770.7,0.15581
3747.55,0.14833
3724.41,0.13693
3701.26,0.11542
3678.12,0.07872
3654.97,0.05205
3631.83,0.03756
3608.68,0.03075
3585.54,0.02581
3562.39,0.02254
3539.25,0.02085
3516.1,0.01989
3492.96,0.01934
3469.81,0.01829
3446.67,0.01862
3423.52,0.01824
3400.38,0.01779
3377.23,0.01720
3354.09,0.01700
3330.94,0.01732
3307.8,0.01677
3284.65,0.01700
3261.51,0.01749
3238.36,0.01780
3215.22,0.01766
3192.07,0.01857
3168.93,0.01860
3145.78,0.01854
3122.64,0.01900
3099.49,0.01897
3076.35,0.01836
3053.2,0.01894
3030.06,0.01933
3006.91,0.01972
2983.77,0.01847
2960.62,0.01749
2937.48,0.01762
2914.33,0.01819
2891.19,0.01898
2868.04,0.01916
2844.9,0.02129
2821.75,0.02283
2798.61,0.02354
2775.46,0.02425
2752.32,0.02583
2729.17,0.02742
2706.03,0.02843
2682.88,0.03030
2659.74,0.03123
2636.59,0.03216
2613.45,0.03348
2590.3,0.03541
2567.16,0.03691
2544.02,0.03857
2520.87,0.04012
2497.73,0.04158
2474.58,0.04381
2451.44,0.04599
2428.29,0.04868
2405.15,0.05138
2382,0.05407
2358.86,0.05564
2335.71,0.05685
2312.57,0.05813
2289.42,0.05899
2266.28,0.06028
2243.13,0.05989
2219.99,0.06044
2196.84,0.06067
2173.7,0.06100
2150.55,0.06083
2127.41,0.06085
2104.26,0.06082
2081.12,0.06130
2057.97,0.06255
2034.83,0.06348
2011.68,0.06473
1988.54,0.06470
1965.39,0.06414
1942.25,0.06441
1919.1,0.06353
1895.96,0.06096
1872.81,0.05847
1849.67,0.05501
1826.52,0.04939
1803.38,0.04311
1780.23,0.03555
1757.09,0.02717
1733.94,0.01934
1710.8,0.01476
1687.65,0.01347
1664.51,0.01508
1641.36,0.01743
1618.22,0.01762
1595.07,0.01687
1571.93,0.01569
1548.78,0.01529
1525.64,0.01713
1502.49,0.01816
1479.35,0.01809
1456.2,0.01712
1433.06,0.01768
1409.91,0.01710
1386.77,0.01725
1363.62,0.01748
1340.48,0.01720
1317.33,0.01738
1294.19,0.01684
1271.04,0.01711
1247.9,0.01691
1224.75,0.01781
1201.61,0.01813
1178.46,0.01829
1155.32,0.01779
1132.17,0.01863
1109.03,0.01812
1085.88,0.01881
1062.74,0.01937
1039.59,0.01897
1016.45,0.02300
993.304,0.02457
970.159,0.02725
947.014,0.02709
923.869,0.02632
900.724,0.02646
877.579,0.02483
854.434,0.02450
831.289,0.02229
808.144,0.02162
784.999,0.02013
761.854,0.01808
738.709,0.01775
715.565,0.01695
692.42,0.01588
669.275,0.01618
646.13,0.01509
622.985,0.01356
599.84,0.01383