File: 01_Data/Wool_Rug/FTIR/IS/Wool_Rug_IS_S_220826_R2.dpt
7497.03,0.55505
7473.89,0.56676
7450.74,0.55284
7427.6,0.56161
7404.45,0.54629
7381.31,0.53575
7358.16,0.54491
7335.02,0.53188
7311.87,0.53625
7288.73,0.53527
7265.58,0.53129
7242.44,0.52143
7219.29,0.52499
7196.15,0.51443
7173,0.50040
7149.86,0.49279
7126.71,0.48541
7103.57,0.47018
7080.42,0.46139
7057.28,0.44873
7034.13,0.44508
7010.99,0.43480
6987.84,0.42940
6964.7,0.42789
6941.55,0.42274
6918.41,0.42001
6895.26,0.41759
6872.12,0.41271
6848.97,0.41073
6825.83,0.40018
6802.68,0.39805
6779.54,0.39406
6756.39,0.38581
6733.25,0.37103
6710.1,0.36430
6686.96,0.35671
6663.82,0.35465
6640.67,0.35857
6617.53,0.35763
6594.38,0.36305
6571.24,0.36637
6548.09,0.37108
6524.95,0.37643
6501.8,0.38329
6478.66,0.39188
6455.51,0.39682
6432.37,0.40497
6409.22,0.40611
6386.08,0.41142
6362.93,0.41046
6339.79,0.41580
6316.64,0.41671
6293.5,0.42157
6270.35,0.43172
6247.21,0.43474
6224.06,0.44073
6200.92,0.44378
6177.77,0.45268
6154.63,0.45353
6131.48,0.45604
6108.34,0.46211
6085.19,0.46277
6062.05,0.46324
6038.9,0.46024
6015.76,0.45334
5992.61,0.44645
5969.47,0.42472
5946.32,0.40310
5923.18,0.38123
5900.03,0.37036
5876.89,0.37028
5853.74,0.37537
5830.6,0.37012
5807.45,0.36099
5784.31,0.34864
5761.16,0.34420
5738.02,0.34496
5714.87,0.35555
5691.73,0.37271
5668.58,0.38471
5645.44,0.39479
5622.29,0.40363
5599.15,0.40404
5576,0.40650
5552.86,0.40454
5529.71,0.40723
5506.57,0.41161
5483.42,0.41183
5460.28,0.41636
5437.13,0.42126
5413.99,0.42386
5390.84,0.42627
5367.7,0.42269
5344.55,0.41192
5321.41,0.39440
5298.26,0.35418
5275.12,0.30466
5251.97,0.26151
5228.83,0.23045
5205.68,0.21034
5182.54,0.19861
5159.39,0.19261
5136.25,0.19321
5113.1,0.19759
5089.96,0.19815
5066.81,0.19603
5043.67,0.19963
5020.52,0.20348
4997.38,0.20967
4974.23,0.21149
4951.09,0.20858
4927.94,0.19971
4904.8,0.18622
4881.65,0.17384
4858.51,0.16874
4835.36,0.18051
4812.22,0.19768
4789.07,0.21066
4765.93,0.21480
4742.78,0.21425
4719.64,0.20956
4696.49,0.19994
4673.35,0.18404
4650.2,0.16754
4627.06,0.15227
4603.92,0.14552
4580.77,0.14606
4557.63,0.15118
4534.48,0.15855
4511.34,0.16587
4488.19,0.17287
4465.05,0.17432
4441.9,0.16324
4418.76,0.14670
4395.61,0.13745
4372.47,0.13311
4349.32,0.13347
4326.18,0.13754
4303.03,0.14230
4279.89,0.14060
4256.74,0.13851
4233.6,0.14242
4210.45,0.14690
4187.31,0.14878
4164.16,0.14920
4141.02,0.14756
4117.87,0.14461
4094.73,0.13615
4071.58,0.12614
4048.44,0.12148
4025.29,0.12291
4002.15,0.12319
3979,0.12164
3955.86,0.11916
3932.71,0.11817
3909.57,0.12405
3886.42,0.13369
3863.28,0.13975
3840.13,0.14417
3816.99,0.14573
3793.84,0.14535
3770.7,0.14067
3747.55,0.13214
3724.41,0.11949
3701.26,0.09632
3678.12,0.06249
3654.97,0.03987
3631.83,0.02922
3608.68,0.02481
3585.54,0.02245
3562.39,0.02026
3539.25,0.02031
3516.1,0.01941
3492.96,0.01812
3469.81,0.01906
3446.67,0.01928
3423.52,0.01687
3400.38,0.01725
3377.23,0.01783
3354.09,0.01714
3330.94,0.01741
3307.8,0.01700
3284.65,0.01720
3261.51,0.01687
3238.36,0.01792
3215.22,0.01789
3192.07,0.01879
3168.93,0.01858
3145.78,0.01833
3122.64,0.01970
3099.49,0.01825
3076.35,0.01879
3053.2,0.01948
3030.06,0.01882
3006.91,0.01945
2983.77,0.01880
2960.62,0.01794
2937.48,0.01780
2914.33,0.01825
2891.19,0.01965
2868.04,0.01929
2844.9,0.02088
2821.75,0.02296
2798.61,0.02363
2775.46,0.02456
2752.32,0.02579
2729.17,0.02762
2706.03,0.02923
2682.88,0.03076
2659.74,0.03194
2636.59,0.03249
2613.45,0.03425
2590.3,0.03604
2567.16,0.03791
2544.02,0.03954
2520.87,0.04120
2497.73,0.04274
2474.58,0.04498
2451.44,0.04798
2428.29,0.04997
2405.15,0.05243
2382,0.05469
2358.86,0.05650
2335.71,0.05741
2312.57,0.05772
2289.42,0.05796
2266.28,0.05836
2243.13,0.05788
2219.99,0.05740
2196.84,0.05735
2173.7,0.05683
2150.55,0.05670
2127.41,0.05614
2104.26,0.05606
2081.12,0.05669
2057.97,0.05825
2034.83,0.06009
2011.68,0.06143
1988.54,0.06265
1965.39,0.06253
1942.25,0.06329
1919.1,0.06253
1895.96,0.06033
1872.81,0.05794
1849.67,0.05478
1826.52,0.04935
1803.38,0.04313
1780.23,0.03625
1757.09,0.02779
1733.94,0.01978
1710.8,0.01507
1687.65,0.01336
1664.51,0.01511
1641.36,0.01742
1618.22,0.01792
1595.07,0.01703
1571.93,0.01597
1548.78,0.01580
1525.64,0.01728
1502.49,0.01825
1479.35,0.01832
1456.2,0.01767
1433.06,0.01758
1409.91,0.01722
1386.77,0.01692
1363.62,0.01782
1340.48,0.01766
1317.33,0.01706
1294.19,0.01741
1271.04,0.01732
1247.9,0.01725
1224.75,0.01766
1201.61,0.01798
1178.46,0.01828
1155.32,0.01877
1132.17,0.01923
1109.03,0.01899
1085.88,0.01890
1062.74,0.01936
1039.59,0.01972
1016.45,0.02330
993.304,0.02538
970.159,0.02687
947.014,0.02668
923.869,0.02554
900.724,0.02505
877.579,0.02424
854.434,0.02321
831.289,0.02068
808.144,0.02014
784.999,0.01892
761.854,0.01722
738.709,0.01714
715.565,0.01758
692.42,0.01591
669.275,0.01591
646.13,0.01521
622.985,0.01535
599.84,0.01465