File: 01_Data/Wool_Rug/FTIR/IS/Wool_Rug_IS_S_220826_R4.dpt
7497.03,0.55555
7473.89,0.56355
7450.74,0.55400
7427.6,0.55905
7404.45,0.55880
7381.31,0.54661
7358.16,0.54516
7335.02,0.54486
7311.87,0.54135
7288.73,0.53144
7265.58,0.52985
7242.44,0.52241
7219.29,0.53431
7196.15,0.51984
7173,0.51491
7149.86,0.50390
7126.71,0.49951
7103.57,0.47981
7080.42,0.47175
7057.28,0.46243
7034.13,0.45782
7010.99,0.45248
6987.84,0.44781
6964.7,0.45001
6941.55,0.44301
6918.41,0.43487
6895.26,0.43174
6872.12,0.42846
6848.97,0.42107
6825.83,0.42037
6802.68,0.41622
6779.54,0.40745
6756.39,0.39841
6733.25,0.38346
6710.1,0.37372
6686.96,0.36566
6663.82,0.36112
6640.67,0.36521
6617.53,0.35865
6594.38,0.36723
6571.24,0.36806
6548.09,0.37329
6524.95,0.38041
6501.8,0.39038
6478.66,0.39985
6455.51,0.40206
6432.37,0.41261
6409.22,0.41590
6386.08,0.42057
6362.93,0.41758
6339.79,0.42217
6316.64,0.42436
6293.5,0.42812
6270.35,0.43663
6247.21,0.44246
6224.06,0.44623
6200.92,0.45520
6177.77,0.45825
6154.63,0.45846
6131.48,0.46141
6108.34,0.46848
6085.19,0.46975
6062.05,0.46923
6038.9,0.46583
6015.76,0.45896
5992.61,0.44845
5969.47,0.42849
5946.32,0.40386
5923.18,0.38321
5900.03,0.37286
5876.89,0.37156
5853.74,0.37324
5830.6,0.37132
5807.45,0.36011
5784.31,0.35058
5761.16,0.34225
5738.02,0.34521
5714.87,0.35560
5691.73,0.37396
5668.58,0.38520
5645.44,0.40015
5622.29,0.40873
5599.15,0.41133
5576,0.41281
5552.86,0.41113
5529.71,0.41213
5506.57,0.41454
5483.42,0.41663
5460.28,0.41993
5437.13,0.42746
5413.99,0.43103
5390.84,0.43163
5367.7,0.42895
5344.55,0.42157
5321.41,0.40367
5298.26,0.37011
5275.12,0.32389
5251.97,0.28326
5228.83,0.25236
5205.68,0.23313
5182.54,0.21930
5159.39,0.21467
5136.25,0.21433
5113.1,0.21687
5089.96,0.21399
5066.81,0.20982
5043.67,0.21047
5020.52,0.21488
4997.38,0.21898
4974.23,0.21962
4951.09,0.21454
4927.94,0.20443
4904.8,0.19085
4881.65,0.17602
4858.51,0.17195
4835.36,0.18419
4812.22,0.20203
4789.07,0.21219
4765.93,0.21840
4742.78,0.21823
4719.64,0.21192
4696.49,0.20196
4673.35,0.18450
4650.2,0.16824
4627.06,0.15241
4603.92,0.14582
4580.77,0.14644
4557.63,0.15146
4534.48,0.15831
4511.34,0.16717
4488.19,0.17441
4465.05,0.17434
4441.9,0.16361
4418.76,0.14710
4395.61,0.13787
4372.47,0.13209
4349.32,0.13221
4326.18,0.13683
4303.03,0.14235
4279.89,0.14049
4256.74,0.13895
4233.6,0.14245
4210.45,0.14752
4187.31,0.14930
4164.16,0.15159
4141.02,0.15049
4117.87,0.14778
4094.73,0.13931
4071.58,0.12950
4048.44,0.12463
4025.29,0.12640
4002.15,0.12694
3979,0.12454
3955.86,0.12273
3932.71,0.12113
3909.57,0.12635
3886.42,0.13634
3863.28,0.14348
3840.13,0.14936
3816.99,0.15137
3793.84,0.15254
3770.7,0.14931
3747.55,0.14173
3724.41,0.12884
3701.26,0.10565
3678.12,0.07047
3654.97,0.04524
3631.83,0.03307
3608.68,0.02711
3585.54,0.02318
3562.39,0.02160
3539.25,0.02005
3516.1,0.01999
3492.96,0.01869
3469.81,0.01779
3446.67,0.01839
3423.52,0.01859
3400.38,0.01753
3377.23,0.01753
3354.09,0.01759
3330.94,0.01834
3307.8,0.01708
3284.65,0.01796
3261.51,0.01776
3238.36,0.01830
3215.22,0.01890
3192.07,0.01834
3168.93,0.01901
3145.78,0.01864
3122.64,0.01909
3099.49,0.01912
3076.35,0.01953
3053.2,0.01860
3030.06,0.01968
3006.91,0.01900
2983.77,0.01890
2960.62,0.01708
2937.48,0.01779
2914.33,0.01846
2891.19,0.01938
2868.04,0.01912
2844.9,0.02078
2821.75,0.02231
2798.61,0.02363
2775.46,0.02448
2752.32,0.02530
2729.17,0.02748
2706.03,0.02872
2682.88,0.03013
2659.74,0.03164
2636.59,0.03261
2613.45,0.03398
2590.3,0.03599
2567.16,0.03749
2544.02,0.03958
2520.87,0.04091
2497.73,0.04261
2474.58,0.04478
2451.44,0.04688
2428.29,0.04968
2405.15,0.05250
2382,0.05489
2358.86,0.05663
2335.71,0.05755
2312.57,0.05819
2289.42,0.05928
2266.28,0.05983
2243.13,0.05954
2219.99,0.05942
2196.84,0.05950
2173.7,0.05949
2150.55,0.05930
2127.41,0.05896
2104.26,0.05880
2081.12,0.05982
2057.97,0.06129
2034.83,0.06249
2011.68,0.06389
1988.54,0.06401
1965.39,0.06432
1942.25,0.06399
1919.1,0.06359
1895.96,0.06111
1872.81,0.05863
1849.67,0.05551
1826.52,0.05011
1803.38,0.04352
1780.23,0.03608
1757.09,0.02783
1733.94,0.02009
1710.8,0.01475
1687.65,0.01324
1664.51,0.01475
1641.36,0.01727
1618.22,0.01780
1595.07,0.01700
1571.93,0.01627
1548.78,0.01582
1525.64,0.01787
1502.49,0.01828
1479.35,0.01818
1456.2,0.01750
1433.06,0.01785
1409.91,0.01737
1386.77,0.01705
1363.62,0.01782
1340.48,0.01742
1317.33,0.01708
1294.19,0.01700
1271.04,0.01705
1247.9,0.01725
1224.75,0.01807
1201.61,0.01806
1178.46,0.01781
1155.32,0.01894
1132.17,0.01878
1109.03,0.01885
1085.88,0.01870
1062.74,0.01929
1039.59,0.01907
1016.45,0.02287
993.304,0.02557
970.159,0.02706
947.014,0.02764
923.869,0.02564
900.724,0.02610
877.579,0.02491
854.434,0.02424
831.289,0.02152
808.144,0.02074
784.999,0.01949
761.854,0.01929
738.709,0.01775
715.565,0.01540
692.42,0.01728
669.275,0.01619
646.13,0.01534
622.985,0.01437
599.84,0.01545