File: 01_Data/Wool_Rug/FTIR/IS/Wool_Rug_IS_S_220826_R3.dpt
7497.03,0.55096
7473.89,0.57674
7450.74,0.55217
7427.6,0.55886
7404.45,0.54974
7381.31,0.54218
7358.16,0.54249
7335.02,0.53897
7311.87,0.54363
7288.73,0.53333
7265.58,0.53764
7242.44,0.52402
7219.29,0.52525
7196.15,0.51076
7173,0.49963
7149.86,0.49875
7126.71,0.48348
7103.57,0.47734
7080.42,0.46888
7057.28,0.46089
7034.13,0.45307
7010.99,0.44035
6987.84,0.43689
6964.7,0.43676
6941.55,0.43982
6918.41,0.42460
6895.26,0.43084
6872.12,0.41796
6848.97,0.41700
6825.83,0.41165
6802.68,0.40843
6779.54,0.39936
6756.39,0.39352
6733.25,0.38139
6710.1,0.37041
6686.96,0.36261
6663.82,0.36310
6640.67,0.36432
6617.53,0.36274
6594.38,0.36294
6571.24,0.37481
6548.09,0.37365
6524.95,0.38324
6501.8,0.38532
6478.66,0.39582
6455.51,0.40292
6432.37,0.40972
6409.22,0.41657
6386.08,0.41612
6362.93,0.41568
6339.79,0.42343
6316.64,0.42451
6293.5,0.42562
6270.35,0.43475
6247.21,0.43752
6224.06,0.44726
6200.92,0.45005
6177.77,0.45451
6154.63,0.46033
6131.48,0.46208
6108.34,0.46351
6085.19,0.46747
6062.05,0.46691
6038.9,0.46249
6015.76,0.45919
5992.61,0.44859
5969.47,0.42607
5946.32,0.40507
5923.18,0.38219
5900.03,0.37141
5876.89,0.37125
5853.74,0.37481
5830.6,0.37227
5807.45,0.36259
5784.31,0.34963
5761.16,0.34141
5738.02,0.34641
5714.87,0.35656
5691.73,0.37339
5668.58,0.38746
5645.44,0.39821
5622.29,0.40602
5599.15,0.40850
5576,0.40721
5552.86,0.41027
5529.71,0.41100
5506.57,0.41354
5483.42,0.41666
5460.28,0.41964
5437.13,0.42626
5413.99,0.42871
5390.84,0.43144
5367.7,0.42643
5344.55,0.41734
5321.41,0.39960
5298.26,0.36380
5275.12,0.31509
5251.97,0.27373
5228.83,0.24375
5205.68,0.22398
5182.54,0.21059
5159.39,0.20578
5136.25,0.20594
5113.1,0.20780
5089.96,0.20788
5066.81,0.20463
5043.67,0.20555
5020.52,0.21079
4997.38,0.21569
4974.23,0.21706
4951.09,0.21264
4927.94,0.20296
4904.8,0.18899
4881.65,0.17643
4858.51,0.17154
4835.36,0.18221
4812.22,0.20014
4789.07,0.21309
4765.93,0.21829
4742.78,0.21763
4719.64,0.21129
4696.49,0.20195
4673.35,0.18418
4650.2,0.16891
4627.06,0.15294
4603.92,0.14645
4580.77,0.14673
4557.63,0.15170
4534.48,0.15878
4511.34,0.16666
4488.19,0.17426
4465.05,0.17502
4441.9,0.16359
4418.76,0.14714
4395.61,0.13856
4372.47,0.13322
4349.32,0.13354
4326.18,0.13725
4303.03,0.14180
4279.89,0.14107
4256.74,0.13903
4233.6,0.14341
4210.45,0.14765
4187.31,0.15042
4164.16,0.15178
4141.02,0.14915
4117.87,0.14666
4094.73,0.13816
4071.58,0.12862
4048.44,0.12410
4025.29,0.12563
4002.15,0.12509
3979,0.12380
3955.86,0.12111
3932.71,0.12096
3909.57,0.12611
3886.42,0.13549
3863.28,0.14306
3840.13,0.14791
3816.99,0.14981
3793.84,0.14915
3770.7,0.14630
3747.55,0.13757
3724.41,0.12513
3701.26,0.10221
3678.12,0.06741
3654.97,0.04252
3631.83,0.03178
3608.68,0.02545
3585.54,0.02267
3562.39,0.02025
3539.25,0.02038
3516.1,0.01995
3492.96,0.01871
3469.81,0.01844
3446.67,0.01760
3423.52,0.01802
3400.38,0.01754
3377.23,0.01734
3354.09,0.01719
3330.94,0.01732
3307.8,0.01640
3284.65,0.01696
3261.51,0.01858
3238.36,0.01813
3215.22,0.01840
3192.07,0.01860
3168.93,0.01836
3145.78,0.01849
3122.64,0.01855
3099.49,0.01888
3076.35,0.01884
3053.2,0.01906
3030.06,0.01950
3006.91,0.01904
2983.77,0.01860
2960.62,0.01786
2937.48,0.01768
2914.33,0.01874
2891.19,0.01954
2868.04,0.01936
2844.9,0.02116
2821.75,0.02319
2798.61,0.02317
2775.46,0.02465
2752.32,0.02591
2729.17,0.02743
2706.03,0.02935
2682.88,0.03058
2659.74,0.03211
2636.59,0.03283
2613.45,0.03447
2590.3,0.03627
2567.16,0.03789
2544.02,0.03958
2520.87,0.04127
2497.73,0.04261
2474.58,0.04471
2451.44,0.04730
2428.29,0.04992
2405.15,0.05236
2382,0.05505
2358.86,0.05684
2335.71,0.05763
2312.57,0.05873
2289.42,0.05939
2266.28,0.05923
2243.13,0.05918
2219.99,0.05900
2196.84,0.05880
2173.7,0.05837
2150.55,0.05841
2127.41,0.05777
2104.26,0.05810
2081.12,0.05876
2057.97,0.06022
2034.83,0.06157
2011.68,0.06311
1988.54,0.06384
1965.39,0.06396
1942.25,0.06402
1919.1,0.06335
1895.96,0.06092
1872.81,0.05868
1849.67,0.05535
1826.52,0.05002
1803.38,0.04363
1780.23,0.03608
1757.09,0.02791
1733.94,0.02016
1710.8,0.01504
1687.65,0.01363
1664.51,0.01456
1641.36,0.01725
1618.22,0.01807
1595.07,0.01678
1571.93,0.01608
1548.78,0.01597
1525.64,0.01746
1502.49,0.01848
1479.35,0.01833
1456.2,0.01716
1433.06,0.01771
1409.91,0.01713
1386.77,0.01698
1363.62,0.01751
1340.48,0.01746
1317.33,0.01729
1294.19,0.01747
1271.04,0.01722
1247.9,0.01700
1224.75,0.01769
1201.61,0.01829
1178.46,0.01854
1155.32,0.01867
1132.17,0.01845
1109.03,0.01838
1085.88,0.01830
1062.74,0.01956
1039.59,0.02028
1016.45,0.02283
993.304,0.02629
970.159,0.02711
947.014,0.02785
923.869,0.02564
900.724,0.02630
877.579,0.02492
854.434,0.02372
831.289,0.02125
808.144,0.02134
784.999,0.02001
761.854,0.01915
738.709,0.01809
715.565,0.01691
692.42,0.01620
669.275,0.01632
646.13,0.01525
622.985,0.01442
599.84,0.01505