File: 01_Data/Vinyl_Siding/Cone/Vinyl_Siding_HRRPUA_75.csv
Time after Ignition,Vinyl_Siding_R1,Vinyl_Siding_R2,Vinyl_Siding_R3,Mean,Std. Dev.
0.0,95.7,118.7,103.9,106.1,11.7
0.5,113.5,145.1,136.6,131.7,16.3
1.0,146.0,173.7,167.3,162.3,14.5
1.5,173.6,194.8,196.9,188.4,12.9
2.0,203.5,214.6,222.8,213.6,9.7
2.5,220.7,227.7,244.7,231.0,12.3
3.0,240.7,240.9,259.4,247.0,10.7
3.5,258.8,253.7,276.5,263.0,11.9
4.0,270.1,263.5,282.3,272.0,9.5
4.5,279.5,272.8,303.0,285.1,15.8
5.0,279.3,276.2,304.6,286.7,15.6
5.5,294.5,276.4,307.6,292.8,15.7
6.0,299.5,277.1,314.2,296.9,18.7
6.5,298.3,272.8,315.4,295.5,21.5
7.0,305.3,269.3,311.9,295.5,23.0
7.5,303.5,263.4,312.7,293.2,26.2
8.0,300.9,264.6,310.1,291.9,24.1
8.5,296.6,256.5,302.6,285.2,25.1
9.0,291.5,250.3,308.3,283.3,29.8
9.5,281.3,247.3,304.5,277.7,28.8
10.0,275.6,241.6,295.6,270.9,27.3
10.5,265.7,236.9,306.1,269.6,34.8
11.0,261.2,233.1,296.3,263.5,31.7
11.5,254.0,227.7,293.1,258.2,32.9
12.0,242.8,223.6,290.5,252.3,34.4
12.5,243.5,212.6,283.5,246.5,35.5
13.0,235.8,214.9,284.0,244.9,35.5
13.5,232.2,207.6,278.0,239.3,35.7
14.0,225.0,202.9,273.2,233.7,36.0
14.5,223.3,197.9,269.1,230.1,36.1
15.0,216.5,197.3,266.0,226.6,35.5
15.5,212.0,191.5,259.9,221.1,35.1
16.0,207.5,192.2,262.6,220.8,37.1
16.5,202.8,186.6,259.1,216.2,38.1
17.0,205.1,182.7,249.4,212.4,34.0
17.5,198.7,182.3,249.7,210.2,35.1
18.0,199.5,178.2,245.2,207.6,34.2
18.5,196.5,177.2,243.2,205.7,33.9
19.0,189.8,174.7,244.0,202.8,36.5
19.5,187.9,170.2,236.7,198.3,34.4
20.0,186.1,171.1,232.8,196.7,32.2
20.5,186.0,169.6,231.1,195.6,31.8
21.0,187.3,168.2,225.2,193.6,29.0
21.5,186.0,167.6,221.5,191.7,27.4
22.0,183.3,167.3,214.6,188.4,24.0
22.5,182.5,165.3,215.5,187.8,25.5
23.0,181.2,164.6,208.8,184.9,22.3
23.5,179.6,163.5,207.7,183.6,22.4
24.0,180.5,161.8,203.5,182.0,20.9
24.5,176.6,160.6,200.1,179.1,19.9
25.0,175.8,156.5,196.7,176.3,20.1
25.5,175.0,159.4,189.7,174.7,15.2
26.0,172.8,152.3,191.8,172.3,19.7
26.5,175.0,152.9,185.7,171.2,16.8
27.0,172.0,149.0,180.7,167.2,16.4
27.5,171.1,149.7,180.5,167.1,15.8
28.0,169.3,148.2,176.3,164.6,14.6
28.5,168.9,144.2,174.9,162.7,16.3
29.0,167.4,143.8,172.5,161.2,15.3
29.5,164.3,139.9,168.7,157.6,15.5
30.0,166.3,139.5,167.0,157.6,15.7
30.5,162.0,136.4,164.3,154.2,15.5
31.0,159.6,135.5,165.3,153.4,15.8
31.5,160.4,134.1,161.4,152.0,15.5
32.0,159.8,130.9,160.7,150.4,17.0
32.5,158.9,129.7,159.4,149.3,17.0
33.0,156.4,130.2,159.8,148.8,16.2
33.5,154.5,127.2,155.1,145.6,16.0
34.0,154.6,127.5,155.3,145.8,15.8
34.5,152.4,125.0,152.4,143.3,15.8
35.0,151.0,124.0,153.1,142.7,16.2
35.5,150.4,122.7,149.4,140.8,15.7
36.0,149.1,121.4,151.8,140.8,16.8
36.5,152.5,119.2,149.8,140.5,18.5
37.0,150.5,121.3,147.7,139.8,16.1
37.5,148.0,119.7,145.0,137.6,15.6
38.0,146.2,119.6,144.2,136.7,14.8
38.5,144.8,116.6,140.2,133.9,15.1
39.0,143.5,115.1,140.2,132.9,15.5
39.5,140.8,114.1,140.5,131.8,15.3
40.0,138.6,113.9,138.0,130.1,14.1
40.5,136.2,110.6,134.3,127.0,14.3
41.0,136.3,112.4,136.2,128.3,13.8
41.5,134.2,111.3,133.2,126.2,12.9
42.0,133.6,112.1,131.9,125.9,12.0
42.5,129.7,108.2,130.5,122.8,12.6
43.0,128.8,109.1,129.1,122.4,11.5
43.5,127.5,107.5,127.6,120.9,11.6
44.0,125.4,106.6,125.2,119.1,10.8
44.5,124.5,107.0,122.9,118.1,9.6
45.0,120.4,107.2,123.0,116.8,8.5
45.5,118.6,107.3,119.3,115.1,6.7
46.0,115.4,106.7,119.7,114.0,6.7
46.5,114.0,106.1,119.1,113.0,6.5
47.0,110.0,103.6,116.4,110.0,6.4
47.5,109.6,103.6,114.9,109.4,5.7
48.0,105.9,101.6,113.7,107.1,6.1
48.5,104.3,99.9,113.9,106.0,7.1
49.0,100.8,101.2,113.6,105.2,7.3
49.5,100.8,99.1,110.9,103.6,6.4
50.0,99.2,99.2,110.3,102.9,6.4
50.5,97.7,98.4,109.3,101.8,6.5
51.0,94.8,96.8,108.0,99.9,7.1
51.5,94.9,95.6,108.9,99.8,7.9
52.0,92.7,95.1,107.2,98.3,7.8
52.5,89.9,96.4,108.7,98.3,9.6
53.0,89.0,93.3,108.3,96.9,10.1
53.5,87.9,95.1,107.7,96.9,10.1
54.0,86.5,93.6,105.3,95.1,9.5
54.5,84.0,93.0,105.9,94.3,11.0
55.0,81.2,91.8,105.6,92.8,12.3
55.5,80.6,90.7,104.9,92.1,12.2
56.0,78.5,88.9,103.1,90.2,12.3
56.5,77.3,89.9,102.2,89.8,12.5
57.0,78.3,90.6,102.8,90.6,12.2
57.5,77.2,90.8,101.6,89.8,12.2
58.0,74.8,87.6,102.0,88.1,13.6
58.5,73.2,87.4,99.7,86.8,13.3
59.0,72.4,87.0,99.9,86.4,13.8
59.5,70.9,86.9,97.0,84.9,13.2
60.0,70.0,86.0,97.3,84.4,13.7
60.5,68.9,85.2,94.8,83.0,13.1
61.0,67.9,84.1,92.9,81.6,12.7
61.5,66.8,83.3,89.6,79.9,11.8
62.0,65.9,82.6,87.9,78.8,11.5
62.5,64.2,82.6,87.8,78.2,12.4
63.0,62.9,82.2,85.1,76.7,12.1
63.5,62.3,82.9,85.1,76.8,12.6
64.0,61.7,82.6,82.9,75.7,12.2
64.5,60.6,83.0,81.1,74.9,12.4
65.0,60.2,81.2,79.0,73.5,11.5
65.5,58.0,83.3,78.0,73.1,13.3
66.0,58.0,81.4,76.4,71.9,12.3
66.5,57.8,81.3,76.0,71.7,12.3
67.0,56.8,82.5,75.1,71.5,13.2
67.5,55.7,81.5,72.6,69.9,13.1
68.0,54.5,80.5,70.4,68.5,13.1
68.5,53.6,80.6,68.4,67.5,13.5
69.0,53.3,81.9,66.3,67.2,14.3
69.5,52.2,80.2,64.1,65.5,14.0
70.0,51.3,80.4,62.6,64.8,14.7
70.5,49.7,80.5,59.6,63.3,15.7
71.0,49.2,79.6,58.7,62.5,15.6
71.5,48.7,79.5,56.0,61.4,16.1
72.0,48.7,79.3,55.6,61.2,16.1
72.5,47.1,79.7,54.1,60.3,17.1
73.0,46.7,77.8,52.5,59.0,16.5
73.5,46.1,77.5,51.1,58.2,16.9
74.0,46.5,77.6,50.1,58.0,17.0
74.5,46.1,77.3,48.2,57.2,17.4
75.0,46.1,75.3,47.3,56.2,16.5
75.5,44.4,74.8,46.3,55.2,17.0
76.0,44.4,75.8,44.1,54.8,18.2
76.5,43.2,73.1,43.3,53.2,17.2
77.0,42.1,75.0,42.1,53.1,19.0
77.5,42.5,72.4,41.1,52.0,17.7
78.0,41.9,73.3,40.2,51.8,18.7
78.5,40.8,72.9,39.5,51.0,18.9
79.0,40.3,71.9,,56.1,22.3
79.5,40.0,71.8,,55.9,22.5
80.0,39.3,70.8,,55.0,22.3
80.5,39.1,70.2,,54.7,22.0
81.0,38.6,69.4,,54.0,21.8
81.5,38.0,68.8,,53.4,21.7
82.0,37.7,68.9,,53.3,22.0
82.5,36.3,68.8,,52.5,23.0
83.0,36.6,68.4,,52.5,22.5
83.25,36.4,67.6,,52.0,22.0