File: 01_Data/Vinyl_Siding/Cone/Vinyl_Siding_HRRPUA_25.csv
Time after Ignition,Vinyl_Siding_R1,Vinyl_Siding_R2,Vinyl_Siding_R3,Mean,Std. Dev.
0.0,13.9,10.0,21.8,15.2,6.0
0.5,15.4,13.9,34.5,21.3,11.5
1.0,16.9,18.9,44.5,26.8,15.4
1.5,17.7,25.2,56.3,33.1,20.5
2.0,20.3,30.1,70.0,40.2,26.3
2.5,22.5,38.5,80.7,47.2,30.1
3.0,26.7,45.6,98.0,56.8,36.9
3.5,30.3,50.6,111.4,64.1,42.2
4.0,32.5,61.4,128.5,74.1,49.2
4.5,40.5,67.9,141.1,83.2,52.0
5.0,42.5,82.8,155.4,93.6,57.2
5.5,49.0,92.6,169.9,103.8,61.2
6.0,54.8,107.0,183.1,115.0,64.5
6.5,60.9,122.0,195.9,126.3,67.6
7.0,67.6,131.5,202.5,133.9,67.5
7.5,74.2,142.4,209.4,142.0,67.6
8.0,84.0,150.2,215.6,150.0,65.8
8.5,90.2,158.7,223.9,157.6,66.8
9.0,93.2,169.5,227.2,163.3,67.2
9.5,98.5,171.8,225.3,165.2,63.7
10.0,106.4,176.5,234.4,172.4,64.1
10.5,112.4,182.0,231.8,175.4,60.0
11.0,119.4,184.8,233.5,179.2,57.3
11.5,121.4,187.3,231.5,180.1,55.4
12.0,129.5,187.6,231.4,182.8,51.1
12.5,134.6,186.9,226.9,182.8,46.3
13.0,136.0,190.0,228.3,184.8,46.4
13.5,140.8,194.6,223.8,186.4,42.1
14.0,142.8,192.7,217.8,184.5,38.2
14.5,147.2,189.8,211.9,183.0,32.9
15.0,148.6,194.2,210.2,184.4,31.9
15.5,148.5,189.1,203.5,180.3,28.5
16.0,150.0,186.6,201.2,179.3,26.4
16.5,150.9,182.7,195.5,176.4,23.0
17.0,150.9,181.7,194.3,175.6,22.3
17.5,150.2,179.4,188.9,172.8,20.2
18.0,148.3,179.2,185.1,170.9,19.8
18.5,148.7,174.9,181.5,168.4,17.3
19.0,149.1,173.7,176.4,166.4,15.1
19.5,148.7,169.6,170.6,163.0,12.4
20.0,148.4,165.8,166.0,160.0,10.1
20.5,147.2,162.4,160.4,156.7,8.3
21.0,143.8,160.4,155.6,153.3,8.6
21.5,144.6,159.3,150.0,151.3,7.4
22.0,143.4,155.4,146.3,148.4,6.3
22.5,142.5,155.1,142.5,146.7,7.3
23.0,142.9,156.0,138.5,145.8,9.1
23.5,142.9,150.5,134.9,142.8,7.8
24.0,139.1,149.6,133.3,140.7,8.3
24.5,140.3,148.1,129.3,139.2,9.4
25.0,137.5,146.5,126.3,136.8,10.1
25.5,140.3,143.1,125.1,136.2,9.7
26.0,136.2,145.2,119.2,133.5,13.2
26.5,133.1,143.6,118.9,131.9,12.4
27.0,131.1,139.4,115.9,128.8,11.9
27.5,131.6,140.3,112.2,128.0,14.4
28.0,131.5,135.4,111.3,126.1,12.9
28.5,132.2,135.0,109.4,125.5,14.1
29.0,131.8,132.5,105.7,123.3,15.3
29.5,129.0,128.8,104.3,120.7,14.2
30.0,129.8,128.1,102.9,120.3,15.1
30.5,128.3,125.4,101.5,118.4,14.7
31.0,127.0,121.6,99.2,115.9,14.7
31.5,126.0,116.9,97.3,113.4,14.7
32.0,126.5,115.8,95.7,112.6,15.6
32.5,122.6,114.5,90.8,109.3,16.5
33.0,124.3,112.1,88.7,108.4,18.1
33.5,121.2,111.2,84.5,105.6,19.0
34.0,121.7,108.9,83.7,104.8,19.4
34.5,122.4,105.5,79.8,102.6,21.5
35.0,119.7,102.2,76.8,99.5,21.6
35.5,118.7,98.4,73.4,96.8,22.7
36.0,118.2,97.5,70.7,95.5,23.8
36.5,118.8,92.3,67.9,93.0,25.4
37.0,118.3,89.7,65.9,91.3,26.3
37.5,118.3,85.6,62.9,88.9,27.8
38.0,118.0,83.8,60.6,87.5,28.9
38.5,116.5,79.5,58.9,85.0,29.2
39.0,118.9,77.4,57.4,84.5,31.4
39.5,117.8,73.2,54.6,81.9,32.5
40.0,117.2,70.7,51.9,79.9,33.6
40.5,118.2,67.2,50.1,78.5,35.4
41.0,118.8,66.2,47.7,77.6,36.9
41.5,119.4,61.9,46.0,75.8,38.6
42.0,118.9,59.2,43.8,74.0,39.7
42.5,119.8,56.1,41.4,72.4,41.6
43.0,120.4,54.0,40.4,71.6,42.8
43.5,119.3,50.9,38.6,69.6,43.5
44.0,120.1,48.7,37.8,68.8,44.7
44.5,122.6,46.2,35.6,68.1,47.4
45.0,121.8,45.5,34.6,67.3,47.5
45.5,122.6,42.4,32.7,65.9,49.3
46.0,121.6,41.2,31.0,64.6,49.6
46.5,122.0,38.8,29.9,63.6,50.8
47.0,123.3,37.4,28.5,63.1,52.4
47.5,123.3,34.6,26.6,61.5,53.6
48.0,124.7,33.5,25.0,61.1,55.3
48.5,123.1,31.1,24.0,59.4,55.3
49.0,123.7,29.8,22.6,58.7,56.4
49.5,121.6,27.9,21.3,56.9,56.1
50.0,118.9,25.9,19.9,54.9,55.5
50.5,118.6,24.3,19.2,54.0,56.0
51.0,118.2,23.0,18.1,53.1,56.4
51.5,117.3,21.5,17.2,52.0,56.6
52.0,117.1,19.4,16.2,50.9,57.4
52.5,115.4,18.5,15.7,49.9,56.8
53.0,112.7,16.9,14.7,48.1,55.9
53.5,111.0,16.0,14.4,47.1,55.3
54.0,111.5,15.0,,63.2,68.2
54.5,106.8,13.9,,60.3,65.6
55.0,105.1,13.3,,59.2,64.9
55.5,100.2,12.4,,56.3,62.1
56.0,95.2,11.7,,53.5,59.1
56.5,93.6,11.0,,52.3,58.4
57.0,89.7,10.1,,49.9,56.2
57.5,88.1,9.6,,48.9,55.5
58.0,86.2,9.4,,47.8,54.3
58.5,83.1,9.5,,46.3,52.1
59.0,80.4,9.3,,44.9,50.3
59.5,78.6,9.3,,44.0,49.0
60.0,76.4,,,76.4,
60.5,74.3,,,74.3,
61.0,72.4,,,72.4,
61.5,69.2,,,69.2,
62.0,67.8,,,67.8,
62.5,64.9,,,64.9,
63.0,62.6,,,62.6,
63.5,59.9,,,59.9,
64.0,59.2,,,59.2,
64.5,56.1,,,56.1,
65.0,54.7,,,54.7,
65.5,52.3,,,52.3,
66.0,50.4,,,50.4,
66.5,49.0,,,49.0,
67.0,47.5,,,47.5,
67.5,45.2,,,45.2,
68.0,43.1,,,43.1,
68.5,41.1,,,41.1,
69.0,39.2,,,39.2,
69.5,37.3,,,37.3,
70.0,36.3,,,36.3,
70.5,34.3,,,34.3,
71.0,32.7,,,32.7,
71.5,31.8,,,31.8,
72.0,31.0,,,31.0,
72.5,29.7,,,29.7,
73.0,29.1,,,29.1,
73.5,28.2,,,28.2,
74.0,27.3,,,27.3,
74.5,26.5,,,26.5,
75.0,26.0,,,26.0,
75.5,25.4,,,25.4,
76.0,24.8,,,24.8,
76.5,24.2,,,24.2,
77.0,23.6,,,23.6,
77.5,23.2,,,23.2,
78.0,22.5,,,22.5,
78.5,21.6,,,21.6,
79.0,20.5,,,20.5,
79.5,20.2,,,20.2,
80.0,19.9,,,19.9,
80.5,19.0,,,19.0,
81.0,18.6,,,18.6,
81.5,18.2,,,18.2,
82.0,17.4,,,17.4,
82.5,16.7,,,16.7,
83.0,16.0,,,16.0,
83.5,15.5,,,15.5,
83.75,15.2,,,15.2,