File: 01_Data/Vinyl_Siding/Cone/Vinyl_Siding_HRRPUA_50.csv
Time after Ignition,Vinyl_Siding_R1,Vinyl_Siding_R2,Vinyl_Siding_R3,Mean,Std. Dev.
0.0,88.1,67.5,41.2,65.6,23.5
0.5,97.4,81.7,52.7,77.3,22.7
1.0,106.1,88.8,66.5,87.2,19.9
1.5,114.3,98.8,83.9,99.0,15.2
2.0,125.9,114.3,98.6,113.0,13.7
2.5,137.8,126.8,114.8,126.4,11.5
3.0,150.8,137.9,126.1,138.2,12.4
3.5,160.0,150.6,142.5,151.0,8.8
4.0,170.7,161.1,152.7,161.5,9.0
4.5,181.1,169.8,162.8,171.2,9.3
5.0,190.2,178.5,169.6,179.4,10.4
5.5,197.9,183.4,182.8,188.0,8.5
6.0,206.0,194.8,187.3,196.0,9.4
6.5,215.8,192.3,196.8,201.6,12.5
7.0,215.2,200.3,198.0,204.5,9.3
7.5,223.5,206.7,202.7,210.9,11.1
8.0,224.2,207.1,204.7,212.0,10.7
8.5,224.7,215.7,209.7,216.7,7.5
9.0,232.6,222.9,216.3,223.9,8.2
9.5,235.3,225.5,216.3,225.7,9.5
10.0,235.9,234.6,212.2,227.6,13.3
10.5,237.2,240.5,212.1,229.9,15.5
11.0,238.1,243.8,210.0,230.6,18.1
11.5,241.2,249.5,213.3,234.7,19.0
12.0,239.7,258.8,213.0,237.2,23.0
12.5,238.3,254.9,214.5,235.9,20.3
13.0,239.2,263.0,214.6,238.9,24.2
13.5,234.3,262.0,208.9,235.1,26.6
14.0,231.5,269.4,207.1,236.0,31.4
14.5,227.6,270.9,205.9,234.8,33.1
15.0,232.2,269.0,203.7,235.0,32.7
15.5,232.1,270.8,203.3,235.4,33.9
16.0,229.4,272.2,203.2,235.0,34.8
16.5,225.2,269.3,195.3,229.9,37.2
17.0,218.0,270.9,194.8,227.9,39.0
17.5,221.1,264.6,190.5,225.4,37.3
18.0,214.5,263.8,188.3,222.2,38.4
18.5,210.8,262.0,187.5,220.1,38.1
19.0,204.3,257.2,178.3,213.3,40.2
19.5,201.4,252.9,181.2,211.8,37.0
20.0,194.1,248.7,178.6,207.1,36.8
20.5,198.3,247.4,172.9,206.2,37.9
21.0,192.2,240.8,171.2,201.4,35.7
21.5,189.7,235.5,164.2,196.5,36.1
22.0,186.2,230.1,163.5,193.3,33.9
22.5,180.1,230.1,161.9,190.7,35.3
23.0,179.7,220.9,157.3,185.9,32.3
23.5,177.2,219.0,154.4,183.6,32.8
24.0,175.0,213.0,149.3,179.1,32.1
24.5,169.7,211.7,146.5,176.0,33.0
25.0,164.4,202.3,143.3,170.0,29.9
25.5,165.9,196.3,140.0,167.4,28.2
26.0,163.2,195.3,137.9,165.5,28.8
26.5,161.2,186.6,134.6,160.8,26.0
27.0,155.6,186.9,132.4,158.3,27.4
27.5,156.2,179.7,127.4,154.4,26.2
28.0,152.0,174.2,124.9,150.4,24.7
28.5,151.5,171.5,122.2,148.4,24.8
29.0,146.8,166.8,121.4,145.0,22.8
29.5,145.8,164.4,119.2,143.1,22.7
30.0,145.2,162.1,114.5,140.6,24.1
30.5,141.3,156.0,112.0,136.4,22.4
31.0,140.0,154.3,112.6,135.6,21.2
31.5,138.5,149.0,108.7,132.1,20.9
32.0,135.9,148.3,107.9,130.7,20.7
32.5,135.6,146.0,105.9,129.1,20.8
33.0,134.4,142.9,107.1,128.1,18.7
33.5,134.4,138.6,103.6,125.6,19.1
34.0,130.2,136.2,102.4,122.9,18.1
34.5,127.6,134.9,102.4,121.6,17.0
35.0,124.3,133.2,100.3,119.3,17.0
35.5,126.1,129.9,99.9,118.6,16.3
36.0,123.3,128.7,97.4,116.5,16.7
36.5,120.9,126.9,97.0,114.9,15.8
37.0,121.0,122.4,95.6,113.0,15.1
37.5,117.9,122.1,95.2,111.7,14.5
38.0,117.4,121.8,94.0,111.1,15.0
38.5,116.1,119.7,92.2,109.3,14.9
39.0,113.5,118.5,92.9,108.3,13.6
39.5,112.1,116.0,91.3,106.5,13.3
40.0,110.5,111.7,92.3,104.8,10.9
40.5,108.5,112.2,90.2,103.6,11.8
41.0,106.8,109.2,89.7,101.9,10.6
41.5,107.5,108.8,89.0,101.8,11.1
42.0,105.9,107.8,88.6,100.8,10.5
42.5,104.6,109.6,87.4,100.5,11.6
43.0,101.9,104.5,89.0,98.5,8.3
43.5,101.5,105.2,86.7,97.8,9.8
44.0,99.3,104.2,88.0,97.1,8.3
44.5,100.5,102.2,85.9,96.2,9.0
45.0,97.5,103.8,86.1,95.8,8.9
45.5,97.1,103.5,85.5,95.3,9.1
46.0,96.6,100.9,86.3,94.6,7.5
46.5,95.7,101.4,83.5,93.5,9.1
47.0,96.0,99.6,84.5,93.3,7.9
47.5,92.9,99.4,86.1,92.8,6.6
48.0,92.3,99.2,85.1,92.2,7.0
48.5,92.0,98.3,85.4,91.9,6.5
49.0,93.3,98.0,86.3,92.5,5.9
49.5,92.1,95.9,85.3,91.1,5.4
50.0,89.9,96.2,84.3,90.1,5.9
50.5,89.1,95.7,84.9,89.9,5.5
51.0,89.8,95.1,85.0,90.0,5.1
51.5,89.8,96.3,84.0,90.0,6.1
52.0,87.8,93.3,84.0,88.4,4.6
52.5,88.0,92.9,85.0,88.6,4.0
53.0,87.6,92.2,84.1,88.0,4.0
53.5,86.5,90.0,85.2,87.2,2.5
54.0,86.1,89.3,83.8,86.4,2.8
54.5,84.6,87.7,82.6,85.0,2.6
55.0,85.6,85.8,82.9,84.8,1.6
55.5,85.5,85.4,82.4,84.4,1.8
56.0,84.0,84.4,82.2,83.6,1.2
56.5,82.8,82.9,81.6,82.4,0.7
57.0,83.4,82.3,81.5,82.4,0.9
57.5,82.0,81.7,81.4,81.7,0.3
58.0,81.3,81.6,81.4,81.4,0.2
58.5,81.1,81.6,80.9,81.2,0.4
59.0,79.8,78.9,78.9,79.2,0.5
59.5,79.6,78.9,79.8,79.5,0.5
60.0,77.8,77.3,78.9,78.0,0.8
60.5,77.7,77.0,79.4,78.0,1.2
61.0,75.8,75.7,78.3,76.6,1.5
61.5,76.4,74.0,76.2,75.6,1.4
62.0,75.1,74.0,76.6,75.2,1.3
62.5,73.6,72.3,74.6,73.5,1.2
63.0,74.3,72.2,74.1,73.5,1.2
63.5,73.4,72.2,74.4,73.3,1.1
64.0,73.3,71.6,73.3,72.7,1.0
64.5,74.9,71.2,72.5,72.9,1.9
65.0,72.9,69.9,70.8,71.2,1.5
65.5,72.7,70.3,71.0,71.3,1.2
66.0,72.9,69.8,69.1,70.6,2.0
66.5,72.7,68.5,67.4,69.6,2.8
67.0,71.7,69.3,66.4,69.2,2.7
67.5,72.1,68.6,66.0,68.9,3.0
68.0,72.6,68.3,65.0,68.6,3.8
68.5,71.4,68.4,64.5,68.1,3.5
69.0,70.3,67.1,62.0,66.5,4.2
69.5,70.7,66.9,62.7,66.8,4.0
70.0,71.6,66.0,60.6,66.1,5.5
70.5,69.9,64.5,58.1,64.2,5.9
71.0,70.1,65.5,57.9,64.5,6.2
71.5,69.1,64.1,56.3,63.2,6.5
72.0,69.3,63.7,55.4,62.8,7.0
72.5,68.7,63.6,54.2,62.1,7.4
73.0,68.7,62.4,53.7,61.6,7.5
73.5,67.5,61.0,52.6,60.4,7.5
74.0,68.5,61.0,51.4,60.3,8.6
74.5,69.0,60.0,50.0,59.7,9.5
75.0,68.3,58.9,48.4,58.6,9.9
75.5,68.2,58.1,48.6,58.3,9.8
76.0,68.5,56.6,48.2,57.8,10.2
76.5,67.9,55.8,48.4,57.4,9.8
77.0,69.1,55.2,47.7,57.3,10.8
77.5,68.6,54.0,47.7,56.8,10.7
78.0,68.8,52.9,47.6,56.4,11.0
78.5,69.0,51.7,47.0,55.9,11.6
79.0,69.4,50.1,47.2,55.6,12.1
79.5,68.2,49.4,46.7,54.8,11.7
80.0,69.0,48.2,45.8,54.3,12.7
80.5,69.2,47.6,44.6,53.8,13.4
81.0,68.3,45.9,44.0,52.7,13.5
81.5,68.2,45.6,43.3,52.4,13.8
82.0,67.3,44.1,42.7,51.3,13.8
82.5,66.6,42.9,40.9,50.1,14.3
83.0,66.1,42.7,40.3,49.7,14.3
83.5,66.8,41.0,39.8,49.2,15.3
84.0,65.9,40.3,38.1,48.1,15.4
84.5,64.7,39.7,37.3,47.2,15.2
85.0,64.0,38.5,35.7,46.0,15.6
85.5,62.5,37.7,34.7,45.0,15.3
86.0,61.9,38.0,33.6,44.5,15.2
86.5,60.3,37.2,32.6,43.4,14.8
87.0,59.6,36.0,31.6,42.4,15.1
87.5,59.3,34.7,30.7,41.6,15.5
88.0,58.0,34.9,29.8,40.9,15.0
88.5,56.8,34.1,29.1,40.0,14.8
89.0,55.8,32.8,28.6,39.1,14.6
89.5,55.1,32.2,27.7,38.3,14.7
90.0,54.8,31.5,27.1,37.8,14.9
90.5,52.8,30.7,26.6,36.7,14.1
91.0,52.6,30.5,25.7,36.2,14.3
91.5,51.7,30.3,24.9,35.7,14.2
92.0,50.9,29.8,24.8,35.2,13.9
92.5,50.4,29.9,24.0,34.8,13.9
93.0,50.0,29.2,23.0,34.1,14.1
93.5,49.3,29.3,22.5,33.7,13.9
94.0,49.0,28.6,22.0,33.2,14.1
94.5,47.5,28.7,21.4,32.5,13.5
95.0,47.2,28.3,21.1,32.2,13.5
95.5,47.0,27.9,21.1,32.0,13.4
96.0,45.5,27.5,20.8,31.2,12.8
96.5,44.6,26.8,20.7,30.7,12.4
97.0,44.6,27.6,20.5,30.9,12.4
97.5,43.7,26.9,20.2,30.3,12.1
98.0,42.4,26.9,19.8,29.7,11.6
98.5,42.1,26.7,,34.4,10.9
99.0,41.4,26.6,,34.0,10.4
99.5,40.9,26.3,,33.6,10.3
100.0,40.2,26.6,,33.4,9.6
100.5,40.2,26.5,,33.4,9.7
101.0,38.4,26.2,,32.3,8.6
101.5,37.9,26.1,,32.0,8.3
102.0,37.1,26.0,,31.6,7.9
102.5,36.0,25.8,,30.9,7.2
103.0,35.6,25.9,,30.7,6.8
103.5,34.5,,,34.5,
104.0,34.0,,,34.0,
104.5,33.3,,,33.3,
105.0,33.1,,,33.1,
105.5,33.1,,,33.1,
106.0,32.1,,,32.1,
106.5,31.8,,,31.8,
107.0,31.7,,,31.7,
107.5,31.1,,,31.1,
108.0,30.8,,,30.8,
108.5,30.9,,,30.9,
109.0,30.1,,,30.1,
109.5,29.8,,,29.8,
110.0,29.4,,,29.4,
110.5,29.3,,,29.3,
111.0,29.2,,,29.2,
111.5,28.9,,,28.9,
112.0,29.1,,,29.1,
112.5,28.3,,,28.3,
113.0,28.5,,,28.5,
113.5,27.6,,,27.6,
114.0,28.0,,,28.0,