File: 01_Data/Bamboo_Rug/FTIR/IS/Bamboo_Rug_IS_S_220822_R6.dpt
7497.03,0.76628
7473.89,0.76103
7450.74,0.74177
7427.6,0.72841
7404.45,0.71915
7381.31,0.72083
7358.16,0.70802
7335.02,0.69282
7311.87,0.68927
7288.73,0.68514
7265.58,0.68377
7242.44,0.67617
7219.29,0.67169
7196.15,0.66274
7173,0.64934
7149.86,0.63029
7126.71,0.62305
7103.57,0.59712
7080.42,0.56796
7057.28,0.54901
7034.13,0.53513
7010.99,0.51180
6987.84,0.50338
6964.7,0.48864
6941.55,0.48969
6918.41,0.48777
6895.26,0.48406
6872.12,0.48077
6848.97,0.47982
6825.83,0.47843
6802.68,0.47827
6779.54,0.47761
6756.39,0.48278
6733.25,0.48163
6710.1,0.48592
6686.96,0.48865
6663.82,0.49349
6640.67,0.49514
6617.53,0.49859
6594.38,0.50439
6571.24,0.50593
6548.09,0.51677
6524.95,0.51670
6501.8,0.51814
6478.66,0.52227
6455.51,0.52205
6432.37,0.52431
6409.22,0.52500
6386.08,0.52600
6362.93,0.52685
6339.79,0.52865
6316.64,0.53237
6293.5,0.53378
6270.35,0.54069
6247.21,0.55009
6224.06,0.55105
6200.92,0.55993
6177.77,0.56929
6154.63,0.57284
6131.48,0.57821
6108.34,0.57923
6085.19,0.57922
6062.05,0.57267
6038.9,0.57358
6015.76,0.56495
5992.61,0.55930
5969.47,0.55259
5946.32,0.54942
5923.18,0.55134
5900.03,0.54787
5876.89,0.54531
5853.74,0.54373
5830.6,0.54117
5807.45,0.53527
5784.31,0.53710
5761.16,0.54527
5738.02,0.54449
5714.87,0.54370
5691.73,0.54400
5668.58,0.54320
5645.44,0.54065
5622.29,0.53747
5599.15,0.53738
5576,0.54073
5552.86,0.54465
5529.71,0.54612
5506.57,0.54927
5483.42,0.55016
5460.28,0.55308
5437.13,0.55972
5413.99,0.56359
5390.84,0.56548
5367.7,0.56090
5344.55,0.55757
5321.41,0.53982
5298.26,0.51166
5275.12,0.46085
5251.97,0.40948
5228.83,0.38210
5205.68,0.36784
5182.54,0.36870
5159.39,0.37699
5136.25,0.39068
5113.1,0.40529
5089.96,0.41691
5066.81,0.43126
5043.67,0.44187
5020.52,0.45187
4997.38,0.45583
4974.23,0.45287
4951.09,0.44264
4927.94,0.42424
4904.8,0.40258
4881.65,0.38219
4858.51,0.36511
4835.36,0.34983
4812.22,0.34097
4789.07,0.33632
4765.93,0.33202
4742.78,0.33182
4719.64,0.33286
4696.49,0.33540
4673.35,0.34113
4650.2,0.35149
4627.06,0.35804
4603.92,0.36775
4580.77,0.37585
4557.63,0.37952
4534.48,0.38582
4511.34,0.38569
4488.19,0.37467
4465.05,0.34862
4441.9,0.31865
4418.76,0.29903
4395.61,0.29332
4372.47,0.29881
4349.32,0.30157
4326.18,0.29387
4303.03,0.28480
4279.89,0.28121
4256.74,0.28544
4233.6,0.28730
4210.45,0.28961
4187.31,0.29090
4164.16,0.29317
4141.02,0.28754
4117.87,0.27434
4094.73,0.25739
4071.58,0.24067
4048.44,0.22344
4025.29,0.21260
4002.15,0.21243
3979,0.21624
3955.86,0.22366
3932.71,0.23220
3909.57,0.24142
3886.42,0.25012
3863.28,0.25852
3840.13,0.26721
3816.99,0.27059
3793.84,0.26801
3770.7,0.26226
3747.55,0.25376
3724.41,0.23849
3701.26,0.21130
3678.12,0.16386
3654.97,0.11528
3631.83,0.08932
3608.68,0.07295
3585.54,0.06046
3562.39,0.05260
3539.25,0.04757
3516.1,0.04386
3492.96,0.04156
3469.81,0.04015
3446.67,0.03993
3423.52,0.03963
3400.38,0.04024
3377.23,0.04157
3354.09,0.04254
3330.94,0.04361
3307.8,0.04563
3284.65,0.04726
3261.51,0.05001
3238.36,0.05305
3215.22,0.05636
3192.07,0.05945
3168.93,0.06337
3145.78,0.06646
3122.64,0.07054
3099.49,0.07397
3076.35,0.07643
3053.2,0.08036
3030.06,0.08196
3006.91,0.07850
2983.77,0.07190
2960.62,0.06265
2937.48,0.05728
2914.33,0.05758
2891.19,0.05894
2868.04,0.06244
2844.9,0.06972
2821.75,0.08214
2798.61,0.09016
2775.46,0.09402
2752.32,0.09618
2729.17,0.09909
2706.03,0.10287
2682.88,0.10705
2659.74,0.11090
2636.59,0.11465
2613.45,0.11902
2590.3,0.12293
2567.16,0.12543
2544.02,0.12806
2520.87,0.13074
2497.73,0.13466
2474.58,0.13956
2451.44,0.14443
2428.29,0.15129
2405.15,0.15993
2382,0.16704
2358.86,0.17218
2335.71,0.17658
2312.57,0.17882
2289.42,0.17760
2266.28,0.17604
2243.13,0.17117
2219.99,0.17131
2196.84,0.16737
2173.7,0.15687
2150.55,0.14939
2127.41,0.14758
2104.26,0.15002
2081.12,0.15247
2057.97,0.15296
2034.83,0.15604
2011.68,0.16450
1988.54,0.17020
1965.39,0.16986
1942.25,0.17136
1919.1,0.17785
1895.96,0.17836
1872.81,0.17796
1849.67,0.17042
1826.52,0.15741
1803.38,0.13137
1780.23,0.09435
1757.09,0.05371
1733.94,0.04678
1710.8,0.05532
1687.65,0.06015
1664.51,0.05717
1641.36,0.05550
1618.22,0.05352
1595.07,0.05057
1571.93,0.06667
1548.78,0.07290
1525.64,0.06145
1502.49,0.04970
1479.35,0.05107
1456.2,0.04242
1433.06,0.04175
1409.91,0.04503
1386.77,0.04059
1363.62,0.04210
1340.48,0.04142
1317.33,0.04246
1294.19,0.04332
1271.04,0.03808
1247.9,0.03798
1224.75,0.04212
1201.61,0.04142
1178.46,0.03413
1155.32,0.04078
1132.17,0.03302
1109.03,0.04081
1085.88,0.04043
1062.74,0.05681
1039.59,0.06829
1016.45,0.07073
993.304,0.07205
970.159,0.07901
947.014,0.09009
923.869,0.08745
900.724,0.07887
877.579,0.08663
854.434,0.08535
831.289,0.08080
808.144,0.08498
784.999,0.08192
761.854,0.07529
738.709,0.06938
715.565,0.06547
692.42,0.06385
669.275,0.05787
646.13,0.05983
622.985,0.05512
599.84,0.06078