File: 01_Data/Bamboo_Rug/FTIR/IS/Bamboo_Rug_IS_S_220822_R4.dpt
7497.03,0.76914
7473.89,0.75691
7450.74,0.73770
7427.6,0.73977
7404.45,0.72147
7381.31,0.71030
7358.16,0.70893
7335.02,0.68792
7311.87,0.68636
7288.73,0.68226
7265.58,0.67943
7242.44,0.67717
7219.29,0.67475
7196.15,0.66227
7173,0.65308
7149.86,0.63058
7126.71,0.61400
7103.57,0.59017
7080.42,0.56663
7057.28,0.55180
7034.13,0.52993
7010.99,0.50992
6987.84,0.50217
6964.7,0.48871
6941.55,0.48588
6918.41,0.48480
6895.26,0.47769
6872.12,0.47850
6848.97,0.47694
6825.83,0.48091
6802.68,0.47148
6779.54,0.47627
6756.39,0.47791
6733.25,0.48217
6710.1,0.48773
6686.96,0.48387
6663.82,0.49312
6640.67,0.49640
6617.53,0.50011
6594.38,0.50359
6571.24,0.50446
6548.09,0.51467
6524.95,0.51382
6501.8,0.51655
6478.66,0.51681
6455.51,0.52086
6432.37,0.52406
6409.22,0.52428
6386.08,0.52514
6362.93,0.52570
6339.79,0.52761
6316.64,0.53140
6293.5,0.53308
6270.35,0.53602
6247.21,0.54281
6224.06,0.55390
6200.92,0.55833
6177.77,0.56649
6154.63,0.56956
6131.48,0.57813
6108.34,0.57881
6085.19,0.57735
6062.05,0.57753
6038.9,0.57019
6015.76,0.56464
5992.61,0.56111
5969.47,0.55420
5946.32,0.55230
5923.18,0.55129
5900.03,0.54583
5876.89,0.54517
5853.74,0.54555
5830.6,0.54089
5807.45,0.53444
5784.31,0.53920
5761.16,0.54337
5738.02,0.54719
5714.87,0.54668
5691.73,0.54285
5668.58,0.54197
5645.44,0.53831
5622.29,0.53747
5599.15,0.53657
5576,0.54052
5552.86,0.54210
5529.71,0.54663
5506.57,0.54696
5483.42,0.54888
5460.28,0.55133
5437.13,0.55845
5413.99,0.56241
5390.84,0.56351
5367.7,0.56257
5344.55,0.55410
5321.41,0.53835
5298.26,0.50862
5275.12,0.45961
5251.97,0.40492
5228.83,0.37503
5205.68,0.36342
5182.54,0.36228
5159.39,0.37163
5136.25,0.38716
5113.1,0.39844
5089.96,0.41293
5066.81,0.42611
5043.67,0.43766
5020.52,0.44779
4997.38,0.45266
4974.23,0.45166
4951.09,0.43995
4927.94,0.42277
4904.8,0.40138
4881.65,0.38288
4858.51,0.36449
4835.36,0.34988
4812.22,0.34068
4789.07,0.33708
4765.93,0.33149
4742.78,0.33128
4719.64,0.33376
4696.49,0.33574
4673.35,0.34093
4650.2,0.34961
4627.06,0.35859
4603.92,0.36733
4580.77,0.37400
4557.63,0.38096
4534.48,0.38533
4511.34,0.38460
4488.19,0.37374
4465.05,0.34765
4441.9,0.31809
4418.76,0.29861
4395.61,0.29303
4372.47,0.29910
4349.32,0.30047
4326.18,0.29248
4303.03,0.28376
4279.89,0.28116
4256.74,0.28514
4233.6,0.28733
4210.45,0.28893
4187.31,0.29003
4164.16,0.29203
4141.02,0.28658
4117.87,0.27309
4094.73,0.25777
4071.58,0.23984
4048.44,0.22388
4025.29,0.21234
4002.15,0.21127
3979,0.21617
3955.86,0.22240
3932.71,0.23112
3909.57,0.23988
3886.42,0.24864
3863.28,0.25682
3840.13,0.26610
3816.99,0.26903
3793.84,0.26614
3770.7,0.26081
3747.55,0.25119
3724.41,0.23634
3701.26,0.20908
3678.12,0.16129
3654.97,0.11340
3631.83,0.08632
3608.68,0.07073
3585.54,0.06002
3562.39,0.05234
3539.25,0.04726
3516.1,0.04322
3492.96,0.04189
3469.81,0.03982
3446.67,0.03903
3423.52,0.03938
3400.38,0.04037
3377.23,0.04167
3354.09,0.04214
3330.94,0.04418
3307.8,0.04641
3284.65,0.04744
3261.51,0.05053
3238.36,0.05281
3215.22,0.05636
3192.07,0.05908
3168.93,0.06224
3145.78,0.06651
3122.64,0.06946
3099.49,0.07330
3076.35,0.07630
3053.2,0.08023
3030.06,0.08046
3006.91,0.07793
2983.77,0.07127
2960.62,0.06251
2937.48,0.05689
2914.33,0.05783
2891.19,0.05883
2868.04,0.06259
2844.9,0.06904
2821.75,0.08196
2798.61,0.08982
2775.46,0.09388
2752.32,0.09617
2729.17,0.09819
2706.03,0.10205
2682.88,0.10648
2659.74,0.11059
2636.59,0.11423
2613.45,0.11885
2590.3,0.12250
2567.16,0.12521
2544.02,0.12770
2520.87,0.13003
2497.73,0.13442
2474.58,0.13950
2451.44,0.14379
2428.29,0.15113
2405.15,0.15916
2382,0.16634
2358.86,0.17102
2335.71,0.17609
2312.57,0.17734
2289.42,0.17660
2266.28,0.17456
2243.13,0.17018
2219.99,0.17039
2196.84,0.16606
2173.7,0.15577
2150.55,0.14786
2127.41,0.14647
2104.26,0.14884
2081.12,0.15164
2057.97,0.15226
2034.83,0.15454
2011.68,0.16274
1988.54,0.16888
1965.39,0.16875
1942.25,0.17035
1919.1,0.17682
1895.96,0.17727
1872.81,0.17660
1849.67,0.16931
1826.52,0.15656
1803.38,0.13082
1780.23,0.09395
1757.09,0.05380
1733.94,0.04730
1710.8,0.05527
1687.65,0.06016
1664.51,0.05721
1641.36,0.05508
1618.22,0.05354
1595.07,0.05063
1571.93,0.06651
1548.78,0.07217
1525.64,0.06122
1502.49,0.05008
1479.35,0.05143
1456.2,0.04274
1433.06,0.04179
1409.91,0.04494
1386.77,0.04062
1363.62,0.04250
1340.48,0.04133
1317.33,0.04250
1294.19,0.04310
1271.04,0.03788
1247.9,0.03776
1224.75,0.04215
1201.61,0.04182
1178.46,0.03411
1155.32,0.04103
1132.17,0.03303
1109.03,0.04037
1085.88,0.04048
1062.74,0.05650
1039.59,0.06837
1016.45,0.07135
993.304,0.07074
970.159,0.07910
947.014,0.09006
923.869,0.08683
900.724,0.07796
877.579,0.08567
854.434,0.08453
831.289,0.08013
808.144,0.08348
784.999,0.08101
761.854,0.07479
738.709,0.06800
715.565,0.06440
692.42,0.06240
669.275,0.05843
646.13,0.05821
622.985,0.05706
599.84,0.06157