File: 01_Data/Bamboo_Rug/FTIR/IS/Bamboo_Rug_IS_S_220822_R8.dpt
7497.03,0.75866
7473.89,0.75653
7450.74,0.74552
7427.6,0.73882
7404.45,0.72741
7381.31,0.71623
7358.16,0.69722
7335.02,0.69695
7311.87,0.69187
7288.73,0.68087
7265.58,0.67571
7242.44,0.67330
7219.29,0.67985
7196.15,0.65817
7173,0.65633
7149.86,0.63282
7126.71,0.61556
7103.57,0.59263
7080.42,0.57598
7057.28,0.55608
7034.13,0.52815
7010.99,0.51478
6987.84,0.50187
6964.7,0.49514
6941.55,0.48663
6918.41,0.48766
6895.26,0.47972
6872.12,0.47676
6848.97,0.48369
6825.83,0.48124
6802.68,0.48048
6779.54,0.48049
6756.39,0.48173
6733.25,0.48534
6710.1,0.48509
6686.96,0.49125
6663.82,0.49302
6640.67,0.49493
6617.53,0.49830
6594.38,0.50766
6571.24,0.51246
6548.09,0.51354
6524.95,0.51733
6501.8,0.52344
6478.66,0.51996
6455.51,0.52212
6432.37,0.52459
6409.22,0.52918
6386.08,0.52992
6362.93,0.53134
6339.79,0.53250
6316.64,0.53458
6293.5,0.53658
6270.35,0.54243
6247.21,0.54707
6224.06,0.55485
6200.92,0.56164
6177.77,0.57051
6154.63,0.57543
6131.48,0.57513
6108.34,0.58136
6085.19,0.58020
6062.05,0.57958
6038.9,0.57523
6015.76,0.56861
5992.61,0.55902
5969.47,0.55584
5946.32,0.55060
5923.18,0.55019
5900.03,0.54800
5876.89,0.54948
5853.74,0.54745
5830.6,0.54380
5807.45,0.53769
5784.31,0.53955
5761.16,0.54560
5738.02,0.54924
5714.87,0.54834
5691.73,0.54448
5668.58,0.54118
5645.44,0.54088
5622.29,0.54259
5599.15,0.54044
5576,0.54238
5552.86,0.54452
5529.71,0.55015
5506.57,0.55179
5483.42,0.55334
5460.28,0.55641
5437.13,0.56213
5413.99,0.56505
5390.84,0.56581
5367.7,0.56505
5344.55,0.55919
5321.41,0.54224
5298.26,0.51276
5275.12,0.46632
5251.97,0.41592
5228.83,0.38546
5205.68,0.37241
5182.54,0.37301
5159.39,0.38131
5136.25,0.39706
5113.1,0.41003
5089.96,0.42246
5066.81,0.43502
5043.67,0.44654
5020.52,0.45565
4997.38,0.45907
4974.23,0.45682
4951.09,0.44488
4927.94,0.42562
4904.8,0.40446
4881.65,0.38380
4858.51,0.36580
4835.36,0.35235
4812.22,0.34240
4789.07,0.33716
4765.93,0.33353
4742.78,0.33178
4719.64,0.33460
4696.49,0.33619
4673.35,0.34269
4650.2,0.35102
4627.06,0.36025
4603.92,0.36950
4580.77,0.37676
4557.63,0.38140
4534.48,0.38563
4511.34,0.38676
4488.19,0.37634
4465.05,0.35039
4441.9,0.32008
4418.76,0.30065
4395.61,0.29393
4372.47,0.29934
4349.32,0.30071
4326.18,0.29464
4303.03,0.28548
4279.89,0.28243
4256.74,0.28593
4233.6,0.28896
4210.45,0.29102
4187.31,0.29163
4164.16,0.29420
4141.02,0.28859
4117.87,0.27661
4094.73,0.25882
4071.58,0.24122
4048.44,0.22480
4025.29,0.21409
4002.15,0.21286
3979,0.21771
3955.86,0.22476
3932.71,0.23322
3909.57,0.24272
3886.42,0.25045
3863.28,0.25996
3840.13,0.27010
3816.99,0.27188
3793.84,0.26979
3770.7,0.26526
3747.55,0.25666
3724.41,0.24160
3701.26,0.21413
3678.12,0.16689
3654.97,0.11800
3631.83,0.09100
3608.68,0.07347
3585.54,0.06154
3562.39,0.05308
3539.25,0.04773
3516.1,0.04428
3492.96,0.04107
3469.81,0.04025
3446.67,0.03936
3423.52,0.03887
3400.38,0.03984
3377.23,0.04133
3354.09,0.04135
3330.94,0.04385
3307.8,0.04573
3284.65,0.04753
3261.51,0.04987
3238.36,0.05348
3215.22,0.05681
3192.07,0.06009
3168.93,0.06382
3145.78,0.06672
3122.64,0.07035
3099.49,0.07425
3076.35,0.07785
3053.2,0.08119
3030.06,0.08110
3006.91,0.07846
2983.77,0.07185
2960.62,0.06277
2937.48,0.05686
2914.33,0.05778
2891.19,0.05894
2868.04,0.06225
2844.9,0.06965
2821.75,0.08211
2798.61,0.09050
2775.46,0.09439
2752.32,0.09676
2729.17,0.09856
2706.03,0.10301
2682.88,0.10744
2659.74,0.11108
2636.59,0.11520
2613.45,0.11970
2590.3,0.12351
2567.16,0.12602
2544.02,0.12836
2520.87,0.13107
2497.73,0.13520
2474.58,0.14015
2451.44,0.14478
2428.29,0.15172
2405.15,0.16043
2382,0.16728
2358.86,0.17247
2335.71,0.17781
2312.57,0.17945
2289.42,0.17893
2266.28,0.17674
2243.13,0.17216
2219.99,0.17263
2196.84,0.16894
2173.7,0.15822
2150.55,0.15033
2127.41,0.14871
2104.26,0.15110
2081.12,0.15418
2057.97,0.15419
2034.83,0.15737
2011.68,0.16504
1988.54,0.17167
1965.39,0.17146
1942.25,0.17247
1919.1,0.17940
1895.96,0.17952
1872.81,0.17858
1849.67,0.17138
1826.52,0.15835
1803.38,0.13191
1780.23,0.09452
1757.09,0.05330
1733.94,0.04687
1710.8,0.05574
1687.65,0.06059
1664.51,0.05757
1641.36,0.05561
1618.22,0.05352
1595.07,0.05066
1571.93,0.06660
1548.78,0.07298
1525.64,0.06113
1502.49,0.05008
1479.35,0.05127
1456.2,0.04248
1433.06,0.04237
1409.91,0.04502
1386.77,0.04071
1363.62,0.04289
1340.48,0.04134
1317.33,0.04240
1294.19,0.04349
1271.04,0.03806
1247.9,0.03774
1224.75,0.04221
1201.61,0.04149
1178.46,0.03470
1155.32,0.04110
1132.17,0.03312
1109.03,0.04104
1085.88,0.04042
1062.74,0.05621
1039.59,0.06876
1016.45,0.06994
993.304,0.07122
970.159,0.07875
947.014,0.09083
923.869,0.08736
900.724,0.07829
877.579,0.08656
854.434,0.08606
831.289,0.08004
808.144,0.08520
784.999,0.08271
761.854,0.07617
738.709,0.06860
715.565,0.06463
692.42,0.06384
669.275,0.05843
646.13,0.05979
622.985,0.05798
599.84,0.06089