File: 01_Data/Bamboo_Rug/FTIR/IS/Bamboo_Rug_IS_S_220822_R3.dpt
7497.03,0.76217
7473.89,0.75842
7450.74,0.74910
7427.6,0.72880
7404.45,0.71168
7381.31,0.70696
7358.16,0.69237
7335.02,0.69263
7311.87,0.69062
7288.73,0.68420
7265.58,0.68443
7242.44,0.68259
7219.29,0.66835
7196.15,0.66763
7173,0.64783
7149.86,0.63220
7126.71,0.61481
7103.57,0.59277
7080.42,0.57585
7057.28,0.54452
7034.13,0.52657
7010.99,0.50507
6987.84,0.50080
6964.7,0.48849
6941.55,0.48659
6918.41,0.48153
6895.26,0.47763
6872.12,0.47886
6848.97,0.47060
6825.83,0.47169
6802.68,0.47919
6779.54,0.47942
6756.39,0.47566
6733.25,0.48159
6710.1,0.48185
6686.96,0.48866
6663.82,0.49065
6640.67,0.49452
6617.53,0.49457
6594.38,0.50062
6571.24,0.50654
6548.09,0.51179
6524.95,0.51328
6501.8,0.51720
6478.66,0.51635
6455.51,0.51966
6432.37,0.52123
6409.22,0.52385
6386.08,0.52674
6362.93,0.52580
6339.79,0.52731
6316.64,0.52963
6293.5,0.53215
6270.35,0.53866
6247.21,0.54413
6224.06,0.55078
6200.92,0.56057
6177.77,0.56245
6154.63,0.56578
6131.48,0.57490
6108.34,0.57473
6085.19,0.57921
6062.05,0.57508
6038.9,0.57295
6015.76,0.56288
5992.61,0.55835
5969.47,0.55347
5946.32,0.55124
5923.18,0.55207
5900.03,0.54550
5876.89,0.54721
5853.74,0.54455
5830.6,0.53980
5807.45,0.53566
5784.31,0.53866
5761.16,0.54526
5738.02,0.54442
5714.87,0.54487
5691.73,0.54436
5668.58,0.53922
5645.44,0.53894
5622.29,0.53810
5599.15,0.53595
5576,0.53805
5552.86,0.54273
5529.71,0.54380
5506.57,0.54802
5483.42,0.54970
5460.28,0.55194
5437.13,0.55662
5413.99,0.56227
5390.84,0.56480
5367.7,0.56146
5344.55,0.55457
5321.41,0.53738
5298.26,0.50512
5275.12,0.45583
5251.97,0.40302
5228.83,0.37087
5205.68,0.35930
5182.54,0.35898
5159.39,0.36830
5136.25,0.38191
5113.1,0.39550
5089.96,0.40916
5066.81,0.42244
5043.67,0.43496
5020.52,0.44439
4997.38,0.44937
4974.23,0.44822
4951.09,0.43801
4927.94,0.42105
4904.8,0.40091
4881.65,0.38108
4858.51,0.36338
4835.36,0.34866
4812.22,0.33941
4789.07,0.33446
4765.93,0.33217
4742.78,0.33074
4719.64,0.33204
4696.49,0.33433
4673.35,0.33903
4650.2,0.34993
4627.06,0.35810
4603.92,0.36618
4580.77,0.37375
4557.63,0.37874
4534.48,0.38432
4511.34,0.38442
4488.19,0.37321
4465.05,0.34745
4441.9,0.31783
4418.76,0.29918
4395.61,0.29224
4372.47,0.29850
4349.32,0.30022
4326.18,0.29248
4303.03,0.28341
4279.89,0.28068
4256.74,0.28491
4233.6,0.28653
4210.45,0.28829
4187.31,0.28972
4164.16,0.29198
4141.02,0.28640
4117.87,0.27235
4094.73,0.25645
4071.58,0.23911
4048.44,0.22249
4025.29,0.21207
4002.15,0.21072
3979,0.21506
3955.86,0.22245
3932.71,0.23069
3909.57,0.23902
3886.42,0.24749
3863.28,0.25597
3840.13,0.26465
3816.99,0.26677
3793.84,0.26446
3770.7,0.25889
3747.55,0.25016
3724.41,0.23445
3701.26,0.20657
3678.12,0.15935
3654.97,0.11139
3631.83,0.08538
3608.68,0.07017
3585.54,0.05952
3562.39,0.05187
3539.25,0.04719
3516.1,0.04385
3492.96,0.04127
3469.81,0.03958
3446.67,0.03940
3423.52,0.03868
3400.38,0.03998
3377.23,0.04072
3354.09,0.04198
3330.94,0.04414
3307.8,0.04597
3284.65,0.04758
3261.51,0.04976
3238.36,0.05251
3215.22,0.05592
3192.07,0.05891
3168.93,0.06232
3145.78,0.06585
3122.64,0.06940
3099.49,0.07321
3076.35,0.07576
3053.2,0.07914
3030.06,0.08012
3006.91,0.07790
2983.77,0.07136
2960.62,0.06204
2937.48,0.05689
2914.33,0.05726
2891.19,0.05969
2868.04,0.06205
2844.9,0.06890
2821.75,0.08160
2798.61,0.08962
2775.46,0.09372
2752.32,0.09608
2729.17,0.09826
2706.03,0.10173
2682.88,0.10581
2659.74,0.11032
2636.59,0.11371
2613.45,0.11859
2590.3,0.12208
2567.16,0.12476
2544.02,0.12725
2520.87,0.12970
2497.73,0.13419
2474.58,0.13869
2451.44,0.14363
2428.29,0.15074
2405.15,0.15887
2382,0.16570
2358.86,0.17103
2335.71,0.17532
2312.57,0.17640
2289.42,0.17602
2266.28,0.17380
2243.13,0.16950
2219.99,0.16918
2196.84,0.16537
2173.7,0.15494
2150.55,0.14714
2127.41,0.14571
2104.26,0.14786
2081.12,0.15119
2057.97,0.15092
2034.83,0.15392
2011.68,0.16175
1988.54,0.16833
1965.39,0.16797
1942.25,0.16937
1919.1,0.17576
1895.96,0.17638
1872.81,0.17577
1849.67,0.16863
1826.52,0.15543
1803.38,0.13008
1780.23,0.09424
1757.09,0.05390
1733.94,0.04680
1710.8,0.05466
1687.65,0.05956
1664.51,0.05657
1641.36,0.05469
1618.22,0.05344
1595.07,0.05020
1571.93,0.06643
1548.78,0.07238
1525.64,0.06104
1502.49,0.04959
1479.35,0.05098
1456.2,0.04305
1433.06,0.04197
1409.91,0.04516
1386.77,0.04075
1363.62,0.04285
1340.48,0.04147
1317.33,0.04200
1294.19,0.04330
1271.04,0.03779
1247.9,0.03757
1224.75,0.04259
1201.61,0.04146
1178.46,0.03433
1155.32,0.04051
1132.17,0.03316
1109.03,0.04140
1085.88,0.04027
1062.74,0.05636
1039.59,0.06830
1016.45,0.07078
993.304,0.07067
970.159,0.07849
947.014,0.09070
923.869,0.08671
900.724,0.07751
877.579,0.08557
854.434,0.08541
831.289,0.07959
808.144,0.08273
784.999,0.08040
761.854,0.07331
738.709,0.06761
715.565,0.06433
692.42,0.06314
669.275,0.05858
646.13,0.05835
622.985,0.05693
599.84,0.06001