File: 01_Data/Bamboo_Rug/FTIR/IS/Bamboo_Rug_IS_T_220822_R4.dpt
7497.03,0.01566
7473.89,0.02578
7450.74,0.01666
7427.6,0.02642
7404.45,0.01729
7381.31,0.01810
7358.16,0.02294
7335.02,0.02456
7311.87,0.02225
7288.73,0.01496
7265.58,0.02123
7242.44,0.02096
7219.29,0.02352
7196.15,0.02089
7173,0.01798
7149.86,0.01860
7126.71,0.02123
7103.57,0.01932
7080.42,0.02563
7057.28,0.01922
7034.13,0.01888
7010.99,0.02357
6987.84,0.02101
6964.7,0.02227
6941.55,0.02465
6918.41,0.02002
6895.26,0.02237
6872.12,0.01958
6848.97,0.02202
6825.83,0.01963
6802.68,0.01973
6779.54,0.02514
6756.39,0.02224
6733.25,0.02526
6710.1,0.02010
6686.96,0.02247
6663.82,0.02332
6640.67,0.01832
6617.53,0.02375
6594.38,0.02014
6571.24,0.01822
6548.09,0.02236
6524.95,0.02122
6501.8,0.01963
6478.66,0.01939
6455.51,0.02151
6432.37,0.01849
6409.22,0.01736
6386.08,0.01863
6362.93,0.01868
6339.79,0.02103
6316.64,0.01697
6293.5,0.01825
6270.35,0.01974
6247.21,0.01899
6224.06,0.01813
6200.92,0.01780
6177.77,0.01901
6154.63,0.01820
6131.48,0.02014
6108.34,0.01659
6085.19,0.02093
6062.05,0.01866
6038.9,0.01779
6015.76,0.01915
5992.61,0.01823
5969.47,0.01717
5946.32,0.01871
5923.18,0.01695
5900.03,0.01954
5876.89,0.02033
5853.74,0.02027
5830.6,0.01810
5807.45,0.02002
5784.31,0.01799
5761.16,0.01815
5738.02,0.01857
5714.87,0.01828
5691.73,0.01788
5668.58,0.01893
5645.44,0.01956
5622.29,0.01847
5599.15,0.01954
5576,0.02044
5552.86,0.01921
5529.71,0.02007
5506.57,0.01892
5483.42,0.02046
5460.28,0.01923
5437.13,0.02034
5413.99,0.02009
5390.84,0.01908
5367.7,0.02005
5344.55,0.01855
5321.41,0.01982
5298.26,0.01941
5275.12,0.01860
5251.97,0.01625
5228.83,0.02050
5205.68,0.01728
5182.54,0.01833
5159.39,0.01956
5136.25,0.01868
5113.1,0.01822
5089.96,0.01862
5066.81,0.01869
5043.67,0.01937
5020.52,0.01929
4997.38,0.02013
4974.23,0.01913
4951.09,0.02047
4927.94,0.01921
4904.8,0.01885
4881.65,0.01950
4858.51,0.01910
4835.36,0.01902
4812.22,0.01918
4789.07,0.01930
4765.93,0.01939
4742.78,0.02009
4719.64,0.02012
4696.49,0.01897
4673.35,0.01959
4650.2,0.01838
4627.06,0.01957
4603.92,0.01877
4580.77,0.01978
4557.63,0.01929
4534.48,0.01985
4511.34,0.02011
4488.19,0.01894
4465.05,0.01903
4441.9,0.01876
4418.76,0.01915
4395.61,0.01910
4372.47,0.01882
4349.32,0.01923
4326.18,0.01922
4303.03,0.01859
4279.89,0.01997
4256.74,0.01986
4233.6,0.01958
4210.45,0.01905
4187.31,0.01919
4164.16,0.02001
4141.02,0.01962
4117.87,0.01966
4094.73,0.01988
4071.58,0.01924
4048.44,0.01871
4025.29,0.01953
4002.15,0.02012
3979,0.01976
3955.86,0.01954
3932.71,0.01961
3909.57,0.01926
3886.42,0.01953
3863.28,0.01950
3840.13,0.02013
3816.99,0.01982
3793.84,0.01953
3770.7,0.01944
3747.55,0.01929
3724.41,0.01914
3701.26,0.01879
3678.12,0.01915
3654.97,0.01960
3631.83,0.01932
3608.68,0.01834
3585.54,0.01817
3562.39,0.01897
3539.25,0.01883
3516.1,0.01850
3492.96,0.01795
3469.81,0.01767
3446.67,0.01758
3423.52,0.01770
3400.38,0.01607
3377.23,0.01805
3354.09,0.01670
3330.94,0.01647
3307.8,0.01698
3284.65,0.01723
3261.51,0.01707
3238.36,0.01797
3215.22,0.01777
3192.07,0.01775
3168.93,0.01810
3145.78,0.01780
3122.64,0.01790
3099.49,0.01778
3076.35,0.01771
3053.2,0.01700
3030.06,0.01732
3006.91,0.01719
2983.77,0.01643
2960.62,0.01715
2937.48,0.01658
2914.33,0.01678
2891.19,0.01749
2868.04,0.01774
2844.9,0.01794
2821.75,0.01866
2798.61,0.01803
2775.46,0.01897
2752.32,0.01786
2729.17,0.01830
2706.03,0.01806
2682.88,0.01790
2659.74,0.01808
2636.59,0.01789
2613.45,0.01795
2590.3,0.01815
2567.16,0.01822
2544.02,0.01818
2520.87,0.01823
2497.73,0.01811
2474.58,0.01804
2451.44,0.01803
2428.29,0.01789
2405.15,0.01805
2382,0.01827
2358.86,0.01821
2335.71,0.01799
2312.57,0.01843
2289.42,0.01816
2266.28,0.01799
2243.13,0.01794
2219.99,0.01814
2196.84,0.01823
2173.7,0.01807
2150.55,0.01830
2127.41,0.01811
2104.26,0.01844
2081.12,0.01833
2057.97,0.01813
2034.83,0.01804
2011.68,0.01763
1988.54,0.01800
1965.39,0.01784
1942.25,0.01793
1919.1,0.01777
1895.96,0.01784
1872.81,0.01749
1849.67,0.01722
1826.52,0.01689
1803.38,0.01669
1780.23,0.01589
1757.09,0.01443
1733.94,0.01681
1710.8,0.01753
1687.65,0.01611
1664.51,0.01530
1641.36,0.01540
1618.22,0.01639
1595.07,0.01589
1571.93,0.01526
1548.78,0.01523
1525.64,0.01556
1502.49,0.01555
1479.35,0.01529
1456.2,0.01532
1433.06,0.01601
1409.91,0.01520
1386.77,0.01511
1363.62,0.01511
1340.48,0.01467
1317.33,0.01398
1294.19,0.01492
1271.04,0.01646
1247.9,0.01686
1224.75,0.01639
1201.61,0.01552
1178.46,0.01509
1155.32,0.01496
1132.17,0.01494
1109.03,0.01568
1085.88,0.01571
1062.74,0.01641
1039.59,0.01667
1016.45,0.01608
993.304,0.01787
970.159,0.01769
947.014,0.01662
923.869,0.01633
900.724,0.01600
877.579,0.01570
854.434,0.01580
831.289,0.01631
808.144,0.01578
784.999,0.01544
761.854,0.01654
738.709,0.01619
715.565,0.01479
692.42,0.01554
669.275,0.01471
646.13,0.01413
622.985,0.01168
599.84,0.01272