File: 01_Data/Bamboo_Rug/FTIR/IS/Bamboo_Rug_IS_S_220822_R5.dpt
7497.03,0.76721
7473.89,0.76415
7450.74,0.74505
7427.6,0.72961
7404.45,0.72091
7381.31,0.72241
7358.16,0.70915
7335.02,0.69645
7311.87,0.69124
7288.73,0.68462
7265.58,0.69099
7242.44,0.67692
7219.29,0.67298
7196.15,0.66137
7173,0.66115
7149.86,0.63570
7126.71,0.61984
7103.57,0.59085
7080.42,0.57970
7057.28,0.54894
7034.13,0.52675
7010.99,0.51536
6987.84,0.49552
6964.7,0.49329
6941.55,0.48960
6918.41,0.48492
6895.26,0.48107
6872.12,0.48030
6848.97,0.47664
6825.83,0.47906
6802.68,0.47811
6779.54,0.48058
6756.39,0.47302
6733.25,0.48226
6710.1,0.48388
6686.96,0.48592
6663.82,0.49146
6640.67,0.49888
6617.53,0.49653
6594.38,0.50518
6571.24,0.51078
6548.09,0.51504
6524.95,0.51375
6501.8,0.51547
6478.66,0.51703
6455.51,0.52012
6432.37,0.52662
6409.22,0.52200
6386.08,0.52586
6362.93,0.52670
6339.79,0.53056
6316.64,0.52912
6293.5,0.53071
6270.35,0.53829
6247.21,0.54766
6224.06,0.55137
6200.92,0.56144
6177.77,0.56817
6154.63,0.57248
6131.48,0.57598
6108.34,0.57709
6085.19,0.57828
6062.05,0.57570
6038.9,0.57159
6015.76,0.56221
5992.61,0.55793
5969.47,0.55170
5946.32,0.54791
5923.18,0.55059
5900.03,0.54648
5876.89,0.54521
5853.74,0.54436
5830.6,0.54058
5807.45,0.53626
5784.31,0.53934
5761.16,0.54235
5738.02,0.54395
5714.87,0.54491
5691.73,0.54422
5668.58,0.53950
5645.44,0.53977
5622.29,0.53759
5599.15,0.53820
5576,0.54129
5552.86,0.54499
5529.71,0.54720
5506.57,0.54765
5483.42,0.55154
5460.28,0.55376
5437.13,0.55670
5413.99,0.56203
5390.84,0.56331
5367.7,0.56236
5344.55,0.55605
5321.41,0.53996
5298.26,0.50997
5275.12,0.45905
5251.97,0.40961
5228.83,0.37798
5205.68,0.36479
5182.54,0.36607
5159.39,0.37576
5136.25,0.38769
5113.1,0.40251
5089.96,0.41533
5066.81,0.42791
5043.67,0.43866
5020.52,0.44931
4997.38,0.45399
4974.23,0.45064
4951.09,0.44097
4927.94,0.42301
4904.8,0.40313
4881.65,0.38208
4858.51,0.36593
4835.36,0.35098
4812.22,0.34016
4789.07,0.33383
4765.93,0.33216
4742.78,0.33143
4719.64,0.33292
4696.49,0.33428
4673.35,0.34116
4650.2,0.35112
4627.06,0.35849
4603.92,0.36680
4580.77,0.37487
4557.63,0.38035
4534.48,0.38547
4511.34,0.38464
4488.19,0.37521
4465.05,0.34822
4441.9,0.31830
4418.76,0.29931
4395.61,0.29304
4372.47,0.29918
4349.32,0.30059
4326.18,0.29377
4303.03,0.28384
4279.89,0.28114
4256.74,0.28500
4233.6,0.28750
4210.45,0.28915
4187.31,0.29056
4164.16,0.29328
4141.02,0.28715
4117.87,0.27364
4094.73,0.25773
4071.58,0.23959
4048.44,0.22288
4025.29,0.21256
4002.15,0.21173
3979,0.21546
3955.86,0.22302
3932.71,0.23110
3909.57,0.23941
3886.42,0.24810
3863.28,0.25727
3840.13,0.26692
3816.99,0.26961
3793.84,0.26720
3770.7,0.26129
3747.55,0.25223
3724.41,0.23769
3701.26,0.21016
3678.12,0.16230
3654.97,0.11502
3631.83,0.08873
3608.68,0.07132
3585.54,0.06066
3562.39,0.05261
3539.25,0.04698
3516.1,0.04371
3492.96,0.04132
3469.81,0.03962
3446.67,0.03955
3423.52,0.03930
3400.38,0.04004
3377.23,0.04113
3354.09,0.04264
3330.94,0.04362
3307.8,0.04560
3284.65,0.04706
3261.51,0.05023
3238.36,0.05354
3215.22,0.05613
3192.07,0.05981
3168.93,0.06347
3145.78,0.06644
3122.64,0.07043
3099.49,0.07371
3076.35,0.07646
3053.2,0.08001
3030.06,0.08080
3006.91,0.07746
2983.77,0.07104
2960.62,0.06242
2937.48,0.05737
2914.33,0.05753
2891.19,0.05888
2868.04,0.06276
2844.9,0.06951
2821.75,0.08175
2798.61,0.09001
2775.46,0.09382
2752.32,0.09642
2729.17,0.09821
2706.03,0.10246
2682.88,0.10655
2659.74,0.11071
2636.59,0.11417
2613.45,0.11897
2590.3,0.12293
2567.16,0.12517
2544.02,0.12793
2520.87,0.13057
2497.73,0.13410
2474.58,0.13905
2451.44,0.14417
2428.29,0.15080
2405.15,0.15950
2382,0.16631
2358.86,0.17144
2335.71,0.17619
2312.57,0.17759
2289.42,0.17724
2266.28,0.17492
2243.13,0.17069
2219.99,0.17070
2196.84,0.16692
2173.7,0.15628
2150.55,0.14847
2127.41,0.14694
2104.26,0.14919
2081.12,0.15191
2057.97,0.15220
2034.83,0.15522
2011.68,0.16353
1988.54,0.16952
1965.39,0.16977
1942.25,0.17071
1919.1,0.17711
1895.96,0.17733
1872.81,0.17705
1849.67,0.16985
1826.52,0.15696
1803.38,0.13069
1780.23,0.09402
1757.09,0.05380
1733.94,0.04698
1710.8,0.05538
1687.65,0.05992
1664.51,0.05731
1641.36,0.05492
1618.22,0.05342
1595.07,0.05032
1571.93,0.06701
1548.78,0.07272
1525.64,0.06114
1502.49,0.05010
1479.35,0.05141
1456.2,0.04309
1433.06,0.04213
1409.91,0.04521
1386.77,0.04047
1363.62,0.04263
1340.48,0.04164
1317.33,0.04240
1294.19,0.04301
1271.04,0.03798
1247.9,0.03762
1224.75,0.04252
1201.61,0.04129
1178.46,0.03445
1155.32,0.04081
1132.17,0.03337
1109.03,0.04051
1085.88,0.04026
1062.74,0.05733
1039.59,0.06830
1016.45,0.07058
993.304,0.07081
970.159,0.07884
947.014,0.09024
923.869,0.08740
900.724,0.07815
877.579,0.08649
854.434,0.08482
831.289,0.07960
808.144,0.08371
784.999,0.08109
761.854,0.07478
738.709,0.06891
715.565,0.06394
692.42,0.06331
669.275,0.05732
646.13,0.05830
622.985,0.05656
599.84,0.06131