File: 01_Data/Bamboo_Rug/FTIR/IS/Bamboo_Rug_IS_T_220822_R7.dpt
7497.03,0.01884
7473.89,0.02621
7450.74,0.02497
7427.6,0.02053
7404.45,0.01964
7381.31,0.02366
7358.16,0.02484
7335.02,0.02272
7311.87,0.02139
7288.73,0.02491
7265.58,0.01797
7242.44,0.02163
7219.29,0.02205
7196.15,0.02160
7173,0.02780
7149.86,0.02112
7126.71,0.01387
7103.57,0.02186
7080.42,0.01776
7057.28,0.02027
7034.13,0.02285
7010.99,0.01925
6987.84,0.02252
6964.7,0.01791
6941.55,0.02174
6918.41,0.01724
6895.26,0.01449
6872.12,0.01969
6848.97,0.02319
6825.83,0.02133
6802.68,0.01761
6779.54,0.01654
6756.39,0.02484
6733.25,0.01627
6710.1,0.01890
6686.96,0.02130
6663.82,0.02383
6640.67,0.01832
6617.53,0.02073
6594.38,0.01801
6571.24,0.01679
6548.09,0.01866
6524.95,0.01749
6501.8,0.02141
6478.66,0.01895
6455.51,0.01996
6432.37,0.01939
6409.22,0.01902
6386.08,0.01962
6362.93,0.02052
6339.79,0.01684
6316.64,0.01814
6293.5,0.02064
6270.35,0.02078
6247.21,0.02293
6224.06,0.01924
6200.92,0.02057
6177.77,0.01828
6154.63,0.01978
6131.48,0.01835
6108.34,0.01997
6085.19,0.02093
6062.05,0.02141
6038.9,0.01857
6015.76,0.01611
5992.61,0.01904
5969.47,0.01985
5946.32,0.01794
5923.18,0.02040
5900.03,0.01641
5876.89,0.01943
5853.74,0.01666
5830.6,0.01770
5807.45,0.02112
5784.31,0.01869
5761.16,0.02065
5738.02,0.01961
5714.87,0.02037
5691.73,0.01968
5668.58,0.01833
5645.44,0.01884
5622.29,0.01795
5599.15,0.02045
5576,0.01834
5552.86,0.02050
5529.71,0.02030
5506.57,0.01888
5483.42,0.01891
5460.28,0.01823
5437.13,0.01983
5413.99,0.01961
5390.84,0.02073
5367.7,0.01945
5344.55,0.01874
5321.41,0.01931
5298.26,0.01710
5275.12,0.01901
5251.97,0.01857
5228.83,0.02024
5205.68,0.01831
5182.54,0.01965
5159.39,0.01869
5136.25,0.01851
5113.1,0.01970
5089.96,0.01944
5066.81,0.01963
5043.67,0.02055
5020.52,0.01871
4997.38,0.02006
4974.23,0.01998
4951.09,0.02017
4927.94,0.01890
4904.8,0.01992
4881.65,0.02043
4858.51,0.02049
4835.36,0.01977
4812.22,0.02000
4789.07,0.01897
4765.93,0.01905
4742.78,0.01969
4719.64,0.02010
4696.49,0.01945
4673.35,0.01988
4650.2,0.01981
4627.06,0.01882
4603.92,0.02049
4580.77,0.01920
4557.63,0.01962
4534.48,0.01935
4511.34,0.01913
4488.19,0.02004
4465.05,0.01965
4441.9,0.01991
4418.76,0.01989
4395.61,0.01991
4372.47,0.01863
4349.32,0.01996
4326.18,0.02006
4303.03,0.01972
4279.89,0.02050
4256.74,0.01993
4233.6,0.01954
4210.45,0.01980
4187.31,0.01968
4164.16,0.01951
4141.02,0.01995
4117.87,0.02001
4094.73,0.02036
4071.58,0.02002
4048.44,0.02001
4025.29,0.01957
4002.15,0.01998
3979,0.01991
3955.86,0.01947
3932.71,0.01972
3909.57,0.02027
3886.42,0.01952
3863.28,0.02029
3840.13,0.02034
3816.99,0.02074
3793.84,0.01998
3770.7,0.02000
3747.55,0.02071
3724.41,0.02004
3701.26,0.01990
3678.12,0.01892
3654.97,0.01934
3631.83,0.01935
3608.68,0.01871
3585.54,0.01875
3562.39,0.01895
3539.25,0.01925
3516.1,0.01841
3492.96,0.01838
3469.81,0.01816
3446.67,0.01803
3423.52,0.01767
3400.38,0.01833
3377.23,0.01706
3354.09,0.01758
3330.94,0.01743
3307.8,0.01733
3284.65,0.01758
3261.51,0.01747
3238.36,0.01774
3215.22,0.01799
3192.07,0.01763
3168.93,0.01815
3145.78,0.01780
3122.64,0.01816
3099.49,0.01841
3076.35,0.01815
3053.2,0.01811
3030.06,0.01805
3006.91,0.01754
2983.77,0.01734
2960.62,0.01642
2937.48,0.01683
2914.33,0.01762
2891.19,0.01759
2868.04,0.01741
2844.9,0.01847
2821.75,0.01850
2798.61,0.01881
2775.46,0.01822
2752.32,0.01840
2729.17,0.01856
2706.03,0.01825
2682.88,0.01837
2659.74,0.01871
2636.59,0.01868
2613.45,0.01844
2590.3,0.01804
2567.16,0.01869
2544.02,0.01866
2520.87,0.01848
2497.73,0.01828
2474.58,0.01875
2451.44,0.01898
2428.29,0.01844
2405.15,0.01862
2382,0.01808
2358.86,0.01848
2335.71,0.01853
2312.57,0.01827
2289.42,0.01848
2266.28,0.01862
2243.13,0.01880
2219.99,0.01845
2196.84,0.01833
2173.7,0.01819
2150.55,0.01840
2127.41,0.01840
2104.26,0.01842
2081.12,0.01829
2057.97,0.01839
2034.83,0.01783
2011.68,0.01829
1988.54,0.01784
1965.39,0.01822
1942.25,0.01815
1919.1,0.01835
1895.96,0.01806
1872.81,0.01768
1849.67,0.01747
1826.52,0.01747
1803.38,0.01680
1780.23,0.01647
1757.09,0.01494
1733.94,0.01666
1710.8,0.01811
1687.65,0.01679
1664.51,0.01581
1641.36,0.01634
1618.22,0.01592
1595.07,0.01610
1571.93,0.01530
1548.78,0.01582
1525.64,0.01573
1502.49,0.01573
1479.35,0.01601
1456.2,0.01568
1433.06,0.01631
1409.91,0.01548
1386.77,0.01538
1363.62,0.01520
1340.48,0.01474
1317.33,0.01420
1294.19,0.01504
1271.04,0.01671
1247.9,0.01735
1224.75,0.01668
1201.61,0.01573
1178.46,0.01502
1155.32,0.01509
1132.17,0.01528
1109.03,0.01591
1085.88,0.01487
1062.74,0.01771
1039.59,0.01650
1016.45,0.01599
993.304,0.01820
970.159,0.01744
947.014,0.01703
923.869,0.01658
900.724,0.01617
877.579,0.01659
854.434,0.01609
831.289,0.01623
808.144,0.01666
784.999,0.01490
761.854,0.01562
738.709,0.01474
715.565,0.01516
692.42,0.01515
669.275,0.01425
646.13,0.01389
622.985,0.01357
599.84,0.01380