File: 01_Data/Bamboo_Rug/FTIR/IS/Bamboo_Rug_IS_S_220822_R7.dpt
7497.03,0.77648
7473.89,0.76174
7450.74,0.75550
7427.6,0.72945
7404.45,0.72533
7381.31,0.71116
7358.16,0.70636
7335.02,0.69106
7311.87,0.68787
7288.73,0.68752
7265.58,0.68580
7242.44,0.67546
7219.29,0.67821
7196.15,0.67093
7173,0.65584
7149.86,0.63322
7126.71,0.62422
7103.57,0.59603
7080.42,0.57695
7057.28,0.55393
7034.13,0.53267
7010.99,0.51274
6987.84,0.50412
6964.7,0.49342
6941.55,0.48738
6918.41,0.48449
6895.26,0.47947
6872.12,0.48304
6848.97,0.48010
6825.83,0.47975
6802.68,0.48010
6779.54,0.47883
6756.39,0.47988
6733.25,0.48456
6710.1,0.48681
6686.96,0.48955
6663.82,0.48824
6640.67,0.49591
6617.53,0.49912
6594.38,0.50951
6571.24,0.50596
6548.09,0.51565
6524.95,0.51631
6501.8,0.52040
6478.66,0.52001
6455.51,0.52532
6432.37,0.52726
6409.22,0.52221
6386.08,0.52715
6362.93,0.53135
6339.79,0.53224
6316.64,0.53467
6293.5,0.53805
6270.35,0.54106
6247.21,0.55088
6224.06,0.55248
6200.92,0.56331
6177.77,0.56929
6154.63,0.57332
6131.48,0.57446
6108.34,0.57750
6085.19,0.57880
6062.05,0.57722
6038.9,0.57392
6015.76,0.56662
5992.61,0.56054
5969.47,0.55323
5946.32,0.55123
5923.18,0.55486
5900.03,0.54969
5876.89,0.54861
5853.74,0.54969
5830.6,0.54265
5807.45,0.53425
5784.31,0.54207
5761.16,0.54536
5738.02,0.54721
5714.87,0.55015
5691.73,0.54525
5668.58,0.54295
5645.44,0.53967
5622.29,0.54161
5599.15,0.54013
5576,0.54113
5552.86,0.54653
5529.71,0.54752
5506.57,0.55019
5483.42,0.55094
5460.28,0.55277
5437.13,0.56014
5413.99,0.56501
5390.84,0.56619
5367.7,0.56297
5344.55,0.55911
5321.41,0.54302
5298.26,0.51153
5275.12,0.46600
5251.97,0.41422
5228.83,0.38310
5205.68,0.37074
5182.54,0.37098
5159.39,0.38060
5136.25,0.39416
5113.1,0.40866
5089.96,0.42035
5066.81,0.43400
5043.67,0.44619
5020.52,0.45378
4997.38,0.45720
4974.23,0.45599
4951.09,0.44358
4927.94,0.42427
4904.8,0.40506
4881.65,0.38526
4858.51,0.36645
4835.36,0.35116
4812.22,0.34127
4789.07,0.33664
4765.93,0.33330
4742.78,0.33173
4719.64,0.33407
4696.49,0.33668
4673.35,0.34284
4650.2,0.35172
4627.06,0.36016
4603.92,0.36855
4580.77,0.37666
4557.63,0.38113
4534.48,0.38655
4511.34,0.38708
4488.19,0.37522
4465.05,0.34935
4441.9,0.31997
4418.76,0.29956
4395.61,0.29489
4372.47,0.30052
4349.32,0.30063
4326.18,0.29377
4303.03,0.28490
4279.89,0.28259
4256.74,0.28558
4233.6,0.28852
4210.45,0.29062
4187.31,0.29163
4164.16,0.29475
4141.02,0.28868
4117.87,0.27508
4094.73,0.25931
4071.58,0.24006
4048.44,0.22443
4025.29,0.21413
4002.15,0.21300
3979,0.21688
3955.86,0.22468
3932.71,0.23272
3909.57,0.24188
3886.42,0.25034
3863.28,0.25906
3840.13,0.26903
3816.99,0.27128
3793.84,0.26949
3770.7,0.26417
3747.55,0.25525
3724.41,0.24122
3701.26,0.21340
3678.12,0.16611
3654.97,0.11775
3631.83,0.09020
3608.68,0.07346
3585.54,0.06050
3562.39,0.05314
3539.25,0.04732
3516.1,0.04400
3492.96,0.04166
3469.81,0.03976
3446.67,0.03916
3423.52,0.03948
3400.38,0.04055
3377.23,0.04103
3354.09,0.04194
3330.94,0.04387
3307.8,0.04590
3284.65,0.04801
3261.51,0.05056
3238.36,0.05326
3215.22,0.05607
3192.07,0.05972
3168.93,0.06285
3145.78,0.06720
3122.64,0.07042
3099.49,0.07416
3076.35,0.07710
3053.2,0.08053
3030.06,0.08127
3006.91,0.07832
2983.77,0.07202
2960.62,0.06218
2937.48,0.05699
2914.33,0.05747
2891.19,0.05883
2868.04,0.06213
2844.9,0.06969
2821.75,0.08203
2798.61,0.08984
2775.46,0.09473
2752.32,0.09696
2729.17,0.09878
2706.03,0.10295
2682.88,0.10739
2659.74,0.11134
2636.59,0.11488
2613.45,0.11948
2590.3,0.12366
2567.16,0.12628
2544.02,0.12806
2520.87,0.13118
2497.73,0.13502
2474.58,0.14010
2451.44,0.14459
2428.29,0.15152
2405.15,0.16043
2382,0.16775
2358.86,0.17286
2335.71,0.17768
2312.57,0.17938
2289.42,0.17872
2266.28,0.17620
2243.13,0.17181
2219.99,0.17198
2196.84,0.16824
2173.7,0.15759
2150.55,0.15000
2127.41,0.14803
2104.26,0.15076
2081.12,0.15388
2057.97,0.15375
2034.83,0.15654
2011.68,0.16518
1988.54,0.17121
1965.39,0.17113
1942.25,0.17248
1919.1,0.17859
1895.96,0.17911
1872.81,0.17864
1849.67,0.17108
1826.52,0.15748
1803.38,0.13141
1780.23,0.09419
1757.09,0.05376
1733.94,0.04710
1710.8,0.05568
1687.65,0.06053
1664.51,0.05760
1641.36,0.05514
1618.22,0.05345
1595.07,0.05052
1571.93,0.06699
1548.78,0.07306
1525.64,0.06155
1502.49,0.04986
1479.35,0.05101
1456.2,0.04278
1433.06,0.04201
1409.91,0.04472
1386.77,0.04039
1363.62,0.04266
1340.48,0.04106
1317.33,0.04201
1294.19,0.04322
1271.04,0.03803
1247.9,0.03778
1224.75,0.04204
1201.61,0.04191
1178.46,0.03388
1155.32,0.04088
1132.17,0.03338
1109.03,0.04066
1085.88,0.04020
1062.74,0.05655
1039.59,0.06797
1016.45,0.07040
993.304,0.07090
970.159,0.07903
947.014,0.09019
923.869,0.08688
900.724,0.07850
877.579,0.08662
854.434,0.08502
831.289,0.08109
808.144,0.08437
784.999,0.08218
761.854,0.07542
738.709,0.06902
715.565,0.06407
692.42,0.06348
669.275,0.05915
646.13,0.05873
622.985,0.05734
599.84,0.06318