File: 01_Data/Bamboo_Rug/FTIR/IS/Bamboo_Rug_IS_T_220822_R8.dpt
7497.03,0.03386
7473.89,0.02653
7450.74,0.01960
7427.6,0.02333
7404.45,0.01778
7381.31,0.02330
7358.16,0.01883
7335.02,0.01967
7311.87,0.02637
7288.73,0.01640
7265.58,0.02070
7242.44,0.02754
7219.29,0.02611
7196.15,0.01467
7173,0.02505
7149.86,0.01677
7126.71,0.01637
7103.57,0.02376
7080.42,0.02450
7057.28,0.01920
7034.13,0.01851
7010.99,0.02257
6987.84,0.02040
6964.7,0.01852
6941.55,0.02112
6918.41,0.01566
6895.26,0.02099
6872.12,0.02200
6848.97,0.01785
6825.83,0.02497
6802.68,0.02330
6779.54,0.02255
6756.39,0.01754
6733.25,0.01695
6710.1,0.02446
6686.96,0.02094
6663.82,0.02069
6640.67,0.01988
6617.53,0.01796
6594.38,0.02239
6571.24,0.02105
6548.09,0.01728
6524.95,0.01759
6501.8,0.01612
6478.66,0.01972
6455.51,0.02221
6432.37,0.01836
6409.22,0.01940
6386.08,0.02186
6362.93,0.01888
6339.79,0.02044
6316.64,0.01913
6293.5,0.01669
6270.35,0.01989
6247.21,0.01940
6224.06,0.02182
6200.92,0.01788
6177.77,0.01897
6154.63,0.01932
6131.48,0.01729
6108.34,0.01900
6085.19,0.01809
6062.05,0.01713
6038.9,0.01611
6015.76,0.01622
5992.61,0.01768
5969.47,0.01835
5946.32,0.01771
5923.18,0.01775
5900.03,0.02213
5876.89,0.01792
5853.74,0.01963
5830.6,0.01870
5807.45,0.01729
5784.31,0.01827
5761.16,0.01657
5738.02,0.01816
5714.87,0.01947
5691.73,0.01883
5668.58,0.01973
5645.44,0.01936
5622.29,0.01947
5599.15,0.01982
5576,0.01924
5552.86,0.02121
5529.71,0.01745
5506.57,0.02096
5483.42,0.01887
5460.28,0.01894
5437.13,0.01754
5413.99,0.01865
5390.84,0.01740
5367.7,0.02049
5344.55,0.02029
5321.41,0.01945
5298.26,0.02144
5275.12,0.02052
5251.97,0.02056
5228.83,0.01756
5205.68,0.01895
5182.54,0.01993
5159.39,0.02008
5136.25,0.01956
5113.1,0.01959
5089.96,0.02023
5066.81,0.01903
5043.67,0.01836
5020.52,0.02003
4997.38,0.01920
4974.23,0.01858
4951.09,0.01936
4927.94,0.01870
4904.8,0.02017
4881.65,0.01897
4858.51,0.02007
4835.36,0.01890
4812.22,0.01885
4789.07,0.01927
4765.93,0.01961
4742.78,0.01900
4719.64,0.02029
4696.49,0.01931
4673.35,0.01929
4650.2,0.02010
4627.06,0.02073
4603.92,0.02034
4580.77,0.01957
4557.63,0.01952
4534.48,0.01909
4511.34,0.02022
4488.19,0.01894
4465.05,0.01988
4441.9,0.01924
4418.76,0.01914
4395.61,0.01998
4372.47,0.01877
4349.32,0.01965
4326.18,0.01965
4303.03,0.01979
4279.89,0.01966
4256.74,0.01942
4233.6,0.02008
4210.45,0.02009
4187.31,0.01948
4164.16,0.02024
4141.02,0.01992
4117.87,0.01983
4094.73,0.01984
4071.58,0.01996
4048.44,0.01977
4025.29,0.02029
4002.15,0.01977
3979,0.01970
3955.86,0.02034
3932.71,0.01979
3909.57,0.01985
3886.42,0.02020
3863.28,0.02075
3840.13,0.02083
3816.99,0.01930
3793.84,0.01994
3770.7,0.01957
3747.55,0.02006
3724.41,0.01969
3701.26,0.01978
3678.12,0.02039
3654.97,0.01952
3631.83,0.01900
3608.68,0.01871
3585.54,0.01936
3562.39,0.01842
3539.25,0.01823
3516.1,0.01810
3492.96,0.01836
3469.81,0.01826
3446.67,0.01721
3423.52,0.01813
3400.38,0.01721
3377.23,0.01736
3354.09,0.01671
3330.94,0.01771
3307.8,0.01769
3284.65,0.01777
3261.51,0.01824
3238.36,0.01794
3215.22,0.01782
3192.07,0.01790
3168.93,0.01789
3145.78,0.01819
3122.64,0.01766
3099.49,0.01767
3076.35,0.01803
3053.2,0.01704
3030.06,0.01781
3006.91,0.01777
2983.77,0.01674
2960.62,0.01642
2937.48,0.01728
2914.33,0.01735
2891.19,0.01766
2868.04,0.01770
2844.9,0.01810
2821.75,0.01863
2798.61,0.01827
2775.46,0.01846
2752.32,0.01826
2729.17,0.01866
2706.03,0.01885
2682.88,0.01840
2659.74,0.01889
2636.59,0.01875
2613.45,0.01856
2590.3,0.01839
2567.16,0.01831
2544.02,0.01853
2520.87,0.01858
2497.73,0.01857
2474.58,0.01890
2451.44,0.01833
2428.29,0.01835
2405.15,0.01841
2382,0.01828
2358.86,0.01833
2335.71,0.01837
2312.57,0.01822
2289.42,0.01842
2266.28,0.01816
2243.13,0.01855
2219.99,0.01834
2196.84,0.01865
2173.7,0.01793
2150.55,0.01858
2127.41,0.01812
2104.26,0.01823
2081.12,0.01805
2057.97,0.01834
2034.83,0.01806
2011.68,0.01832
1988.54,0.01832
1965.39,0.01839
1942.25,0.01826
1919.1,0.01784
1895.96,0.01744
1872.81,0.01774
1849.67,0.01768
1826.52,0.01724
1803.38,0.01710
1780.23,0.01643
1757.09,0.01525
1733.94,0.01673
1710.8,0.01777
1687.65,0.01658
1664.51,0.01607
1641.36,0.01569
1618.22,0.01644
1595.07,0.01605
1571.93,0.01566
1548.78,0.01498
1525.64,0.01617
1502.49,0.01574
1479.35,0.01583
1456.2,0.01559
1433.06,0.01586
1409.91,0.01581
1386.77,0.01532
1363.62,0.01527
1340.48,0.01512
1317.33,0.01389
1294.19,0.01533
1271.04,0.01662
1247.9,0.01736
1224.75,0.01634
1201.61,0.01560
1178.46,0.01560
1155.32,0.01423
1132.17,0.01559
1109.03,0.01593
1085.88,0.01465
1062.74,0.01641
1039.59,0.01636
1016.45,0.01668
993.304,0.01854
970.159,0.01765
947.014,0.01705
923.869,0.01684
900.724,0.01594
877.579,0.01559
854.434,0.01609
831.289,0.01695
808.144,0.01615
784.999,0.01545
761.854,0.01602
738.709,0.01554
715.565,0.01584
692.42,0.01522
669.275,0.01476
646.13,0.01330
622.985,0.01316
599.84,0.01307