File: 01_Data/Bamboo_Rug/FTIR/IS/Bamboo_Rug_IS_S_220822_R2.dpt
7497.03,0.77215
7473.89,0.75583
7450.74,0.73769
7427.6,0.73603
7404.45,0.72017
7381.31,0.71943
7358.16,0.70532
7335.02,0.69131
7311.87,0.69057
7288.73,0.68045
7265.58,0.68055
7242.44,0.67821
7219.29,0.68325
7196.15,0.65931
7173,0.64566
7149.86,0.63232
7126.71,0.60896
7103.57,0.59214
7080.42,0.56941
7057.28,0.54622
7034.13,0.52911
7010.99,0.50519
6987.84,0.49567
6964.7,0.49238
6941.55,0.48444
6918.41,0.48230
6895.26,0.47774
6872.12,0.47689
6848.97,0.47548
6825.83,0.47355
6802.68,0.47658
6779.54,0.47311
6756.39,0.47324
6733.25,0.48277
6710.1,0.48507
6686.96,0.48697
6663.82,0.49092
6640.67,0.49312
6617.53,0.49916
6594.38,0.49877
6571.24,0.50557
6548.09,0.51111
6524.95,0.50997
6501.8,0.51454
6478.66,0.51915
6455.51,0.51631
6432.37,0.52212
6409.22,0.52354
6386.08,0.52204
6362.93,0.52469
6339.79,0.52794
6316.64,0.52838
6293.5,0.53274
6270.35,0.53962
6247.21,0.54579
6224.06,0.55221
6200.92,0.55557
6177.77,0.56203
6154.63,0.57002
6131.48,0.57244
6108.34,0.57880
6085.19,0.57601
6062.05,0.57619
6038.9,0.56979
6015.76,0.56684
5992.61,0.55767
5969.47,0.55650
5946.32,0.55002
5923.18,0.55204
5900.03,0.54877
5876.89,0.54570
5853.74,0.54569
5830.6,0.53953
5807.45,0.53676
5784.31,0.54077
5761.16,0.54547
5738.02,0.54689
5714.87,0.54665
5691.73,0.54417
5668.58,0.53989
5645.44,0.53944
5622.29,0.53879
5599.15,0.53818
5576,0.54138
5552.86,0.54592
5529.71,0.54674
5506.57,0.54832
5483.42,0.54939
5460.28,0.55311
5437.13,0.55702
5413.99,0.56382
5390.84,0.56441
5367.7,0.56218
5344.55,0.55449
5321.41,0.53770
5298.26,0.50467
5275.12,0.45334
5251.97,0.40031
5228.83,0.36725
5205.68,0.35681
5182.54,0.35585
5159.39,0.36562
5136.25,0.38033
5113.1,0.39234
5089.96,0.40727
5066.81,0.41966
5043.67,0.43166
5020.52,0.44284
4997.38,0.44864
4974.23,0.44808
4951.09,0.43867
4927.94,0.42093
4904.8,0.40223
4881.65,0.38161
4858.51,0.36416
4835.36,0.34940
4812.22,0.34054
4789.07,0.33525
4765.93,0.33161
4742.78,0.33129
4719.64,0.33231
4696.49,0.33559
4673.35,0.34079
4650.2,0.35028
4627.06,0.35764
4603.92,0.36807
4580.77,0.37445
4557.63,0.37925
4534.48,0.38440
4511.34,0.38489
4488.19,0.37400
4465.05,0.34771
4441.9,0.31828
4418.76,0.29815
4395.61,0.29367
4372.47,0.29936
4349.32,0.30071
4326.18,0.29377
4303.03,0.28380
4279.89,0.28221
4256.74,0.28527
4233.6,0.28700
4210.45,0.28909
4187.31,0.28901
4164.16,0.29175
4141.02,0.28599
4117.87,0.27295
4094.73,0.25704
4071.58,0.23889
4048.44,0.22179
4025.29,0.21199
4002.15,0.21020
3979,0.21511
3955.86,0.22202
3932.71,0.23007
3909.57,0.23879
3886.42,0.24696
3863.28,0.25603
3840.13,0.26409
3816.99,0.26598
3793.84,0.26420
3770.7,0.25792
3747.55,0.24807
3724.41,0.23254
3701.26,0.20461
3678.12,0.15627
3654.97,0.10857
3631.83,0.08390
3608.68,0.06888
3585.54,0.05867
3562.39,0.05172
3539.25,0.04697
3516.1,0.04291
3492.96,0.04211
3469.81,0.03916
3446.67,0.03883
3423.52,0.03943
3400.38,0.04007
3377.23,0.04059
3354.09,0.04223
3330.94,0.04406
3307.8,0.04554
3284.65,0.04732
3261.51,0.04946
3238.36,0.05248
3215.22,0.05585
3192.07,0.05860
3168.93,0.06167
3145.78,0.06555
3122.64,0.06928
3099.49,0.07244
3076.35,0.07527
3053.2,0.07888
3030.06,0.08042
3006.91,0.07721
2983.77,0.07146
2960.62,0.06215
2937.48,0.05705
2914.33,0.05724
2891.19,0.05842
2868.04,0.06211
2844.9,0.06932
2821.75,0.08195
2798.61,0.08999
2775.46,0.09317
2752.32,0.09612
2729.17,0.09806
2706.03,0.10170
2682.88,0.10613
2659.74,0.11014
2636.59,0.11402
2613.45,0.11832
2590.3,0.12197
2567.16,0.12496
2544.02,0.12711
2520.87,0.12956
2497.73,0.13373
2474.58,0.13865
2451.44,0.14368
2428.29,0.15063
2405.15,0.15910
2382,0.16568
2358.86,0.17007
2335.71,0.17529
2312.57,0.17628
2289.42,0.17528
2266.28,0.17336
2243.13,0.16872
2219.99,0.16811
2196.84,0.16457
2173.7,0.15417
2150.55,0.14686
2127.41,0.14484
2104.26,0.14699
2081.12,0.14987
2057.97,0.15030
2034.83,0.15282
2011.68,0.16118
1988.54,0.16714
1965.39,0.16714
1942.25,0.16864
1919.1,0.17524
1895.96,0.17569
1872.81,0.17502
1849.67,0.16791
1826.52,0.15537
1803.38,0.12993
1780.23,0.09413
1757.09,0.05397
1733.94,0.04685
1710.8,0.05526
1687.65,0.05917
1664.51,0.05645
1641.36,0.05443
1618.22,0.05308
1595.07,0.05046
1571.93,0.06596
1548.78,0.07190
1525.64,0.06067
1502.49,0.05017
1479.35,0.05124
1456.2,0.04293
1433.06,0.04211
1409.91,0.04509
1386.77,0.04028
1363.62,0.04247
1340.48,0.04124
1317.33,0.04257
1294.19,0.04377
1271.04,0.03779
1247.9,0.03789
1224.75,0.04193
1201.61,0.04122
1178.46,0.03391
1155.32,0.04119
1132.17,0.03331
1109.03,0.04076
1085.88,0.04068
1062.74,0.05633
1039.59,0.06835
1016.45,0.07043
993.304,0.07021
970.159,0.07875
947.014,0.09020
923.869,0.08689
900.724,0.07784
877.579,0.08568
854.434,0.08415
831.289,0.07964
808.144,0.08309
784.999,0.08013
761.854,0.07277
738.709,0.06742
715.565,0.06286
692.42,0.06127
669.275,0.05812
646.13,0.05934
622.985,0.05629
599.84,0.06085