File: 01_Data/Bamboo_Rug/FTIR/IS/Bamboo_Rug_IS_S_220822_R1.dpt
7497.03,0.76518
7473.89,0.75446
7450.74,0.73744
7427.6,0.72678
7404.45,0.72496
7381.31,0.71115
7358.16,0.69905
7335.02,0.69545
7311.87,0.68544
7288.73,0.67945
7265.58,0.67995
7242.44,0.67679
7219.29,0.66597
7196.15,0.65275
7173,0.64364
7149.86,0.62770
7126.71,0.60659
7103.57,0.58575
7080.42,0.56505
7057.28,0.54211
7034.13,0.52642
7010.99,0.50340
6987.84,0.48827
6964.7,0.48879
6941.55,0.47978
6918.41,0.47728
6895.26,0.47410
6872.12,0.47342
6848.97,0.47593
6825.83,0.47046
6802.68,0.46878
6779.54,0.47255
6756.39,0.47285
6733.25,0.47424
6710.1,0.47713
6686.96,0.47911
6663.82,0.48604
6640.67,0.48706
6617.53,0.49427
6594.38,0.50128
6571.24,0.50273
6548.09,0.50552
6524.95,0.50837
6501.8,0.51071
6478.66,0.51325
6455.51,0.51558
6432.37,0.51786
6409.22,0.51907
6386.08,0.51874
6362.93,0.52292
6339.79,0.52287
6316.64,0.52454
6293.5,0.53172
6270.35,0.53547
6247.21,0.53830
6224.06,0.54686
6200.92,0.55760
6177.77,0.56007
6154.63,0.56868
6131.48,0.56879
6108.34,0.57208
6085.19,0.57227
6062.05,0.56920
6038.9,0.56586
6015.76,0.56174
5992.61,0.55423
5969.47,0.54970
5946.32,0.54952
5923.18,0.54743
5900.03,0.54401
5876.89,0.54718
5853.74,0.54294
5830.6,0.53731
5807.45,0.53344
5784.31,0.53602
5761.16,0.54093
5738.02,0.54263
5714.87,0.54248
5691.73,0.53992
5668.58,0.53698
5645.44,0.53626
5622.29,0.53360
5599.15,0.53312
5576,0.53717
5552.86,0.54179
5529.71,0.54182
5506.57,0.54360
5483.42,0.54452
5460.28,0.54935
5437.13,0.55384
5413.99,0.55913
5390.84,0.55953
5367.7,0.55549
5344.55,0.55102
5321.41,0.53209
5298.26,0.49904
5275.12,0.44516
5251.97,0.39083
5228.83,0.35827
5205.68,0.34510
5182.54,0.34616
5159.39,0.35442
5136.25,0.36747
5113.1,0.38402
5089.96,0.39706
5066.81,0.40934
5043.67,0.42360
5020.52,0.43373
4997.38,0.44097
4974.23,0.44202
4951.09,0.43222
4927.94,0.41658
4904.8,0.39728
4881.65,0.37730
4858.51,0.36195
4835.36,0.34656
4812.22,0.33773
4789.07,0.33281
4765.93,0.32839
4742.78,0.32860
4719.64,0.32890
4696.49,0.33122
4673.35,0.33717
4650.2,0.34730
4627.06,0.35512
4603.92,0.36458
4580.77,0.37088
4557.63,0.37649
4534.48,0.38134
4511.34,0.38098
4488.19,0.37043
4465.05,0.34411
4441.9,0.31621
4418.76,0.29715
4395.61,0.29143
4372.47,0.29682
4349.32,0.29853
4326.18,0.29067
4303.03,0.28254
4279.89,0.27930
4256.74,0.28247
4233.6,0.28427
4210.45,0.28579
4187.31,0.28716
4164.16,0.28972
4141.02,0.28209
4117.87,0.26880
4094.73,0.25399
4071.58,0.23543
4048.44,0.21970
4025.29,0.20939
4002.15,0.20841
3979,0.21211
3955.86,0.21954
3932.71,0.22750
3909.57,0.23560
3886.42,0.24402
3863.28,0.25243
3840.13,0.25974
3816.99,0.26117
3793.84,0.25837
3770.7,0.25243
3747.55,0.24222
3724.41,0.22617
3701.26,0.19684
3678.12,0.14963
3654.97,0.10351
3631.83,0.07991
3608.68,0.06598
3585.54,0.05662
3562.39,0.05002
3539.25,0.04609
3516.1,0.04328
3492.96,0.04084
3469.81,0.03978
3446.67,0.03852
3423.52,0.03902
3400.38,0.04013
3377.23,0.04106
3354.09,0.04210
3330.94,0.04385
3307.8,0.04547
3284.65,0.04675
3261.51,0.04939
3238.36,0.05308
3215.22,0.05499
3192.07,0.05808
3168.93,0.06119
3145.78,0.06444
3122.64,0.06831
3099.49,0.07165
3076.35,0.07410
3053.2,0.07702
3030.06,0.07887
3006.91,0.07661
2983.77,0.07068
2960.62,0.06231
2937.48,0.05716
2914.33,0.05723
2891.19,0.05870
2868.04,0.06201
2844.9,0.06867
2821.75,0.08064
2798.61,0.08823
2775.46,0.09264
2752.32,0.09495
2729.17,0.09652
2706.03,0.10041
2682.88,0.10492
2659.74,0.10897
2636.59,0.11214
2613.45,0.11684
2590.3,0.12094
2567.16,0.12372
2544.02,0.12586
2520.87,0.12839
2497.73,0.13232
2474.58,0.13697
2451.44,0.14199
2428.29,0.14885
2405.15,0.15669
2382,0.16310
2358.86,0.16815
2335.71,0.17234
2312.57,0.17373
2289.42,0.17232
2266.28,0.17040
2243.13,0.16559
2219.99,0.16484
2196.84,0.16103
2173.7,0.15084
2150.55,0.14345
2127.41,0.14148
2104.26,0.14399
2081.12,0.14705
2057.97,0.14696
2034.83,0.15001
2011.68,0.15758
1988.54,0.16388
1965.39,0.16407
1942.25,0.16540
1919.1,0.17163
1895.96,0.17265
1872.81,0.17217
1849.67,0.16532
1826.52,0.15271
1803.38,0.12851
1780.23,0.09385
1757.09,0.05416
1733.94,0.04619
1710.8,0.05453
1687.65,0.05876
1664.51,0.05533
1641.36,0.05375
1618.22,0.05316
1595.07,0.05044
1571.93,0.06555
1548.78,0.07083
1525.64,0.06074
1502.49,0.04970
1479.35,0.05085
1456.2,0.04286
1433.06,0.04197
1409.91,0.04489
1386.77,0.04071
1363.62,0.04220
1340.48,0.04151
1317.33,0.04218
1294.19,0.04289
1271.04,0.03775
1247.9,0.03798
1224.75,0.04253
1201.61,0.04141
1178.46,0.03411
1155.32,0.04039
1132.17,0.03344
1109.03,0.04090
1085.88,0.04040
1062.74,0.05569
1039.59,0.06726
1016.45,0.07022
993.304,0.07007
970.159,0.07808
947.014,0.08906
923.869,0.08592
900.724,0.07763
877.579,0.08446
854.434,0.08244
831.289,0.07790
808.144,0.08077
784.999,0.07830
761.854,0.07171
738.709,0.06598
715.565,0.06191
692.42,0.06211
669.275,0.05759
646.13,0.05849
622.985,0.05527
599.84,0.05973