File: 01_Data/Memory_Foam_Carpet_Pad/Cone/Memory_Foam_Carpet_Pad_HRRPUA_25.csv
Time after Ignition,Memory_Foam_Carpet_Pad_R1,Memory_Foam_Carpet_Pad_R2,Memory_Foam_Carpet_Pad_R3,Mean,Std. Dev.
0.0,35.1,25.3,21.4,27.3,7.0
0.5,41.8,33.8,33.4,36.3,4.8
1.0,55.1,44.3,45.5,48.3,5.9
1.5,67.4,52.1,61.5,60.3,7.7
2.0,79.9,58.3,75.6,71.2,11.4
2.5,94.4,71.3,90.2,85.3,12.3
3.0,103.3,81.9,100.8,95.4,11.7
3.5,116.8,91.9,113.9,107.5,13.6
4.0,128.2,102.1,123.7,118.0,14.0
4.5,134.7,116.0,135.4,128.7,11.0
5.0,146.0,123.4,142.0,137.2,12.1
5.5,155.5,139.1,146.0,146.9,8.2
6.0,163.6,146.5,155.7,155.2,8.6
6.5,167.0,158.6,155.2,160.3,6.1
7.0,172.5,164.3,166.2,167.7,4.3
7.5,177.9,169.9,168.7,172.2,5.0
8.0,184.1,179.6,172.4,178.7,5.9
8.5,187.0,182.3,177.2,182.2,4.9
9.0,192.4,187.0,180.4,186.6,6.0
9.5,193.4,188.9,186.5,189.6,3.5
10.0,195.1,193.9,188.1,192.4,3.7
10.5,197.9,196.0,189.5,194.5,4.4
11.0,201.3,199.6,194.8,198.6,3.4
11.5,201.0,202.1,198.3,200.5,2.0
12.0,208.4,204.7,203.9,205.7,2.4
12.5,206.0,210.0,205.9,207.3,2.3
13.0,209.6,208.2,207.7,208.5,1.0
13.5,210.7,214.1,210.2,211.7,2.1
14.0,213.4,214.0,214.8,214.1,0.7
14.5,212.9,220.4,215.3,216.2,3.8
15.0,213.8,220.6,217.0,217.1,3.4
15.5,221.9,228.2,218.3,222.8,5.0
16.0,218.6,224.8,218.4,220.6,3.7
16.5,221.1,228.3,223.4,224.3,3.7
17.0,225.0,227.3,221.1,224.4,3.1
17.5,225.0,226.8,229.4,227.1,2.2
18.0,229.9,233.9,228.1,230.7,3.0
18.5,230.4,235.1,229.7,231.7,3.0
19.0,237.0,236.4,232.8,235.4,2.3
19.5,238.3,235.8,236.7,236.9,1.3
20.0,238.4,236.4,240.4,238.4,2.0
20.5,243.2,240.0,236.9,240.0,3.1
21.0,241.5,240.1,244.2,241.9,2.1
21.5,244.8,244.3,246.7,245.2,1.3
22.0,251.2,247.8,248.8,249.3,1.8
22.5,252.9,253.0,252.3,252.7,0.4
23.0,256.2,248.7,259.3,254.7,5.5
23.5,259.0,255.8,258.2,257.7,1.7
24.0,272.5,262.9,267.1,267.5,4.8
24.5,267.2,261.3,267.6,265.4,3.5
25.0,270.8,267.0,273.1,270.3,3.1
25.5,271.7,270.7,276.6,273.0,3.1
26.0,276.5,270.3,278.9,275.2,4.4
26.5,280.4,274.9,286.6,280.6,5.9
27.0,281.8,281.6,294.4,285.9,7.3
27.5,285.0,286.1,294.6,288.6,5.2
28.0,293.9,282.7,306.0,294.2,11.6
28.5,287.3,294.0,305.1,295.5,9.0
29.0,292.3,285.9,308.3,295.5,11.5
29.5,293.0,298.5,306.1,299.2,6.6
30.0,304.0,302.1,324.1,310.1,12.2
30.5,305.4,305.5,313.3,308.0,4.5
31.0,307.7,303.8,327.3,312.9,12.6
31.5,308.3,307.4,330.2,315.3,12.9
32.0,319.6,318.9,332.6,323.7,7.7
32.5,314.4,307.1,337.4,319.6,15.9
33.0,323.0,314.8,338.1,325.3,11.8
33.5,323.2,315.8,340.1,326.4,12.4
34.0,327.9,328.2,340.1,332.1,7.0
34.5,322.2,329.6,345.3,332.4,11.8
35.0,322.4,332.7,351.0,335.4,14.5
35.5,334.1,334.3,348.2,338.9,8.1
36.0,328.9,335.9,347.9,337.6,9.6
36.5,329.2,336.9,345.3,337.2,8.0
37.0,335.4,337.8,354.7,342.6,10.5
37.5,339.9,335.0,368.8,347.9,18.3
38.0,339.3,345.5,356.0,346.9,8.5
38.5,340.1,354.5,364.7,353.1,12.4
39.0,344.7,346.2,371.4,354.1,15.0
39.5,350.9,356.2,369.8,359.0,9.7
40.0,361.6,361.7,380.9,368.1,11.1
40.5,360.3,366.7,373.8,366.9,6.7
41.0,367.8,364.6,380.3,370.9,8.3
41.5,365.8,369.6,382.6,372.6,8.8
42.0,376.8,374.4,392.1,381.1,9.6
42.5,388.8,382.8,392.1,387.9,4.7
43.0,393.3,379.5,397.1,390.0,9.3
43.5,388.3,396.8,398.3,394.4,5.4
44.0,391.7,398.1,407.1,398.9,7.7
44.5,392.8,402.8,399.2,398.3,5.0
45.0,399.4,410.4,401.1,403.6,5.9
45.5,401.9,412.6,414.5,409.6,6.8
46.0,418.7,417.6,429.4,421.9,6.5
46.5,425.0,432.7,424.7,427.5,4.5
47.0,425.7,424.6,430.0,426.8,2.8
47.5,437.6,431.9,431.5,433.6,3.4
48.0,442.9,439.6,428.2,436.9,7.7
48.5,444.4,442.8,448.0,445.1,2.7
49.0,459.3,447.9,442.4,449.9,8.6
49.5,457.4,466.0,448.1,457.2,9.0
50.0,475.0,464.3,453.9,464.4,10.6
50.5,463.8,461.1,469.1,464.7,4.1
51.0,470.7,480.9,469.7,473.8,6.2
51.5,470.6,469.0,481.8,473.8,7.0
52.0,475.4,483.4,500.3,486.4,12.7
52.5,488.9,474.8,495.1,486.3,10.4
53.0,500.6,488.9,507.8,499.1,9.6
53.5,507.0,505.8,501.7,504.8,2.8
54.0,522.4,496.4,509.6,509.4,13.0
54.5,512.9,522.8,509.4,515.0,6.9
55.0,518.7,521.8,533.0,524.5,7.5
55.5,530.4,530.3,527.1,529.3,1.9
56.0,525.5,519.8,532.7,526.0,6.5
56.5,546.5,545.2,543.0,544.9,1.8
57.0,539.5,541.5,560.0,547.0,11.3
57.5,551.3,534.5,525.0,536.9,13.3
58.0,574.4,544.2,560.4,559.7,15.1
58.5,550.4,558.1,558.4,555.6,4.5
59.0,555.3,550.0,579.2,561.5,15.6
59.5,589.5,562.4,570.0,573.9,14.0
60.0,567.8,564.4,570.1,567.4,2.9
60.5,594.3,587.6,588.9,590.2,3.6
61.0,573.1,580.6,590.6,581.5,8.8
61.5,581.1,574.0,580.4,578.5,3.9
62.0,561.6,586.8,599.6,582.6,19.3
62.5,583.5,594.7,616.7,598.3,16.9
63.0,588.8,613.0,620.0,607.3,16.3
63.5,614.4,577.8,621.2,604.5,23.4
64.0,595.3,592.4,609.4,599.0,9.1
64.5,604.9,599.0,600.3,601.4,3.1
65.0,603.5,626.0,616.3,615.3,11.2
65.5,601.5,600.5,631.7,611.2,17.7
66.0,606.8,592.0,637.0,611.9,22.9
66.5,621.5,617.9,637.6,625.7,10.5
67.0,611.8,629.7,617.3,619.6,9.2
67.5,602.0,633.3,647.8,627.7,23.4
68.0,600.1,630.7,637.3,622.7,19.8
68.5,609.0,636.0,624.0,623.0,13.5
69.0,619.4,636.0,634.1,629.8,9.1
69.5,635.3,634.4,637.1,635.6,1.4
70.0,625.5,632.9,654.7,637.7,15.2
70.5,621.6,638.8,642.9,634.5,11.3
71.0,652.4,599.3,652.8,634.8,30.8
71.5,630.3,639.0,655.3,641.5,12.7
72.0,637.4,653.7,658.1,649.8,10.9
72.5,643.6,667.0,668.3,659.6,13.9
73.0,626.8,665.1,642.2,644.7,19.3
73.5,660.0,643.8,649.1,651.0,8.3
74.0,623.0,647.3,656.6,642.3,17.3
74.5,643.9,636.4,663.5,647.9,14.0
75.0,639.4,665.3,659.7,654.8,13.7
75.5,647.1,654.1,657.6,652.9,5.4
76.0,627.1,649.3,660.6,645.6,17.1
76.5,636.0,631.5,662.3,643.3,16.6
77.0,621.6,659.0,636.3,639.0,18.9
77.5,636.1,679.8,649.9,655.3,22.3
78.0,643.6,661.8,638.1,647.8,12.4
78.5,658.4,648.7,656.5,654.5,5.1
79.0,645.2,651.7,671.8,656.2,13.9
79.5,651.0,663.6,682.4,665.7,15.8
80.0,618.4,650.6,672.6,647.2,27.2
80.5,612.3,665.2,677.9,651.8,34.8
81.0,654.1,664.6,674.5,664.4,10.2
81.5,626.5,672.8,681.9,660.4,29.7
82.0,620.5,664.2,621.2,635.3,25.0
82.5,616.2,645.1,658.8,640.0,21.7
83.0,621.3,647.5,652.8,640.5,16.9
83.5,631.2,637.2,669.3,645.9,20.5
84.0,604.9,655.5,654.5,638.3,28.9
84.5,596.5,631.9,669.0,632.5,36.2
85.0,606.6,658.8,654.2,639.9,28.9
85.5,622.4,644.1,629.4,632.0,11.1
86.0,592.8,660.1,616.2,623.0,34.2
86.5,595.5,645.2,617.2,619.3,25.0
87.0,608.1,644.8,612.8,621.9,20.0
87.5,595.2,633.8,586.3,605.1,25.2
88.0,582.8,617.4,600.3,600.2,17.3
88.5,585.0,623.9,598.3,602.4,19.8
89.0,569.9,609.6,595.0,591.5,20.1
89.5,574.5,627.5,558.7,586.9,36.0
90.0,555.1,605.8,552.4,571.1,30.1
90.5,557.9,613.0,547.8,572.9,35.1
91.0,560.4,604.3,553.3,572.7,27.6
91.5,531.4,596.8,532.3,553.5,37.5
92.0,550.5,591.5,525.6,555.9,33.2
92.5,530.4,576.9,515.6,541.0,32.0
93.0,537.1,581.2,498.3,538.9,41.5
93.5,505.9,578.2,504.1,529.4,42.3
94.0,501.3,567.2,480.1,516.2,45.4
94.5,507.5,560.0,466.5,511.3,46.9
95.0,486.0,534.2,457.7,492.6,38.7
95.5,481.3,545.1,460.8,495.7,44.0
96.0,472.8,523.6,440.5,478.9,41.9
96.5,472.0,520.3,436.0,476.1,42.3
97.0,441.4,509.1,426.0,458.8,44.2
97.5,429.3,493.6,408.9,443.9,44.2
98.0,423.2,485.4,413.8,440.8,38.9
98.5,414.5,462.3,384.3,420.4,39.3
99.0,403.2,456.4,393.0,417.6,34.0
99.5,386.7,439.7,371.9,399.4,35.7
100.0,382.9,434.6,362.6,393.4,37.2
100.5,372.7,421.8,361.4,385.3,32.1
101.0,363.3,410.3,343.3,372.3,34.4
101.5,354.2,396.7,334.9,362.0,31.6
102.0,340.7,385.2,323.9,349.9,31.7
102.5,324.1,375.1,313.5,337.6,32.9
103.0,315.1,362.0,297.1,324.7,33.5
103.5,309.1,356.5,287.9,317.8,35.1
104.0,294.9,334.9,278.9,302.9,28.9
104.5,289.6,328.9,268.3,295.6,30.7
105.0,281.6,319.3,250.5,283.8,34.4
105.5,276.5,302.4,240.7,273.2,31.0
106.0,259.6,293.1,228.6,260.4,32.3
106.5,249.0,279.1,212.4,246.8,33.4
107.0,245.8,272.9,203.4,240.7,35.0
107.5,236.5,256.3,189.0,227.3,34.6
108.0,227.2,246.8,178.6,217.5,35.1
108.5,216.4,229.7,168.8,205.0,32.0
109.0,199.5,219.0,159.1,192.5,30.6
109.5,192.1,203.3,148.4,181.3,29.0
110.0,185.2,190.0,141.0,172.0,27.0
110.5,177.4,174.5,132.7,161.5,25.0
111.0,170.2,164.9,122.7,152.6,26.0
111.5,163.7,153.7,115.7,144.4,25.3
112.0,162.3,140.9,106.5,136.5,28.1
112.5,150.6,129.7,96.6,125.6,27.2
113.0,146.2,121.5,88.4,118.7,29.0
113.5,137.9,110.6,81.5,110.0,28.2
114.0,131.1,100.6,73.2,101.6,29.0
114.5,120.0,92.4,68.6,93.7,25.7
115.0,113.6,88.5,64.4,88.8,24.6
115.5,100.9,80.2,,90.5,14.7
116.0,88.6,73.2,,80.9,10.9
116.5,82.5,66.5,,74.5,11.3
117.0,72.9,,,72.9,
117.25,72.8,,,72.8,