File: 01_Data/Memory_Foam_Carpet_Pad/Cone/Memory_Foam_Carpet_Pad_HRRPUA_75.csv
Time after Ignition,Memory_Foam_Carpet_Pad_R1,Memory_Foam_Carpet_Pad_R2,Memory_Foam_Carpet_Pad_R3,Mean,Std. Dev.
0.0,26.0,34.6,30.3,30.3,4.3
0.25,37.6,44.8,39.0,40.4,3.8
0.5,47.9,52.8,47.4,49.4,3.0
0.75,56.7,61.7,54.1,57.5,3.9
1.0,64.7,69.4,60.5,64.9,4.4
1.25,72.8,79.9,73.9,75.5,3.8
1.5,83.9,90.1,86.6,86.9,3.1
1.75,93.7,100.2,99.2,97.7,3.5
2.0,105.0,109.2,109.8,108.0,2.6
2.25,114.4,122.6,123.4,120.2,5.0
2.5,122.1,135.7,132.0,129.9,7.1
2.75,135.4,146.8,144.7,142.3,6.0
3.0,144.4,157.2,157.9,153.2,7.6
3.25,154.3,167.7,169.6,163.9,8.4
3.5,163.4,176.4,185.6,175.1,11.1
3.75,171.0,179.0,193.9,181.3,11.6
4.0,182.1,186.0,205.3,191.1,12.4
4.25,197.8,196.7,213.2,202.6,9.2
4.5,203.3,204.7,218.8,208.9,8.6
4.75,208.6,214.1,228.2,217.0,10.1
5.0,232.2,217.5,239.1,229.6,11.1
5.25,232.5,222.8,253.9,236.4,15.9
5.5,244.0,234.7,255.3,244.7,10.3
5.75,254.9,243.9,266.6,255.1,11.4
6.0,272.2,249.5,272.8,264.8,13.3
6.25,279.5,251.4,287.3,272.7,18.9
6.5,289.7,265.1,288.2,281.0,13.8
6.75,297.3,272.0,304.5,291.3,17.0
7.0,312.9,280.3,309.3,300.8,17.9
7.25,315.0,291.4,313.7,306.7,13.3
7.5,328.5,297.1,322.9,316.2,16.8
7.75,336.3,304.4,333.4,324.7,17.7
8.0,337.4,316.8,333.4,329.2,10.9
8.25,344.4,318.5,346.6,336.5,15.7
8.5,370.3,336.0,362.0,356.1,17.9
8.75,369.6,344.7,360.1,358.1,12.6
9.0,369.7,343.2,368.6,360.5,15.0
9.25,380.2,361.8,377.7,373.2,10.0
9.5,398.2,366.3,389.5,384.6,16.5
9.75,399.9,371.9,392.6,388.2,14.5
10.0,399.4,367.5,400.3,389.1,18.7
10.25,420.6,391.8,409.3,407.3,14.5
10.5,419.8,411.2,425.9,419.0,7.4
10.75,430.3,386.1,413.0,409.8,22.2
11.0,435.0,406.6,422.7,421.4,14.2
11.25,436.3,408.9,431.0,425.4,14.5
11.5,471.5,432.0,418.5,440.7,27.5
11.75,453.3,426.2,424.1,434.6,16.3
12.0,488.3,432.6,438.8,453.2,30.6
12.25,479.6,443.9,441.7,455.1,21.3
12.5,468.9,441.8,444.9,451.9,14.8
12.75,480.4,443.1,433.6,452.4,24.7
13.0,496.6,451.9,455.3,467.9,24.9
13.25,510.1,465.9,442.6,472.9,34.2
13.5,522.4,474.0,452.4,482.9,35.8
13.75,519.9,460.3,461.5,480.6,34.1
14.0,531.6,469.1,474.2,491.6,34.7
14.25,542.8,493.9,471.9,502.9,36.3
14.5,560.9,502.9,494.9,519.5,36.0
14.75,557.9,515.0,492.0,521.6,33.4
15.0,555.3,502.9,498.4,518.9,31.6
15.25,566.6,540.9,489.8,532.4,39.1
15.5,566.8,534.5,511.7,537.7,27.7
15.75,574.8,574.9,528.6,559.5,26.7
16.0,614.2,569.8,535.5,573.2,39.4
16.25,582.1,576.5,547.6,568.8,18.6
16.5,610.4,574.3,576.1,586.9,20.3
16.75,603.9,623.2,589.7,605.6,16.8
17.0,618.3,630.0,631.0,626.4,7.0
17.25,626.2,632.2,625.3,627.9,3.8
17.5,629.8,625.5,644.7,633.4,10.1
17.75,696.3,644.2,680.6,673.7,26.7
18.0,695.5,707.4,672.7,691.9,17.6
18.25,661.3,694.8,711.9,689.3,25.8
18.5,703.4,710.6,731.8,715.2,14.8
18.75,737.3,677.1,763.4,725.9,44.2
19.0,677.0,695.4,759.3,710.6,43.1
19.25,734.5,731.5,745.8,737.3,7.5
19.5,729.6,741.6,788.9,753.4,31.4
19.75,794.3,753.1,763.8,770.4,21.4
20.0,777.6,771.9,776.8,775.4,3.1
20.25,785.0,775.3,776.6,779.0,5.2
20.5,781.3,777.5,799.4,786.1,11.7
20.75,785.4,766.0,847.4,799.6,42.5
21.0,814.5,796.0,819.1,809.9,12.2
21.25,811.4,789.4,807.7,802.8,11.8
21.5,820.9,812.8,814.5,816.1,4.3
21.75,844.9,838.2,823.5,835.5,11.0
22.0,857.7,866.8,788.2,837.6,43.0
22.25,825.9,850.4,871.3,849.2,22.7
22.5,927.5,823.1,821.3,857.3,60.8
22.75,855.2,869.8,849.3,858.1,10.5
23.0,878.7,882.5,896.4,885.9,9.3
23.25,879.0,880.5,862.1,873.9,10.2
23.5,894.3,868.3,942.2,901.6,37.5
23.75,904.2,881.8,933.2,906.4,25.8
24.0,910.0,906.6,866.7,894.4,24.0
24.25,908.5,949.8,879.0,912.4,35.6
24.5,1012.1,885.4,959.5,952.3,63.6
24.75,898.3,950.0,955.8,934.7,31.7
25.0,946.0,951.5,972.2,956.6,13.8
25.25,964.6,945.6,993.8,968.0,24.3
25.5,961.9,932.2,960.1,951.4,16.6
25.75,1006.8,925.6,995.6,976.0,44.0
26.0,943.2,994.2,1073.6,1003.6,65.8
26.25,930.1,942.6,1051.4,974.7,66.8
26.5,1013.7,939.4,1003.3,985.5,40.2
26.75,955.3,968.0,1065.3,996.2,60.2
27.0,985.3,1089.6,1028.8,1034.6,52.4
27.25,924.7,1034.5,1156.6,1038.6,116.0
27.5,970.9,1033.7,956.9,987.2,40.9
27.75,1052.9,1090.1,1212.8,1118.6,83.7
28.0,1005.3,1033.2,1009.1,1015.8,15.1
28.25,1085.1,1037.8,1200.1,1107.7,83.5
28.5,1044.6,1117.4,1140.1,1100.7,49.9
28.75,1070.9,1038.7,1223.6,1111.0,98.8
29.0,1145.4,1184.5,1158.9,1162.9,19.9
29.25,1030.6,1035.3,1168.6,1078.2,78.3
29.5,1160.0,1165.4,1220.5,1182.0,33.4
29.75,1131.5,1050.0,1296.9,1159.5,125.8
30.0,1108.7,1149.7,1256.7,1171.7,76.4
30.25,1119.1,1166.8,1263.2,1183.0,73.4
30.5,1184.4,1067.8,1359.9,1204.0,147.0
30.75,1189.8,1162.4,1478.2,1276.8,174.9
31.0,1230.7,1150.9,1338.8,1240.1,94.3
31.25,1145.0,1100.4,1455.8,1233.8,193.6
31.5,1197.1,1219.9,1439.9,1285.6,134.1
31.75,1213.1,1279.2,1386.8,1293.0,87.7
32.0,1344.2,1299.7,1317.9,1320.6,22.4
32.25,1228.2,1234.9,1613.8,1359.0,220.7
32.5,1316.7,1243.6,1578.1,1379.5,175.8
32.75,1403.5,1349.0,1467.6,1406.7,59.4
33.0,1247.2,1313.7,1636.3,1399.1,208.1
33.25,1278.4,1358.6,1647.6,1428.2,194.2
33.5,1291.9,1285.0,1508.9,1361.9,127.3
33.75,1417.7,1243.1,1734.8,1465.2,249.3
34.0,1617.2,1320.4,1629.0,1522.2,174.9
34.25,1327.5,1391.7,1596.2,1438.5,140.3
34.5,1423.2,1255.5,1390.6,1356.5,88.9
34.75,1396.5,1278.4,1655.8,1443.6,193.0
35.0,1462.0,1369.1,1625.4,1485.5,129.8
35.25,1585.5,1527.7,1779.5,1630.9,131.9
35.5,1362.9,1343.2,1676.4,1460.8,186.9
35.75,1521.7,1474.0,1556.9,1517.5,41.6
36.0,1604.0,1458.0,1634.9,1565.6,94.5
36.25,1380.3,1584.3,1803.9,1589.5,211.8
36.5,1720.7,1522.3,1660.4,1634.5,101.7
36.75,1427.2,1358.5,1466.3,1417.3,54.5
37.0,1468.3,1633.7,1704.0,1602.0,121.0
37.25,1649.5,1617.9,1946.6,1738.0,181.4
37.5,1450.3,1482.3,1649.0,1527.2,106.7
37.75,1720.3,1496.3,1772.7,1663.1,146.8
38.0,1598.6,1479.5,1597.3,1558.5,68.4
38.25,1682.3,1588.1,2010.6,1760.3,221.8
38.5,1716.9,1617.1,1809.2,1714.4,96.1
38.75,1416.0,1669.1,1753.3,1612.8,175.6
39.0,1793.7,1671.3,1825.0,1763.3,81.2
39.25,1583.8,1584.5,1718.1,1628.8,77.3
39.5,1696.9,1636.8,1954.3,1762.7,168.6
39.75,1703.1,1691.1,1640.5,1678.2,33.3
40.0,1617.1,1517.7,1825.4,1653.4,157.0
40.25,1655.4,1742.4,1759.9,1719.3,56.0
40.5,1680.4,1581.3,1698.0,1653.2,62.9
40.75,1757.9,1574.3,1774.7,1702.3,111.1
41.0,1592.3,1662.0,1833.8,1696.0,124.3
41.25,1643.4,1571.3,1813.4,1676.0,124.3
41.5,1564.1,1708.3,1835.3,1702.6,135.7
41.75,1736.1,1602.7,1774.7,1704.5,90.3
42.0,1798.4,1777.0,1772.1,1782.5,14.0
42.25,1683.0,1635.3,1838.3,1718.9,106.2
42.5,1685.5,1749.9,1736.1,1723.8,33.9
42.75,1764.3,1776.8,1762.6,1767.9,7.8
43.0,1609.0,1658.6,1811.3,1693.0,105.4
43.25,1685.1,1605.5,1755.2,1682.0,74.9
43.5,1719.1,1627.2,1671.3,1672.5,46.0
43.75,1804.5,1676.5,1621.2,1700.8,94.0
44.0,1809.7,1693.0,1573.3,1692.0,118.2
44.25,1793.0,1657.3,1568.8,1673.0,113.0
44.5,1727.9,1672.1,1517.4,1639.2,109.0
44.75,1795.9,1627.3,1470.0,1631.1,163.0
45.0,1718.3,1605.8,1402.1,1575.4,160.3
45.25,1731.4,1565.6,1353.1,1550.0,189.6
45.5,1748.3,1582.2,1297.7,1542.7,227.9
45.75,1700.5,1576.8,1245.5,1507.6,235.2
46.0,1691.5,1540.5,1174.9,1469.0,265.6
46.25,1642.3,1545.5,1118.6,1435.5,278.6
46.5,1619.0,1450.6,1074.7,1381.4,278.7
46.75,1594.0,1470.1,1040.1,1368.1,290.7
47.0,1539.3,1400.7,981.4,1307.2,290.5
47.25,1543.6,1377.2,925.9,1282.2,319.6
47.5,1478.1,1306.6,884.2,1223.0,305.7
47.75,1425.4,1296.8,,1361.1,90.9
48.0,1341.1,1230.9,,1286.0,78.0
48.25,1299.5,1196.2,,1247.9,73.1
48.5,1242.6,1148.6,,1195.6,66.4
48.75,1186.0,1118.4,,1152.2,47.8
49.0,1115.0,1048.1,,1081.5,47.3
49.25,1071.3,999.6,,1035.4,50.7
49.5,1005.3,951.6,,978.4,38.0
49.75,950.4,898.7,,924.5,36.5
50.0,907.8,852.7,,880.2,39.0
50.25,849.3,824.2,,836.8,17.8
50.5,806.1,777.6,,791.9,20.2
50.75,765.1,737.6,,751.3,19.5
51.0,724.2,707.0,,715.6,12.2
51.25,680.2,672.3,,676.2,5.6
51.5,634.4,625.9,,630.1,6.0