File: 01_Data/Memory_Foam_Carpet_Pad/Cone/Memory_Foam_Carpet_Pad_HRRPUA_50.csv
Time after Ignition,Memory_Foam_Carpet_Pad_R1,Memory_Foam_Carpet_Pad_R2,Memory_Foam_Carpet_Pad_R3,Mean,Std. Dev.
0.0,16.3,25.2,14.7,18.7,5.6
0.5,22.3,40.7,31.6,31.5,9.2
1.0,27.4,58.6,46.4,44.1,15.7
1.5,40.3,76.8,64.7,60.6,18.6
2.0,49.7,98.9,86.0,78.2,25.5
2.5,63.1,117.1,106.7,95.6,28.7
3.0,79.4,131.6,129.6,113.6,29.6
3.5,94.1,147.5,142.4,128.0,29.4
4.0,113.8,160.9,163.0,145.9,27.8
4.5,133.3,172.1,177.1,160.8,24.0
5.0,149.8,189.1,190.1,176.3,23.0
5.5,166.7,198.6,201.3,188.8,19.2
6.0,181.1,213.3,212.9,202.4,18.5
6.5,193.9,220.7,227.3,214.0,17.7
7.0,209.4,236.0,234.0,226.5,14.8
7.5,221.1,252.0,240.3,237.8,15.6
8.0,235.1,249.6,251.9,245.5,9.1
8.5,242.6,261.2,262.1,255.3,11.0
9.0,250.9,276.8,273.4,267.0,14.1
9.5,263.4,278.9,278.3,273.6,8.8
10.0,264.9,285.8,284.9,278.5,11.8
10.5,272.7,295.2,300.1,289.3,14.6
11.0,285.5,290.6,308.4,294.8,12.1
11.5,296.9,305.2,313.9,305.3,8.5
12.0,306.7,305.0,316.9,309.5,6.4
12.5,308.9,316.7,328.9,318.2,10.1
13.0,317.3,331.6,329.0,326.0,7.6
13.5,320.8,332.1,337.1,330.0,8.4
14.0,319.2,348.6,343.0,336.9,15.6
14.5,330.3,347.3,340.3,339.3,8.5
15.0,339.9,362.5,360.3,354.3,12.5
15.5,339.2,369.8,349.6,352.9,15.6
16.0,342.3,367.1,368.7,359.3,14.8
16.5,348.2,383.9,370.0,367.4,18.0
17.0,361.0,406.3,372.1,379.8,23.6
17.5,363.1,406.3,376.0,381.8,22.2
18.0,365.7,420.2,390.3,392.1,27.3
18.5,371.0,421.4,395.3,395.9,25.2
19.0,392.6,421.2,393.5,402.4,16.3
19.5,394.7,419.1,403.3,405.7,12.4
20.0,393.8,441.5,416.8,417.3,23.8
20.5,413.7,451.8,430.4,432.0,19.1
21.0,401.6,463.6,449.0,438.1,32.4
21.5,424.5,496.0,443.9,454.8,36.9
22.0,406.8,494.0,472.8,457.9,45.5
22.5,442.8,488.0,480.6,470.5,24.3
23.0,445.2,527.6,521.3,498.0,45.8
23.5,450.2,524.8,533.6,502.9,45.9
24.0,455.3,543.2,542.7,513.7,50.6
24.5,475.1,567.7,577.5,540.1,56.5
25.0,499.4,586.8,560.2,548.8,44.8
25.5,496.2,602.9,614.0,571.0,65.0
26.0,527.5,613.7,599.7,580.3,46.3
26.5,534.4,596.8,636.2,589.1,51.3
27.0,546.2,592.8,629.5,589.5,41.8
27.5,548.1,629.1,643.3,606.8,51.4
28.0,565.9,628.8,666.8,620.5,50.9
28.5,571.2,674.0,683.2,642.8,62.2
29.0,576.2,653.3,671.2,633.6,50.5
29.5,577.7,657.7,652.8,629.4,44.8
30.0,581.2,695.0,694.5,656.9,65.6
30.5,599.7,684.6,692.4,658.9,51.4
31.0,587.3,719.8,692.3,666.5,69.9
31.5,589.8,710.4,727.9,676.0,75.2
32.0,595.5,746.2,735.2,692.3,84.0
32.5,610.1,772.3,743.9,708.8,86.6
33.0,607.0,743.3,750.7,700.3,80.9
33.5,594.3,765.6,757.6,705.8,96.7
34.0,593.6,771.1,779.1,714.6,104.9
34.5,622.4,795.2,724.8,714.1,86.9
35.0,593.7,792.2,766.8,717.6,108.0
35.5,604.8,763.9,815.8,728.2,110.0
36.0,607.2,796.1,824.0,742.5,118.0
36.5,602.5,804.3,870.5,759.1,139.6
37.0,610.0,828.0,839.4,759.1,129.3
37.5,628.3,885.6,855.1,789.7,140.6
38.0,645.8,823.9,858.2,776.0,114.0
38.5,643.6,877.4,910.8,810.6,145.6
39.0,623.4,878.0,934.0,811.8,165.6
39.5,651.6,885.5,883.9,807.0,134.6
40.0,656.3,910.9,948.6,838.6,159.0
40.5,656.5,928.7,952.6,845.9,164.5
41.0,678.2,998.0,1007.1,894.5,187.4
41.5,705.1,957.3,963.4,875.3,147.4
42.0,718.3,953.3,998.3,890.0,150.4
42.5,694.6,986.7,1063.7,915.0,194.7
43.0,733.9,982.4,981.5,899.3,143.2
43.5,727.3,1001.1,1039.1,922.5,170.1
44.0,741.2,1030.5,1065.4,945.7,177.9
44.5,765.5,1045.9,1088.9,966.8,175.6
45.0,728.9,1142.9,1119.1,997.0,232.5
45.5,743.9,1122.9,1130.9,999.2,221.2
46.0,772.7,1067.2,1093.0,977.6,178.0
46.5,804.1,1135.9,1123.0,1021.0,188.0
47.0,790.0,1084.9,1078.8,984.5,168.5
47.5,832.2,1175.2,1119.7,1042.4,184.1
48.0,812.0,1133.5,1124.0,1023.2,182.9
48.5,855.2,1165.8,1198.4,1073.1,189.4
49.0,854.9,1223.8,1205.5,1094.7,207.9
49.5,856.2,1044.4,1126.4,1009.0,138.5
50.0,892.3,1137.8,1164.4,1064.8,150.0
50.5,875.7,1157.3,1103.9,1045.6,149.5
51.0,936.5,1180.8,1146.6,1088.0,132.3
51.5,916.7,1155.4,1177.4,1083.1,144.6
52.0,933.6,1159.4,1235.8,1109.6,157.1
52.5,983.0,1151.0,1236.9,1123.6,129.2
53.0,1044.3,1172.3,1211.2,1142.6,87.3
53.5,886.9,1097.6,1216.0,1066.8,166.7
54.0,982.0,1154.5,1277.5,1138.0,148.5
54.5,999.2,1207.3,1219.0,1141.8,123.7
55.0,1006.6,1093.8,1265.1,1121.8,131.6
55.5,1015.7,1158.8,1258.9,1144.5,122.2
56.0,999.2,1108.0,1160.6,1089.3,82.3
56.5,1071.6,1142.3,1151.8,1121.9,43.8
57.0,1025.7,1117.5,1129.8,1091.0,56.9
57.5,1004.8,1070.0,1159.8,1078.2,77.8
58.0,1056.7,1140.3,1137.4,1111.5,47.4
58.5,1080.3,1039.1,1085.7,1068.4,25.5
59.0,1056.6,1062.3,1028.0,1049.0,18.4
59.5,974.4,1036.0,1052.0,1020.8,41.0
60.0,970.1,1051.5,992.8,1004.8,42.0
60.5,941.2,998.7,951.8,963.9,30.6
61.0,996.2,986.4,917.5,966.7,42.9
61.5,978.0,953.8,878.7,936.8,51.8
62.0,879.8,928.4,847.8,885.3,40.6
62.5,926.7,887.2,797.3,870.4,66.3
63.0,908.5,861.1,741.3,837.0,86.2
63.5,877.7,784.7,723.3,795.2,77.8
64.0,879.1,742.5,660.2,760.6,110.5
64.5,864.6,705.8,615.0,728.5,126.4
65.0,822.2,667.1,553.9,681.1,134.7
65.5,813.9,622.4,511.2,649.1,153.1
66.0,809.7,594.8,455.0,619.9,178.7
66.5,811.9,548.5,414.1,591.5,202.3
67.0,796.2,508.3,376.1,560.2,214.8
67.5,751.9,476.9,334.8,521.2,212.0
68.0,743.5,439.4,303.4,495.4,225.4
68.5,720.8,431.6,278.2,476.9,224.8
69.0,691.5,384.9,251.9,442.8,225.5
69.5,666.6,350.1,229.1,415.3,225.9
70.0,653.6,311.8,,482.7,241.7
70.5,637.1,282.7,,459.9,250.6
71.0,606.6,250.6,,428.6,251.7
71.5,593.6,228.5,,411.0,258.2
72.0,558.7,205.1,,381.9,250.1
72.5,531.8,181.9,,356.9,247.4
73.0,515.5,162.9,,339.2,249.3
73.5,481.4,144.9,,313.1,237.9
74.0,466.5,,,466.5,
74.5,442.1,,,442.1,
75.0,426.9,,,426.9,
75.5,405.0,,,405.0,
76.0,391.9,,,391.9,
76.5,381.6,,,381.6,
77.0,359.8,,,359.8,
77.5,350.6,,,350.6,
78.0,331.5,,,331.5,
78.5,317.4,,,317.4,
79.0,289.1,,,289.1,
79.5,280.8,,,280.8,
80.0,260.9,,,260.9,
80.5,247.6,,,247.6,
81.0,225.6,,,225.6,
81.5,211.1,,,211.1,
82.0,200.7,,,200.7,
82.5,185.3,,,185.3,
83.0,174.9,,,174.9,
83.5,163.2,,,163.2,
84.0,155.3,,,155.3,
84.5,142.0,,,142.0,
85.0,136.7,,,136.7,
85.5,127.7,,,127.7,
86.0,117.9,,,117.9,
86.5,111.1,,,111.1,
87.0,104.1,,,104.1,
87.5,98.4,,,98.4,
88.0,92.3,,,92.3,
88.5,86.4,,,86.4,
89.0,81.1,,,81.1,
89.5,77.3,,,77.3,
90.0,74.2,,,74.2,
90.5,70.8,,,70.8,
91.0,68.7,,,68.7,
91.5,65.7,,,65.7,
92.0,63.7,,,63.7,
92.5,62.4,,,62.4,
93.0,60.5,,,60.5,
93.5,59.6,,,59.6,
94.0,57.9,,,57.9,
94.5,55.7,,,55.7,
95.0,54.6,,,54.6,
95.5,52.3,,,52.3,
96.0,50.0,,,50.0,
96.5,49.8,,,49.8,
97.0,48.0,,,48.0,
97.5,46.3,,,46.3,
98.0,45.0,,,45.0,
98.5,43.8,,,43.8,
99.0,42.6,,,42.6,
99.5,41.7,,,41.7,
100.0,40.2,,,40.2,
100.5,39.0,,,39.0,
101.0,37.9,,,37.9,
101.5,37.4,,,37.4,
102.0,36.5,,,36.5,
102.5,35.1,,,35.1,
103.0,35.0,,,35.0,
103.5,33.9,,,33.9,
104.0,33.7,,,33.7,
104.5,33.3,,,33.3,
105.0,33.2,,,33.2,
105.5,32.8,,,32.8,
106.0,32.0,,,32.0,