File: 01_Data/Polyisocyanurate_Foam_Board/Cone/Polyisocyanurate_Foam_Board_HRRPUA_50.csv
Time after Ignition,Polyisocyanurate_Foam_Board_R1,Polyisocyanurate_Foam_Board_R2,Polyisocyanurate_Foam_Board_R3,Polyisocyanurate_Foam_Board_R4,Mean,Std. Dev.
0.0,9.6,21.0,11.6,15.8,14.5,5.0
1.25,22.1,55.1,26.4,47.2,37.7,16.0
2.5,37.5,94.0,71.6,85.5,72.1,24.9
3.75,53.0,126.8,118.5,128.3,106.6,36.0
5.0,72.6,163.9,165.6,168.0,142.5,46.7
6.25,91.9,202.4,197.7,210.4,175.6,56.1
7.5,108.4,226.2,224.7,242.9,200.5,62.0
8.75,125.9,244.4,242.3,259.7,218.1,61.9
10.0,135.7,253.7,246.0,266.1,225.4,60.4
11.25,144.7,257.6,256.2,272.4,232.7,59.1
12.5,148.8,254.9,246.4,265.9,229.0,54.0
13.75,153.7,240.7,239.2,250.0,220.9,45.1
15.0,150.7,218.4,224.8,234.5,207.1,38.2
16.25,151.4,211.1,212.5,217.5,198.1,31.3
17.5,150.2,196.8,200.7,204.0,187.9,25.3
18.75,148.8,185.5,185.0,191.9,177.8,19.6
20.0,151.9,174.3,173.0,183.2,170.6,13.3
21.25,150.2,158.0,161.8,171.5,160.4,8.8
22.5,151.3,146.9,152.3,165.4,154.0,8.0
23.75,148.9,139.6,145.9,156.9,147.8,7.2
25.0,153.5,134.2,139.3,153.0,145.0,9.8
26.25,152.5,126.9,132.7,149.0,140.3,12.4
27.5,148.6,123.8,129.2,145.6,136.8,12.2
28.75,148.6,118.6,125.5,144.6,134.3,14.6
30.0,146.9,115.7,122.3,142.7,131.9,15.2
31.25,144.9,114.0,118.1,137.8,128.7,15.0
32.5,142.3,113.7,114.5,136.5,126.8,14.8
33.75,142.4,108.9,112.6,131.5,123.8,15.8
35.0,141.8,108.3,111.0,125.8,121.7,15.4
36.25,139.9,106.8,110.5,120.6,119.4,14.8
37.5,135.2,107.7,108.2,111.8,115.7,13.1
38.75,134.0,106.6,104.8,106.9,113.1,14.0
40.0,131.2,102.8,100.7,98.9,108.4,15.3
41.25,129.3,101.3,94.9,93.6,104.8,16.7
42.5,124.3,96.3,86.6,87.7,98.7,17.6
43.75,120.6,92.5,80.5,83.9,94.4,18.2
45.0,115.4,87.9,75.4,81.6,90.1,17.6
46.25,111.1,84.4,71.9,79.6,86.7,17.1
47.5,106.7,81.7,68.8,78.4,83.9,16.1
48.75,105.5,76.7,66.9,81.9,82.8,16.4
50.0,99.4,72.4,67.2,82.2,80.3,14.2
51.25,95.6,69.2,69.5,84.1,79.6,12.7
52.5,93.4,70.1,72.5,88.8,81.2,11.6
53.75,90.5,69.4,78.0,94.2,83.0,11.4
55.0,86.6,71.4,86.4,99.1,85.9,11.4
56.25,84.1,73.9,91.0,106.2,88.8,13.6
57.5,78.8,76.6,98.9,112.3,91.6,17.0
58.75,74.9,77.8,106.1,115.5,93.6,20.3
60.0,71.6,82.2,109.9,118.8,95.6,22.4
61.25,70.3,86.6,114.0,120.3,97.8,23.5
62.5,69.1,92.8,115.7,121.5,99.8,23.9
63.75,67.1,93.8,117.2,121.4,99.9,25.0
65.0,64.4,98.3,114.6,117.3,98.7,24.3
66.25,63.2,98.6,114.5,114.6,97.7,24.2
67.5,63.2,101.7,110.1,109.7,96.2,22.4
68.75,63.4,99.7,107.8,104.6,93.9,20.6
70.0,64.5,99.2,103.7,97.5,91.2,18.0
71.25,66.3,95.2,98.6,94.5,88.7,15.0
72.5,67.4,93.1,91.6,91.0,85.8,12.3
73.75,69.4,87.1,88.7,86.8,83.0,9.1
75.0,71.4,81.6,83.3,82.6,79.7,5.6
76.25,71.4,76.9,77.9,77.3,75.9,3.0
77.5,72.9,73.1,75.6,73.8,73.8,1.2
78.75,72.2,70.3,71.7,71.9,71.5,0.8
80.0,71.9,67.7,70.6,68.5,69.7,1.9
81.25,70.9,63.4,68.2,66.7,67.3,3.1
82.5,69.9,62.6,67.0,65.3,66.2,3.1
83.75,68.4,61.0,66.4,63.4,64.8,3.3
85.0,66.3,59.3,65.1,61.9,63.1,3.2
86.25,66.0,58.7,63.4,60.8,62.2,3.2
87.5,64.4,60.0,61.5,60.1,61.5,2.1
88.75,63.5,58.0,59.8,58.5,60.0,2.5
90.0,61.9,57.4,57.7,57.5,58.6,2.2
91.25,59.0,56.8,56.2,56.6,57.1,1.2
92.5,55.6,55.4,54.0,53.9,54.7,0.9
93.75,51.8,54.4,52.6,53.0,53.0,1.1
95.0,49.7,53.9,50.9,51.8,51.6,1.8
96.25,47.0,52.1,49.3,50.9,49.8,2.2
97.5,45.5,50.8,47.5,49.4,48.3,2.3
98.75,43.8,49.4,45.7,46.8,46.4,2.3
100.0,42.0,49.5,43.4,46.7,45.4,3.4
101.25,41.8,47.6,42.8,45.4,44.4,2.6
102.5,41.4,46.4,40.6,45.0,43.3,2.8
103.75,41.9,45.3,39.4,43.7,42.6,2.5
105.0,41.3,44.2,37.7,42.8,41.5,2.8
106.25,41.5,43.2,36.1,42.2,40.8,3.2
107.5,40.8,42.8,36.5,41.4,40.4,2.7
108.75,40.6,42.4,35.3,39.9,39.5,3.0
110.0,40.0,41.0,34.2,38.6,38.5,3.0
111.25,40.0,40.2,33.2,39.1,38.1,3.3
112.5,39.6,38.5,33.0,37.9,37.3,2.9
113.75,38.2,38.3,32.6,37.6,36.7,2.8
115.0,37.0,38.4,31.8,36.8,36.0,2.9
116.25,35.9,37.2,31.8,35.9,35.2,2.4
117.5,34.7,36.6,31.4,35.0,34.4,2.2
118.75,33.6,36.3,30.8,34.0,33.6,2.3
120.0,32.2,35.3,30.1,33.1,32.6,2.2
121.25,30.8,35.1,29.0,32.4,31.9,2.6
122.5,30.1,34.2,29.0,31.6,31.3,2.3
123.75,29.8,34.2,28.6,30.9,30.9,2.4
125.0,29.3,33.9,28.2,30.5,30.5,2.5
126.25,28.4,34.5,27.8,30.1,30.2,3.1
127.5,27.3,34.0,27.8,29.4,29.6,3.0
128.75,26.8,34.6,27.8,28.9,29.5,3.5
130.0,26.2,33.2,27.5,28.8,28.9,3.0
131.25,25.6,32.7,27.1,28.4,28.4,3.0
132.5,25.3,32.3,26.7,28.5,28.2,3.0
133.75,25.2,31.1,25.9,28.5,27.7,2.7
135.0,24.6,30.9,25.2,28.5,27.3,2.9
136.25,24.8,29.7,24.7,28.5,26.9,2.6
137.5,24.6,29.1,24.7,28.6,26.8,2.4
138.75,23.6,28.2,24.6,28.1,26.2,2.4
140.0,22.6,27.5,23.4,27.6,25.3,2.6
141.25,22.0,26.6,23.0,27.8,24.9,2.8
142.5,21.2,26.7,22.7,27.4,24.5,3.0
143.75,21.4,25.8,23.2,27.9,24.6,2.9
145.0,21.1,25.5,23.5,27.4,24.4,2.7
146.25,21.2,25.4,23.6,27.6,24.4,2.7
147.5,21.5,24.8,23.6,27.9,24.4,2.7
148.75,20.9,25.3,23.9,27.5,24.4,2.8
150.0,20.7,24.7,24.0,27.7,24.3,2.9
151.25,20.4,25.1,24.1,28.0,24.4,3.1
152.5,20.3,25.1,23.4,27.2,24.0,2.9
153.75,19.5,24.9,23.0,27.1,23.6,3.2
155.0,19.1,25.2,23.1,26.6,23.5,3.3
156.25,18.2,25.4,22.7,26.5,23.2,3.7
157.5,17.8,25.0,23.0,26.6,23.1,3.8
158.75,17.3,24.4,22.5,26.3,22.6,3.9
160.0,17.4,24.3,22.7,25.9,22.6,3.7
161.25,17.0,23.8,22.6,25.4,22.2,3.7
162.5,16.9,23.6,22.6,25.8,22.2,3.8
163.75,16.8,23.2,22.4,25.8,22.1,3.8
165.0,16.8,23.9,22.2,25.8,22.2,3.9
166.25,16.8,24.0,22.0,25.5,22.1,3.8
167.5,16.8,24.3,22.0,25.3,22.1,3.8
168.75,16.3,24.5,22.2,25.6,22.2,4.1
170.0,15.9,24.3,22.4,25.8,22.1,4.4
171.25,15.8,24.3,22.1,25.8,22.0,4.4
172.5,16.2,24.2,21.9,25.3,21.9,4.1
173.75,15.8,24.6,21.8,25.3,21.9,4.3
175.0,15.7,24.5,21.9,24.8,21.7,4.2
176.25,15.9,23.8,21.5,24.7,21.5,4.0
177.5,15.5,23.8,21.4,24.8,21.4,4.2
178.75,15.8,23.9,21.5,24.7,21.5,4.0
180.0,15.7,23.8,21.4,24.8,21.4,4.1
181.25,15.9,23.6,21.8,24.5,21.4,3.9
182.5,15.8,23.8,21.7,24.4,21.4,3.9
183.75,15.9,23.7,21.2,24.8,21.4,4.0
185.0,16.1,23.9,20.8,24.9,21.4,4.0
186.25,16.0,23.6,20.3,25.2,21.3,4.1
187.5,16.0,24.0,20.4,25.3,21.4,4.2
188.75,16.0,23.7,20.3,25.4,21.3,4.2
190.0,16.1,24.0,20.8,25.7,21.7,4.2
191.25,16.1,23.3,20.8,25.5,21.4,4.0
192.5,16.1,23.1,21.0,25.7,21.5,4.1
193.75,16.0,22.9,20.9,25.7,21.4,4.1
195.0,16.0,23.5,21.0,25.6,21.5,4.1
196.25,15.8,23.6,21.1,25.5,21.5,4.2
197.5,15.3,23.5,21.1,25.4,21.3,4.4
198.75,15.2,23.8,21.1,25.0,21.3,4.4
200.0,15.3,24.4,21.3,24.9,21.5,4.4
201.25,14.5,24.2,21.1,24.2,21.0,4.6
202.5,14.2,24.7,21.2,24.6,21.2,4.9
203.75,13.8,24.2,21.2,24.4,20.9,4.9
205.0,13.8,24.1,21.8,24.1,21.0,4.9
206.25,13.6,24.3,22.0,23.9,21.0,5.0
207.5,13.5,24.3,22.1,23.5,20.9,5.0
208.75,13.3,24.2,22.3,23.5,20.9,5.1
210.0,13.3,24.5,22.0,23.1,20.8,5.1
211.25,13.7,24.2,22.3,23.3,20.9,4.9
212.5,13.4,24.1,22.3,22.9,20.7,4.9
213.75,13.3,24.0,22.3,23.6,20.8,5.1
215.0,13.4,23.9,21.3,23.4,20.5,4.9
216.25,13.4,24.2,21.0,23.3,20.5,4.9
217.5,13.1,23.7,20.6,23.5,20.2,5.0
218.75,13.3,23.6,20.2,23.1,20.1,4.7
220.0,13.3,23.9,20.0,23.2,20.1,4.8
221.25,13.5,23.9,19.9,23.2,20.1,4.7
222.5,13.5,24.0,19.8,22.7,20.0,4.7
223.75,14.1,24.4,19.8,23.3,20.4,4.7
225.0,14.4,24.8,19.6,23.0,20.4,4.6
226.25,14.2,24.7,19.8,23.0,20.4,4.6
227.5,14.5,24.3,19.8,23.4,20.5,4.4
228.75,14.4,24.2,19.8,23.8,20.6,4.6
230.0,14.3,23.6,20.2,23.7,20.5,4.4
231.25,14.0,23.2,20.4,24.0,20.4,4.5
232.5,13.8,22.3,20.5,24.1,20.2,4.5
233.75,14.0,22.3,20.4,23.8,20.1,4.3
235.0,14.3,21.6,20.3,23.5,19.9,4.0
236.25,14.6,21.4,19.9,23.3,19.8,3.7
237.5,14.3,21.9,20.0,23.2,19.8,3.9
238.75,14.5,22.1,19.3,23.2,19.8,3.9
240.0,14.6,21.9,19.1,22.4,19.5,3.6
241.25,14.5,22.0,18.9,22.3,19.4,3.6
242.5,14.3,21.8,18.3,22.3,19.1,3.7
243.75,13.7,21.9,18.0,22.2,19.0,4.0
245.0,13.7,22.1,17.7,22.1,18.9,4.0
246.25,13.5,22.1,17.5,21.5,18.7,4.0
247.5,13.4,22.3,17.3,21.2,18.5,4.0
248.75,13.5,22.2,17.1,,17.6,4.4
250.0,13.5,21.7,17.0,,17.4,4.1
251.25,13.1,21.4,17.1,,17.2,4.2
252.5,13.0,21.4,17.0,,17.1,4.2
253.75,12.8,21.2,16.8,,16.9,4.2
255.0,13.0,20.4,16.5,,16.7,3.7
256.25,12.9,20.5,16.5,,16.6,3.8
257.5,12.6,20.2,16.5,,16.4,3.8
258.75,12.5,20.2,16.6,,16.4,3.9
260.0,12.4,19.6,16.2,,16.1,3.6
261.25,12.5,19.9,16.1,,16.2,3.7
262.5,12.4,19.7,16.2,,16.1,3.7
263.75,12.3,19.6,16.4,,16.1,3.7
265.0,12.3,19.5,16.1,,15.9,3.6
266.25,12.5,19.4,,,15.9,4.9
267.5,12.3,19.3,,,15.8,4.9
268.75,12.5,19.2,,,15.8,4.8
270.0,12.5,19.4,,,15.9,4.9
271.25,12.5,18.5,,,15.5,4.3
272.5,12.4,18.1,,,15.2,4.0
273.75,12.4,17.8,,,15.1,3.8
275.0,12.4,,,,12.4,
276.25,12.3,,,,12.3,
277.5,12.2,,,,12.2,
278.75,12.3,,,,12.3,
280.0,12.3,,,,12.3,
281.25,12.2,,,,12.2,
282.5,12.3,,,,12.3,
283.75,12.2,,,,12.2,
285.0,12.2,,,,12.2,
286.25,12.5,,,,12.5,
287.5,12.1,,,,12.1,
288.75,12.1,,,,12.1,
290.0,12.3,,,,12.3,
291.25,12.3,,,,12.3,
292.5,12.2,,,,12.2,
293.75,12.3,,,,12.3,
295.0,12.2,,,,12.2,
296.25,12.4,,,,12.4,
297.5,12.7,,,,12.7,
298.75,12.6,,,,12.6,
300.0,12.6,,,,12.6,
301.25,12.6,,,,12.6,
302.5,12.9,,,,12.9,
303.75,12.7,,,,12.7,
305.0,12.7,,,,12.7,
306.25,12.9,,,,12.9,
307.5,12.7,,,,12.7,
308.75,12.9,,,,12.9,
310.0,13.3,,,,13.3,
311.25,13.5,,,,13.5,
312.5,13.7,,,,13.7,
313.75,13.5,,,,13.5,
315.0,13.1,,,,13.1,
316.25,13.0,,,,13.0,
317.5,13.2,,,,13.2,
318.75,13.4,,,,13.4,
320.0,13.6,,,,13.6,
321.25,14.0,,,,14.0,
322.5,14.0,,,,14.0,
323.75,14.2,,,,14.2,
325.0,14.5,,,,14.5,
326.25,14.7,,,,14.7,
327.5,14.6,,,,14.6,
328.75,14.2,,,,14.2,
330.0,14.2,,,,14.2,
331.25,14.3,,,,14.3,
332.5,14.8,,,,14.8,
333.75,14.7,,,,14.7,
335.0,14.9,,,,14.9,
336.25,15.0,,,,15.0,
337.5,15.0,,,,15.0,
338.75,14.8,,,,14.8,
340.0,15.1,,,,15.1,
341.25,14.7,,,,14.7,
342.5,14.4,,,,14.4,
343.5,14.3,,,,14.3,