File: 01_Data/Asphalt_Shingle/Cone/Asphalt_Shingle_HRRPUA_25.csv
Time after Ignition,Asphalt_Shingle_R1,Asphalt_Shingle_R2,Asphalt_Shingle_R3,Mean,Std. Dev.
0.0,15.8,16.7,26.0,19.5,5.6
1.25,20.2,23.5,31.3,25.0,5.7
2.5,24.1,30.7,36.5,30.4,6.2
3.75,29.7,38.0,41.1,36.3,5.9
5.0,36.9,43.8,45.8,42.2,4.7
6.25,42.6,49.8,49.1,47.2,4.0
7.5,47.3,55.6,54.2,52.4,4.4
8.75,53.5,61.6,59.5,58.2,4.2
10.0,56.3,66.9,66.4,63.2,5.9
11.25,61.7,75.5,74.1,70.4,7.6
12.5,64.2,85.2,82.4,77.3,11.4
13.75,67.0,93.2,92.3,84.2,14.9
15.0,69.4,101.6,103.2,91.4,19.1
16.25,73.9,111.5,112.5,99.3,22.0
17.5,78.7,118.8,121.1,106.2,23.8
18.75,84.1,126.8,130.4,113.8,25.7
20.0,90.0,133.0,137.6,120.2,26.3
21.25,94.6,140.3,142.9,125.9,27.1
22.5,98.1,150.0,145.4,131.2,28.7
23.75,100.0,156.5,146.2,134.2,30.1
25.0,98.1,162.7,143.2,134.7,33.1
26.25,98.3,164.8,133.9,132.4,33.3
27.5,98.1,165.9,129.0,131.0,33.9
28.75,96.9,170.3,126.5,131.2,36.9
30.0,96.3,170.7,125.7,130.9,37.5
31.25,98.2,176.4,128.1,134.2,39.5
32.5,96.8,179.8,129.6,135.4,41.8
33.75,97.3,181.9,134.2,137.8,42.4
35.0,99.1,186.9,143.3,143.1,43.9
36.25,98.8,189.3,148.8,145.6,45.4
37.5,102.7,193.3,153.9,150.0,45.4
38.75,110.7,207.4,159.9,159.3,48.4
40.0,114.0,217.1,166.7,166.0,51.6
41.25,119.1,221.2,171.5,170.6,51.0
42.5,124.4,230.6,177.5,177.5,53.1
43.75,132.4,236.3,184.4,184.4,52.0
45.0,142.1,240.6,192.1,191.6,49.2
46.25,146.6,249.4,196.7,197.6,51.4
47.5,154.5,257.5,198.0,203.3,51.7
48.75,156.8,251.8,207.8,205.5,47.5
50.0,162.3,255.6,209.2,209.0,46.6
51.25,171.2,257.4,214.5,214.4,43.1
52.5,176.7,263.2,216.8,218.9,43.3
53.75,184.0,261.3,219.9,221.7,38.7
55.0,188.8,256.5,224.2,223.1,33.8
56.25,189.8,253.5,227.9,223.7,32.0
57.5,193.8,256.2,227.8,225.9,31.2
58.75,198.6,262.1,226.5,229.1,31.8
60.0,203.3,252.3,225.9,227.2,24.5
61.25,207.7,250.9,225.8,228.1,21.7
62.5,213.5,247.6,229.7,230.3,17.1
63.75,217.3,242.4,221.7,227.2,13.4
65.0,216.7,234.3,222.8,224.6,9.0
66.25,216.1,238.2,220.9,225.0,11.6
67.5,213.1,227.2,215.4,218.6,7.6
68.75,210.4,227.3,212.8,216.8,9.2
70.0,207.7,226.0,213.1,215.6,9.4
71.25,204.7,217.9,209.9,210.8,6.7
72.5,199.1,217.0,206.6,207.6,9.0
73.75,200.2,213.0,212.8,208.7,7.3
75.0,191.5,210.9,210.2,204.2,11.0
76.25,190.0,207.3,210.4,202.6,11.0
77.5,179.8,201.9,211.1,197.6,16.1
78.75,175.1,199.2,208.8,194.4,17.4
80.0,170.1,192.1,210.7,191.0,20.3
81.25,165.2,188.4,206.3,186.6,20.6
82.5,155.3,180.6,204.9,180.3,24.8
83.75,149.8,177.0,202.5,176.4,26.3
85.0,143.5,170.3,201.8,171.9,29.2
86.25,135.2,166.6,198.8,166.9,31.8
87.5,132.2,159.4,193.2,161.6,30.6
88.75,128.6,150.7,192.9,157.4,32.7
90.0,120.8,147.2,187.1,151.7,33.4
91.25,116.5,140.5,184.3,147.1,34.4
92.5,114.4,134.0,182.4,143.6,35.0
93.75,109.1,128.0,177.8,138.3,35.5
95.0,107.3,122.0,174.1,134.5,35.1
96.25,105.1,117.9,173.6,132.2,36.4
97.5,104.7,112.0,168.3,128.3,34.8
98.75,101.7,109.1,165.5,125.4,34.9
100.0,101.5,106.3,161.7,123.2,33.5
101.25,101.6,101.5,157.3,120.1,32.2
102.5,98.9,97.7,153.0,116.5,31.6
103.75,99.4,98.2,151.3,116.3,30.3
105.0,97.0,93.5,144.0,111.5,28.2
106.25,95.9,90.5,141.8,109.4,28.2
107.5,95.1,86.0,137.4,106.2,27.4
108.75,92.8,81.6,133.3,102.6,27.2
110.0,93.2,79.8,129.6,100.8,25.8
111.25,91.2,76.2,125.5,97.6,25.3
112.5,91.1,74.4,120.1,95.2,23.1
113.75,90.3,71.0,116.2,92.5,22.7
115.0,90.5,69.0,111.7,90.4,21.3
116.25,89.8,64.1,105.8,86.6,21.0
117.5,89.6,61.8,101.8,84.4,20.5
118.75,90.7,57.8,95.3,81.3,20.5
120.0,89.8,56.1,90.7,78.9,19.7
121.25,90.3,53.3,86.7,76.8,20.4
122.5,90.3,51.1,83.7,75.0,21.0
123.75,89.4,47.6,78.8,71.9,21.7
125.0,89.8,45.4,74.3,69.8,22.5
126.25,87.6,44.1,70.9,67.6,22.0
127.5,88.4,42.0,66.4,65.6,23.2
128.75,86.2,39.5,63.5,63.1,23.3
130.0,85.0,38.8,59.4,61.0,23.2
131.25,83.6,36.8,55.9,58.8,23.6
132.5,82.5,36.1,52.7,57.1,23.5
133.75,82.1,35.1,50.1,55.8,24.0
135.0,82.5,34.2,47.6,54.7,24.9
136.25,81.2,33.7,45.6,53.5,24.7
137.5,81.0,33.8,43.1,52.7,25.0
138.75,80.0,33.9,41.6,51.8,24.7
140.0,79.3,33.6,39.3,50.7,24.9
141.25,77.8,33.0,37.7,49.5,24.6
142.5,76.5,32.4,35.8,48.2,24.6
143.75,75.1,31.8,34.4,47.1,24.3
145.0,73.4,30.9,32.5,45.6,24.1
146.25,73.4,29.5,30.2,44.4,25.1
147.5,71.6,29.0,28.4,43.0,24.8
148.75,71.2,27.6,27.1,42.0,25.3
150.0,69.4,25.6,25.9,40.3,25.2
151.25,67.7,24.5,25.0,39.1,24.8
152.5,66.9,24.0,24.3,38.4,24.7
153.75,65.1,23.3,23.5,37.3,24.1
155.0,63.0,22.8,21.9,35.9,23.5
156.25,60.6,21.7,21.3,34.6,22.6
157.5,58.9,20.7,20.7,33.4,22.0
158.75,56.8,20.6,20.4,32.6,21.0
160.0,56.1,20.5,19.6,32.1,20.8
161.25,54.5,19.4,19.1,31.0,20.3
162.5,53.8,18.6,18.5,30.3,20.3
163.75,51.2,17.8,17.8,28.9,19.3
165.0,49.3,16.9,17.1,27.7,18.6
166.25,48.6,16.3,16.1,27.0,18.7
167.5,47.9,16.0,15.2,26.4,18.6
168.75,47.1,15.7,14.1,25.6,18.6
170.0,45.9,15.5,13.6,25.0,18.1
171.25,43.9,15.0,13.1,24.0,17.3
172.5,44.2,14.5,12.9,23.9,17.7
173.75,43.6,13.9,12.6,23.4,17.6
175.0,43.4,13.7,12.2,23.1,17.6
176.25,43.7,13.4,11.9,23.0,17.9
177.5,43.0,13.3,12.0,22.8,17.5
178.75,42.0,12.7,11.9,22.2,17.2
180.0,41.4,12.4,11.7,21.8,16.9
181.25,41.8,12.3,11.2,21.8,17.4
182.5,40.5,11.8,11.1,21.1,16.8
183.75,39.5,11.6,10.5,20.6,16.4
185.0,39.3,11.3,10.2,20.3,16.5
186.25,39.7,11.0,9.8,20.1,16.9
187.5,38.7,10.4,9.6,19.5,16.6
188.75,38.5,10.3,9.8,19.6,16.4
190.0,38.6,10.2,10.5,19.7,16.3
191.25,38.0,10.2,10.9,19.7,15.9
192.5,37.8,10.1,11.7,19.9,15.6
193.75,38.0,10.2,,24.1,19.6
195.0,37.7,10.6,,24.1,19.1
196.25,37.0,10.8,,23.9,18.5
197.5,37.1,10.7,,23.9,18.7
198.75,36.0,10.5,,23.3,18.0
200.0,35.1,10.3,,22.7,17.5
201.25,35.2,10.2,,22.7,17.6
202.5,34.5,10.1,,22.3,17.3
203.75,35.0,10.2,,22.6,17.5
205.0,34.1,9.8,,21.9,17.2
206.25,32.9,9.4,,21.2,16.7
207.5,32.5,9.0,,20.7,16.6
208.75,32.0,8.8,,20.4,16.4
210.0,31.8,8.8,,20.3,16.2
211.25,31.1,8.7,,19.9,15.8
212.5,30.4,8.5,,19.5,15.5
213.75,30.3,8.5,,19.4,15.4
215.0,29.5,8.6,,19.0,14.8
216.25,29.1,8.5,,18.8,14.6
217.5,28.6,8.3,,18.4,14.3
218.75,27.7,8.3,,18.0,13.7
220.0,27.1,8.1,,17.6,13.5
221.25,26.5,8.2,,17.3,12.9
222.5,26.3,8.2,,17.3,12.8
223.75,25.2,7.8,,16.5,12.3
225.0,24.5,7.9,,16.2,11.7
226.25,23.8,8.0,,15.9,11.1
227.5,23.3,8.1,,15.7,10.7
228.75,22.4,8.4,,15.4,9.8
230.0,22.2,8.6,,15.4,9.7
231.25,21.3,8.8,,15.0,8.9
232.5,21.4,9.3,,15.4,8.6
233.75,21.1,9.6,,15.4,8.2
235.0,20.4,9.8,,15.1,7.5
236.25,20.3,9.9,,15.1,7.3
237.5,19.6,9.8,,14.7,6.9
238.75,19.1,9.6,,14.4,6.7
240.0,18.9,9.4,,14.1,6.7
241.25,18.6,9.4,,14.0,6.5
242.5,18.8,9.3,,14.1,6.7
243.75,17.9,9.3,,13.6,6.1
245.0,17.0,9.4,,13.2,5.4
246.25,16.6,9.3,,12.9,5.1
247.5,16.0,9.3,,12.7,4.7
248.75,15.5,9.2,,12.3,4.4
250.0,14.9,9.3,,12.1,4.0
251.25,14.9,9.3,,12.1,3.9
252.5,14.5,8.9,,11.7,3.9
253.75,14.3,8.8,,11.5,3.9
255.0,14.0,8.7,,11.4,3.8
256.25,13.9,8.7,,11.3,3.7
257.5,13.5,8.6,,11.0,3.5
258.75,13.1,8.5,,10.8,3.3
260.0,12.7,8.0,,10.4,3.3
261.25,12.6,7.5,,10.1,3.6
262.5,12.6,7.8,,10.2,3.4
263.75,12.2,8.0,,10.1,3.0
265.0,11.8,8.1,,9.9,2.7
266.25,11.9,8.1,,10.0,2.7
267.5,12.7,8.4,,10.5,3.1
268.75,12.9,8.9,,10.9,2.8
270.0,13.0,9.2,,11.1,2.7
271.25,12.7,9.4,,11.0,2.3
272.5,12.8,9.6,,11.2,2.3
273.75,12.9,9.7,,11.3,2.2
275.0,12.7,9.6,,11.2,2.2
276.25,12.6,9.6,,11.1,2.1
277.5,12.0,9.6,,10.8,1.7
278.75,12.0,9.6,,10.8,1.7
280.0,11.4,9.5,,10.5,1.4
281.25,11.6,9.5,,10.6,1.5
282.5,12.1,9.5,,10.8,1.8
283.75,12.0,9.5,,10.7,1.8
285.0,11.8,9.6,,10.7,1.5
286.25,11.7,9.6,,10.7,1.5
287.5,11.5,9.6,,10.6,1.4
288.75,11.8,9.6,,10.7,1.6
290.0,11.4,9.5,,10.5,1.4
291.25,11.3,9.7,,10.5,1.1
292.5,11.2,9.6,,10.4,1.1
293.75,11.4,9.5,,10.4,1.4
295.0,10.9,9.5,,10.2,1.0
296.25,10.5,9.5,,10.0,0.7
297.5,10.8,9.5,,10.2,0.9
298.75,11.0,10.1,,10.5,0.6
300.0,11.1,10.2,,10.6,0.7
301.25,11.1,10.7,,10.9,0.3
302.5,11.1,11.2,,11.2,0.1
303.75,10.9,11.3,,11.1,0.3
305.0,10.5,11.5,,11.0,0.7
306.25,10.2,11.5,,10.9,0.9
307.5,10.2,11.5,,10.9,0.9
308.0,10.4,11.6,,11.0,0.8