File: 01_Data/Pressure_Treated_Deck/FTIR/IS/Pressure_Treated_Deck_IS_T_221012_R6.dpt
7497.03,0.02353
7473.89,0.01745
7450.74,0.02310
7427.6,0.02531
7404.45,0.01679
7381.31,0.02235
7358.16,0.03147
7335.02,0.02369
7311.87,0.02179
7288.73,0.02700
7265.58,0.02346
7242.44,0.02281
7219.29,0.02106
7196.15,0.01765
7173,0.02161
7149.86,0.02283
7126.71,0.01551
7103.57,0.01932
7080.42,0.02245
7057.28,0.01947
7034.13,0.01934
7010.99,0.02842
6987.84,0.01775
6964.7,0.02630
6941.55,0.01741
6918.41,0.01339
6895.26,0.02799
6872.12,0.01843
6848.97,0.02147
6825.83,0.02639
6802.68,0.01705
6779.54,0.02453
6756.39,0.02910
6733.25,0.02356
6710.1,0.02064
6686.96,0.02342
6663.82,0.02076
6640.67,0.02202
6617.53,0.02470
6594.38,0.01848
6571.24,0.01808
6548.09,0.01867
6524.95,0.02299
6501.8,0.01868
6478.66,0.02238
6455.51,0.02231
6432.37,0.02261
6409.22,0.02521
6386.08,0.02353
6362.93,0.02088
6339.79,0.01950
6316.64,0.02032
6293.5,0.02250
6270.35,0.02126
6247.21,0.02396
6224.06,0.01789
6200.92,0.02293
6177.77,0.02174
6154.63,0.02162
6131.48,0.02171
6108.34,0.02183
6085.19,0.02022
6062.05,0.02104
6038.9,0.02400
6015.76,0.01826
5992.61,0.02128
5969.47,0.02421
5946.32,0.02161
5923.18,0.01856
5900.03,0.02088
5876.89,0.02082
5853.74,0.02116
5830.6,0.02439
5807.45,0.02327
5784.31,0.02402
5761.16,0.02090
5738.02,0.02138
5714.87,0.02149
5691.73,0.02140
5668.58,0.02161
5645.44,0.01876
5622.29,0.02135
5599.15,0.02080
5576,0.02048
5552.86,0.01903
5529.71,0.02104
5506.57,0.02208
5483.42,0.02196
5460.28,0.02313
5437.13,0.02101
5413.99,0.02433
5390.84,0.02209
5367.7,0.02081
5344.55,0.02189
5321.41,0.02124
5298.26,0.02214
5275.12,0.02194
5251.97,0.02130
5228.83,0.02146
5205.68,0.02067
5182.54,0.02138
5159.39,0.02178
5136.25,0.02126
5113.1,0.02132
5089.96,0.02109
5066.81,0.02213
5043.67,0.02266
5020.52,0.02269
4997.38,0.02320
4974.23,0.02303
4951.09,0.02189
4927.94,0.02055
4904.8,0.02201
4881.65,0.02113
4858.51,0.02333
4835.36,0.02134
4812.22,0.02207
4789.07,0.02165
4765.93,0.02227
4742.78,0.02183
4719.64,0.02070
4696.49,0.02112
4673.35,0.02207
4650.2,0.02205
4627.06,0.02213
4603.92,0.02178
4580.77,0.02210
4557.63,0.02217
4534.48,0.02158
4511.34,0.02147
4488.19,0.02211
4465.05,0.02131
4441.9,0.02136
4418.76,0.02130
4395.61,0.02195
4372.47,0.02166
4349.32,0.02201
4326.18,0.02175
4303.03,0.02221
4279.89,0.02226
4256.74,0.02233
4233.6,0.02253
4210.45,0.02196
4187.31,0.02204
4164.16,0.02128
4141.02,0.02192
4117.87,0.02239
4094.73,0.02244
4071.58,0.02201
4048.44,0.02274
4025.29,0.02147
4002.15,0.02274
3979,0.02281
3955.86,0.02246
3932.71,0.02279
3909.57,0.02192
3886.42,0.02246
3863.28,0.02225
3840.13,0.02279
3816.99,0.02192
3793.84,0.02216
3770.7,0.02207
3747.55,0.02259
3724.41,0.02192
3701.26,0.02235
3678.12,0.02139
3654.97,0.02180
3631.83,0.02175
3608.68,0.02133
3585.54,0.02055
3562.39,0.02082
3539.25,0.02139
3516.1,0.02076
3492.96,0.02098
3469.81,0.01958
3446.67,0.02019
3423.52,0.01983
3400.38,0.01945
3377.23,0.02107
3354.09,0.02006
3330.94,0.01979
3307.8,0.01943
3284.65,0.02026
3261.51,0.01979
3238.36,0.02042
3215.22,0.02067
3192.07,0.02076
3168.93,0.02062
3145.78,0.02033
3122.64,0.02070
3099.49,0.02050
3076.35,0.02039
3053.2,0.02108
3030.06,0.02005
3006.91,0.02007
2983.77,0.02007
2960.62,0.01903
2937.48,0.01961
2914.33,0.02033
2891.19,0.02051
2868.04,0.02032
2844.9,0.02099
2821.75,0.02115
2798.61,0.02099
2775.46,0.02103
2752.32,0.02099
2729.17,0.02124
2706.03,0.02140
2682.88,0.02092
2659.74,0.02143
2636.59,0.02127
2613.45,0.02092
2590.3,0.02135
2567.16,0.02105
2544.02,0.02109
2520.87,0.02119
2497.73,0.02116
2474.58,0.02113
2451.44,0.02118
2428.29,0.02147
2405.15,0.02127
2382,0.02110
2358.86,0.02076
2335.71,0.02133
2312.57,0.02125
2289.42,0.02140
2266.28,0.02150
2243.13,0.02111
2219.99,0.02113
2196.84,0.02099
2173.7,0.02126
2150.55,0.02105
2127.41,0.02075
2104.26,0.02084
2081.12,0.02101
2057.97,0.02086
2034.83,0.02105
2011.68,0.02118
1988.54,0.02095
1965.39,0.02107
1942.25,0.02085
1919.1,0.02087
1895.96,0.02095
1872.81,0.02078
1849.67,0.02056
1826.52,0.02028
1803.38,0.02000
1780.23,0.01908
1757.09,0.01762
1733.94,0.01964
1710.8,0.02080
1687.65,0.01921
1664.51,0.01841
1641.36,0.01867
1618.22,0.01916
1595.07,0.01877
1571.93,0.01825
1548.78,0.01808
1525.64,0.01949
1502.49,0.01886
1479.35,0.01868
1456.2,0.01837
1433.06,0.01910
1409.91,0.01839
1386.77,0.01822
1363.62,0.01815
1340.48,0.01823
1317.33,0.01709
1294.19,0.01780
1271.04,0.01917
1247.9,0.02018
1224.75,0.01959
1201.61,0.01851
1178.46,0.01813
1155.32,0.01764
1132.17,0.01790
1109.03,0.01871
1085.88,0.01795
1062.74,0.02029
1039.59,0.01937
1016.45,0.01934
993.304,0.02158
970.159,0.02029
947.014,0.02015
923.869,0.01877
900.724,0.01947
877.579,0.01905
854.434,0.01891
831.289,0.01916
808.144,0.01906
784.999,0.01842
761.854,0.01848
738.709,0.01860
715.565,0.01794
692.42,0.01745
669.275,0.01657
646.13,0.01582
622.985,0.01666
599.84,0.01370