File: 01_Data/Pressure_Treated_Deck/FTIR/IS/Pressure_Treated_Deck_IS_S_221012_R2.dpt
7497.03,0.79978
7473.89,0.78066
7450.74,0.77973
7427.6,0.76953
7404.45,0.77686
7381.31,0.77445
7358.16,0.76615
7335.02,0.76370
7311.87,0.76029
7288.73,0.75210
7265.58,0.76205
7242.44,0.76457
7219.29,0.76415
7196.15,0.75900
7173,0.74180
7149.86,0.74216
7126.71,0.72569
7103.57,0.71530
7080.42,0.69833
7057.28,0.68118
7034.13,0.66458
7010.99,0.65207
6987.84,0.64087
6964.7,0.63518
6941.55,0.63208
6918.41,0.62374
6895.26,0.62606
6872.12,0.62906
6848.97,0.62224
6825.83,0.62369
6802.68,0.62364
6779.54,0.62092
6756.39,0.62614
6733.25,0.62791
6710.1,0.63146
6686.96,0.63854
6663.82,0.63476
6640.67,0.64198
6617.53,0.64360
6594.38,0.64673
6571.24,0.65191
6548.09,0.65183
6524.95,0.65417
6501.8,0.65799
6478.66,0.65299
6455.51,0.65489
6432.37,0.66197
6409.22,0.66006
6386.08,0.66087
6362.93,0.66733
6339.79,0.67037
6316.64,0.66981
6293.5,0.67264
6270.35,0.67164
6247.21,0.68199
6224.06,0.69237
6200.92,0.69519
6177.77,0.70180
6154.63,0.70729
6131.48,0.71227
6108.34,0.71139
6085.19,0.71662
6062.05,0.71421
6038.9,0.70904
6015.76,0.70629
5992.61,0.69744
5969.47,0.69350
5946.32,0.69815
5923.18,0.69902
5900.03,0.69628
5876.89,0.69087
5853.74,0.69262
5830.6,0.68796
5807.45,0.68696
5784.31,0.68575
5761.16,0.68671
5738.02,0.68737
5714.87,0.68716
5691.73,0.68889
5668.58,0.68786
5645.44,0.68615
5622.29,0.68436
5599.15,0.68516
5576,0.68708
5552.86,0.68787
5529.71,0.68927
5506.57,0.69160
5483.42,0.69450
5460.28,0.69676
5437.13,0.70142
5413.99,0.70263
5390.84,0.70822
5367.7,0.70607
5344.55,0.70289
5321.41,0.69131
5298.26,0.66811
5275.12,0.62942
5251.97,0.58104
5228.83,0.54815
5205.68,0.53236
5182.54,0.52989
5159.39,0.53928
5136.25,0.55198
5113.1,0.56640
5089.96,0.57853
5066.81,0.59169
5043.67,0.60272
5020.52,0.61174
4997.38,0.61373
4974.23,0.61251
4951.09,0.60158
4927.94,0.58454
4904.8,0.56275
4881.65,0.54452
4858.51,0.52556
4835.36,0.51132
4812.22,0.49927
4789.07,0.49500
4765.93,0.49190
4742.78,0.49072
4719.64,0.49276
4696.49,0.49674
4673.35,0.50226
4650.2,0.50998
4627.06,0.52021
4603.92,0.53221
4580.77,0.54233
4557.63,0.54843
4534.48,0.55264
4511.34,0.55321
4488.19,0.54472
4465.05,0.52272
4441.9,0.49584
4418.76,0.46519
4395.61,0.45086
4372.47,0.45793
4349.32,0.46191
4326.18,0.45627
4303.03,0.44584
4279.89,0.43931
4256.74,0.44272
4233.6,0.44541
4210.45,0.44436
4187.31,0.44675
4164.16,0.45091
4141.02,0.44634
4117.87,0.43136
4094.73,0.41139
4071.58,0.38954
4048.44,0.36691
4025.29,0.35183
4002.15,0.34886
3979,0.35403
3955.86,0.36248
3932.71,0.37467
3909.57,0.38494
3886.42,0.39589
3863.28,0.40573
3840.13,0.41576
3816.99,0.41794
3793.84,0.41559
3770.7,0.41077
3747.55,0.40115
3724.41,0.38215
3701.26,0.34795
3678.12,0.28055
3654.97,0.19293
3631.83,0.13922
3608.68,0.10527
3585.54,0.08296
3562.39,0.06897
3539.25,0.05977
3516.1,0.05462
3492.96,0.05077
3469.81,0.04834
3446.67,0.04741
3423.52,0.04775
3400.38,0.04844
3377.23,0.04978
3354.09,0.05084
3330.94,0.05412
3307.8,0.05661
3284.65,0.05871
3261.51,0.06381
3238.36,0.06922
3215.22,0.07521
3192.07,0.08193
3168.93,0.08910
3145.78,0.09649
3122.64,0.10593
3099.49,0.11447
3076.35,0.12159
3053.2,0.12963
3030.06,0.13484
3006.91,0.12986
2983.77,0.11685
2960.62,0.09315
2937.48,0.08081
2914.33,0.08004
2891.19,0.08224
2868.04,0.08854
2844.9,0.10343
2821.75,0.12994
2798.61,0.14934
2775.46,0.15911
2752.32,0.16358
2729.17,0.16669
2706.03,0.17566
2682.88,0.18510
2659.74,0.19232
2636.59,0.19860
2613.45,0.20638
2590.3,0.21334
2567.16,0.21748
2544.02,0.21987
2520.87,0.22594
2497.73,0.23545
2474.58,0.24592
2451.44,0.25544
2428.29,0.26633
2405.15,0.27874
2382,0.28956
2358.86,0.29814
2335.71,0.30385
2312.57,0.30627
2289.42,0.30478
2266.28,0.30041
2243.13,0.29552
2219.99,0.29243
2196.84,0.28708
2173.7,0.27420
2150.55,0.26419
2127.41,0.26139
2104.26,0.26475
2081.12,0.26590
2057.97,0.26089
2034.83,0.26687
2011.68,0.27969
1988.54,0.28800
1965.39,0.29505
1942.25,0.30617
1919.1,0.31232
1895.96,0.31197
1872.81,0.30999
1849.67,0.30483
1826.52,0.29256
1803.38,0.26145
1780.23,0.20888
1757.09,0.12058
1733.94,0.09132
1710.8,0.10820
1687.65,0.11065
1664.51,0.08905
1641.36,0.08959
1618.22,0.09008
1595.07,0.08611
1571.93,0.12382
1548.78,0.14130
1525.64,0.09510
1502.49,0.06901
1479.35,0.07803
1456.2,0.06081
1433.06,0.05852
1409.91,0.06477
1386.77,0.05991
1363.62,0.05905
1340.48,0.05963
1317.33,0.05799
1294.19,0.05868
1271.04,0.05117
1247.9,0.05637
1224.75,0.05655
1201.61,0.05815
1178.46,0.04970
1155.32,0.05043
1132.17,0.04399
1109.03,0.04842
1085.88,0.04986
1062.74,0.06890
1039.59,0.07425
1016.45,0.08652
993.304,0.09333
970.159,0.10983
947.014,0.12388
923.869,0.12988
900.724,0.11051
877.579,0.11738
854.434,0.12355
831.289,0.12051
808.144,0.10578
784.999,0.10668
761.854,0.09909
738.709,0.09117
715.565,0.08433
692.42,0.08019
669.275,0.07245
646.13,0.07378
622.985,0.06996
599.84,0.07683