File: 01_Data/Pressure_Treated_Deck/FTIR/IS/Pressure_Treated_Deck_IS_S_221012_R1.dpt
7497.03,0.80337
7473.89,0.78526
7450.74,0.78204
7427.6,0.78637
7404.45,0.78489
7381.31,0.77655
7358.16,0.77142
7335.02,0.75982
7311.87,0.76655
7288.73,0.75489
7265.58,0.75483
7242.44,0.75965
7219.29,0.75158
7196.15,0.76427
7173,0.75203
7149.86,0.73462
7126.71,0.72746
7103.57,0.71448
7080.42,0.69644
7057.28,0.67409
7034.13,0.66456
7010.99,0.64735
6987.84,0.63648
6964.7,0.63364
6941.55,0.62241
6918.41,0.61695
6895.26,0.62001
6872.12,0.61939
6848.97,0.62289
6825.83,0.62501
6802.68,0.62455
6779.54,0.62262
6756.39,0.62580
6733.25,0.62428
6710.1,0.63297
6686.96,0.62813
6663.82,0.63658
6640.67,0.64023
6617.53,0.64293
6594.38,0.64563
6571.24,0.64928
6548.09,0.65179
6524.95,0.65584
6501.8,0.64939
6478.66,0.65767
6455.51,0.65927
6432.37,0.65605
6409.22,0.66077
6386.08,0.66887
6362.93,0.66565
6339.79,0.67056
6316.64,0.66650
6293.5,0.67272
6270.35,0.67317
6247.21,0.68393
6224.06,0.68890
6200.92,0.69631
6177.77,0.70008
6154.63,0.70595
6131.48,0.71139
6108.34,0.70924
6085.19,0.71416
6062.05,0.71569
6038.9,0.70986
6015.76,0.70049
5992.61,0.69579
5969.47,0.69696
5946.32,0.69771
5923.18,0.70097
5900.03,0.69422
5876.89,0.69408
5853.74,0.68946
5830.6,0.68718
5807.45,0.68627
5784.31,0.68630
5761.16,0.69093
5738.02,0.68795
5714.87,0.68684
5691.73,0.68936
5668.58,0.68540
5645.44,0.68538
5622.29,0.68474
5599.15,0.68716
5576,0.68586
5552.86,0.68989
5529.71,0.69091
5506.57,0.69219
5483.42,0.69500
5460.28,0.69530
5437.13,0.70195
5413.99,0.70408
5390.84,0.70772
5367.7,0.70861
5344.55,0.70273
5321.41,0.69165
5298.26,0.66858
5275.12,0.62596
5251.97,0.57645
5228.83,0.54296
5205.68,0.52778
5182.54,0.52585
5159.39,0.53448
5136.25,0.54926
5113.1,0.56280
5089.96,0.57430
5066.81,0.58765
5043.67,0.59980
5020.52,0.60839
4997.38,0.61179
4974.23,0.60942
4951.09,0.60117
4927.94,0.58405
4904.8,0.56238
4881.65,0.54437
4858.51,0.52600
4835.36,0.51323
4812.22,0.50101
4789.07,0.49596
4765.93,0.49205
4742.78,0.49158
4719.64,0.49401
4696.49,0.49698
4673.35,0.50026
4650.2,0.51000
4627.06,0.51981
4603.92,0.53232
4580.77,0.54179
4557.63,0.54817
4534.48,0.55300
4511.34,0.55309
4488.19,0.54400
4465.05,0.52220
4441.9,0.49399
4418.76,0.46472
4395.61,0.45090
4372.47,0.45734
4349.32,0.46200
4326.18,0.45576
4303.03,0.44595
4279.89,0.43896
4256.74,0.44214
4233.6,0.44467
4210.45,0.44483
4187.31,0.44614
4164.16,0.45122
4141.02,0.44610
4117.87,0.43044
4094.73,0.41117
4071.58,0.38826
4048.44,0.36621
4025.29,0.35147
4002.15,0.34897
3979,0.35316
3955.86,0.36244
3932.71,0.37294
3909.57,0.38480
3886.42,0.39463
3863.28,0.40457
3840.13,0.41398
3816.99,0.41621
3793.84,0.41446
3770.7,0.40852
3747.55,0.39995
3724.41,0.37967
3701.26,0.34407
3678.12,0.27608
3654.97,0.18862
3631.83,0.13481
3608.68,0.10273
3585.54,0.08121
3562.39,0.06730
3539.25,0.05950
3516.1,0.05429
3492.96,0.05081
3469.81,0.04811
3446.67,0.04760
3423.52,0.04761
3400.38,0.04877
3377.23,0.04906
3354.09,0.05041
3330.94,0.05378
3307.8,0.05705
3284.65,0.05943
3261.51,0.06397
3238.36,0.06822
3215.22,0.07451
3192.07,0.07983
3168.93,0.08772
3145.78,0.09589
3122.64,0.10364
3099.49,0.11268
3076.35,0.11963
3053.2,0.12798
3030.06,0.13329
3006.91,0.12884
2983.77,0.11682
2960.62,0.09315
2937.48,0.08036
2914.33,0.07946
2891.19,0.08239
2868.04,0.08870
2844.9,0.10355
2821.75,0.12944
2798.61,0.14896
2775.46,0.15844
2752.32,0.16320
2729.17,0.16631
2706.03,0.17473
2682.88,0.18424
2659.74,0.19165
2636.59,0.19825
2613.45,0.20620
2590.3,0.21238
2567.16,0.21681
2544.02,0.21907
2520.87,0.22517
2497.73,0.23486
2474.58,0.24504
2451.44,0.25456
2428.29,0.26543
2405.15,0.27811
2382,0.28792
2358.86,0.29405
2335.71,0.29997
2312.57,0.30422
2289.42,0.30298
2266.28,0.29862
2243.13,0.29366
2219.99,0.29043
2196.84,0.28470
2173.7,0.27233
2150.55,0.26238
2127.41,0.25931
2104.26,0.26220
2081.12,0.26283
2057.97,0.25910
2034.83,0.26505
2011.68,0.27761
1988.54,0.28644
1965.39,0.29311
1942.25,0.30408
1919.1,0.31063
1895.96,0.31004
1872.81,0.30813
1849.67,0.30326
1826.52,0.29049
1803.38,0.26064
1780.23,0.20819
1757.09,0.12053
1733.94,0.09052
1710.8,0.10718
1687.65,0.10978
1664.51,0.08792
1641.36,0.08825
1618.22,0.08897
1595.07,0.08539
1571.93,0.12287
1548.78,0.14064
1525.64,0.09523
1502.49,0.06877
1479.35,0.07841
1456.2,0.06139
1433.06,0.05857
1409.91,0.06462
1386.77,0.06045
1363.62,0.05904
1340.48,0.05954
1317.33,0.05792
1294.19,0.05856
1271.04,0.05123
1247.9,0.05685
1224.75,0.05634
1201.61,0.05829
1178.46,0.04972
1155.32,0.05099
1132.17,0.04404
1109.03,0.04855
1085.88,0.04970
1062.74,0.06870
1039.59,0.07456
1016.45,0.08651
993.304,0.09331
970.159,0.10990
947.014,0.12379
923.869,0.12909
900.724,0.10934
877.579,0.11681
854.434,0.12237
831.289,0.11914
808.144,0.10348
784.999,0.10523
761.854,0.09770
738.709,0.09032
715.565,0.08294
692.42,0.07857
669.275,0.07335
646.13,0.07326
622.985,0.06973
599.84,0.07416