File: 01_Data/Pressure_Treated_Deck/FTIR/IS/Pressure_Treated_Deck_IS_S_221012_R8.dpt
7497.03,0.81354
7473.89,0.79969
7450.74,0.78522
7427.6,0.79297
7404.45,0.78461
7381.31,0.78402
7358.16,0.77292
7335.02,0.77298
7311.87,0.76878
7288.73,0.77229
7265.58,0.76746
7242.44,0.76141
7219.29,0.76023
7196.15,0.75842
7173,0.75482
7149.86,0.74831
7126.71,0.73716
7103.57,0.72495
7080.42,0.70626
7057.28,0.69144
7034.13,0.67323
7010.99,0.66020
6987.84,0.64036
6964.7,0.63928
6941.55,0.63051
6918.41,0.63020
6895.26,0.63535
6872.12,0.63368
6848.97,0.63270
6825.83,0.63412
6802.68,0.63124
6779.54,0.63547
6756.39,0.63224
6733.25,0.63230
6710.1,0.63686
6686.96,0.64281
6663.82,0.64465
6640.67,0.64804
6617.53,0.65065
6594.38,0.65812
6571.24,0.65996
6548.09,0.65954
6524.95,0.66580
6501.8,0.66480
6478.66,0.66492
6455.51,0.66763
6432.37,0.66760
6409.22,0.67394
6386.08,0.67098
6362.93,0.67627
6339.79,0.67675
6316.64,0.67444
6293.5,0.68211
6270.35,0.68600
6247.21,0.68809
6224.06,0.69971
6200.92,0.69997
6177.77,0.71049
6154.63,0.71705
6131.48,0.71872
6108.34,0.72222
6085.19,0.72660
6062.05,0.71923
6038.9,0.72113
6015.76,0.71466
5992.61,0.70478
5969.47,0.70336
5946.32,0.70476
5923.18,0.70648
5900.03,0.70263
5876.89,0.69569
5853.74,0.69790
5830.6,0.69643
5807.45,0.69686
5784.31,0.69100
5761.16,0.69460
5738.02,0.69593
5714.87,0.69339
5691.73,0.69410
5668.58,0.69436
5645.44,0.69362
5622.29,0.69457
5599.15,0.69238
5576,0.69391
5552.86,0.69689
5529.71,0.69870
5506.57,0.69989
5483.42,0.70121
5460.28,0.70449
5437.13,0.70835
5413.99,0.71486
5390.84,0.71590
5367.7,0.71460
5344.55,0.71166
5321.41,0.70332
5298.26,0.68277
5275.12,0.64551
5251.97,0.60028
5228.83,0.56703
5205.68,0.55295
5182.54,0.55164
5159.39,0.56107
5136.25,0.57282
5113.1,0.58626
5089.96,0.59842
5066.81,0.61044
5043.67,0.62159
5020.52,0.62757
4997.38,0.63003
4974.23,0.62599
4951.09,0.61045
4927.94,0.59205
4904.8,0.57043
4881.65,0.54919
4858.51,0.53117
4835.36,0.51827
4812.22,0.50629
4789.07,0.49853
4765.93,0.49487
4742.78,0.49550
4719.64,0.49880
4696.49,0.50182
4673.35,0.50679
4650.2,0.51479
4627.06,0.52414
4603.92,0.53802
4580.77,0.54815
4557.63,0.55455
4534.48,0.55812
4511.34,0.56041
4488.19,0.54957
4465.05,0.52729
4441.9,0.49915
4418.76,0.46893
4395.61,0.45491
4372.47,0.46087
4349.32,0.46456
4326.18,0.46015
4303.03,0.44915
4279.89,0.44252
4256.74,0.44618
4233.6,0.45022
4210.45,0.44850
4187.31,0.45078
4164.16,0.45662
4141.02,0.45112
4117.87,0.43676
4094.73,0.41780
4071.58,0.39371
4048.44,0.37152
4025.29,0.35645
4002.15,0.35370
3979,0.35782
3955.86,0.36762
3932.71,0.38002
3909.57,0.39142
3886.42,0.40186
3863.28,0.41071
3840.13,0.42230
3816.99,0.42526
3793.84,0.42374
3770.7,0.41962
3747.55,0.41244
3724.41,0.39368
3701.26,0.36025
3678.12,0.29502
3654.97,0.20805
3631.83,0.14997
3608.68,0.11188
3585.54,0.08720
3562.39,0.07131
3539.25,0.06187
3516.1,0.05563
3492.96,0.05132
3469.81,0.04842
3446.67,0.04769
3423.52,0.04817
3400.38,0.04920
3377.23,0.04956
3354.09,0.05112
3330.94,0.05464
3307.8,0.05706
3284.65,0.06046
3261.51,0.06425
3238.36,0.07005
3215.22,0.07545
3192.07,0.08353
3168.93,0.09150
3145.78,0.10110
3122.64,0.11020
3099.49,0.11876
3076.35,0.12592
3053.2,0.13453
3030.06,0.13882
3006.91,0.13275
2983.77,0.11909
2960.62,0.09413
2937.48,0.08106
2914.33,0.08067
2891.19,0.08276
2868.04,0.08958
2844.9,0.10479
2821.75,0.13165
2798.61,0.15183
2775.46,0.16139
2752.32,0.16606
2729.17,0.16964
2706.03,0.17828
2682.88,0.18777
2659.74,0.19483
2636.59,0.20182
2613.45,0.20923
2590.3,0.21601
2567.16,0.22071
2544.02,0.22237
2520.87,0.22891
2497.73,0.23881
2474.58,0.24904
2451.44,0.25889
2428.29,0.26963
2405.15,0.28287
2382,0.29342
2358.86,0.30290
2335.71,0.30913
2312.57,0.31203
2289.42,0.30997
2266.28,0.30668
2243.13,0.30167
2219.99,0.29945
2196.84,0.29419
2173.7,0.28135
2150.55,0.27164
2127.41,0.26833
2104.26,0.27176
2081.12,0.27299
2057.97,0.26786
2034.83,0.27356
2011.68,0.28641
1988.54,0.29508
1965.39,0.30230
1942.25,0.31322
1919.1,0.31970
1895.96,0.31908
1872.81,0.31646
1849.67,0.31128
1826.52,0.29814
1803.38,0.26580
1780.23,0.21074
1757.09,0.12025
1733.94,0.09217
1710.8,0.10993
1687.65,0.11393
1664.51,0.09189
1641.36,0.09312
1618.22,0.09262
1595.07,0.08704
1571.93,0.12601
1548.78,0.14346
1525.64,0.09653
1502.49,0.06928
1479.35,0.07882
1456.2,0.06162
1433.06,0.05872
1409.91,0.06525
1386.77,0.06023
1363.62,0.05854
1340.48,0.05971
1317.33,0.05779
1294.19,0.05858
1271.04,0.05103
1247.9,0.05670
1224.75,0.05674
1201.61,0.05839
1178.46,0.04898
1155.32,0.05084
1132.17,0.04391
1109.03,0.04866
1085.88,0.05056
1062.74,0.06910
1039.59,0.07480
1016.45,0.08699
993.304,0.09392
970.159,0.11030
947.014,0.12502
923.869,0.13087
900.724,0.11121
877.579,0.11934
854.434,0.12575
831.289,0.12398
808.144,0.10781
784.999,0.11021
761.854,0.10231
738.709,0.09416
715.565,0.08692
692.42,0.08175
669.275,0.07315
646.13,0.07506
622.985,0.07097
599.84,0.07552