File: 01_Data/Pressure_Treated_Deck/FTIR/IS/Pressure_Treated_Deck_IS_T_221012_R1.dpt
7497.03,0.03266
7473.89,0.02170
7450.74,0.02279
7427.6,0.02127
7404.45,0.02029
7381.31,0.02180
7358.16,0.03030
7335.02,0.02472
7311.87,0.02159
7288.73,0.02454
7265.58,0.01675
7242.44,0.03070
7219.29,0.02711
7196.15,0.02031
7173,0.03237
7149.86,0.01929
7126.71,0.01964
7103.57,0.02554
7080.42,0.02184
7057.28,0.01672
7034.13,0.02473
7010.99,0.02657
6987.84,0.01931
6964.7,0.01739
6941.55,0.01960
6918.41,0.01688
6895.26,0.02871
6872.12,0.01869
6848.97,0.01904
6825.83,0.02506
6802.68,0.02791
6779.54,0.02584
6756.39,0.02617
6733.25,0.02594
6710.1,0.02764
6686.96,0.02415
6663.82,0.01684
6640.67,0.02273
6617.53,0.02500
6594.38,0.01634
6571.24,0.02531
6548.09,0.01721
6524.95,0.02403
6501.8,0.02482
6478.66,0.02125
6455.51,0.02379
6432.37,0.01962
6409.22,0.02429
6386.08,0.02260
6362.93,0.02324
6339.79,0.02182
6316.64,0.01978
6293.5,0.02112
6270.35,0.02010
6247.21,0.02075
6224.06,0.02165
6200.92,0.02520
6177.77,0.02601
6154.63,0.01996
6131.48,0.02049
6108.34,0.01987
6085.19,0.02136
6062.05,0.02062
6038.9,0.02150
6015.76,0.02195
5992.61,0.02114
5969.47,0.02127
5946.32,0.02317
5923.18,0.02363
5900.03,0.02045
5876.89,0.02167
5853.74,0.02172
5830.6,0.02130
5807.45,0.02170
5784.31,0.02185
5761.16,0.02462
5738.02,0.02148
5714.87,0.02195
5691.73,0.02294
5668.58,0.01897
5645.44,0.01979
5622.29,0.01871
5599.15,0.02107
5576,0.01969
5552.86,0.01973
5529.71,0.02061
5506.57,0.02415
5483.42,0.02167
5460.28,0.02071
5437.13,0.02104
5413.99,0.02081
5390.84,0.02189
5367.7,0.02177
5344.55,0.02167
5321.41,0.02022
5298.26,0.02154
5275.12,0.02037
5251.97,0.02325
5228.83,0.02048
5205.68,0.02221
5182.54,0.02184
5159.39,0.02197
5136.25,0.02196
5113.1,0.02129
5089.96,0.02191
5066.81,0.02128
5043.67,0.02352
5020.52,0.02082
4997.38,0.02118
4974.23,0.02139
4951.09,0.02077
4927.94,0.02275
4904.8,0.02263
4881.65,0.02227
4858.51,0.02234
4835.36,0.02107
4812.22,0.02258
4789.07,0.02245
4765.93,0.02201
4742.78,0.02132
4719.64,0.02329
4696.49,0.02071
4673.35,0.02237
4650.2,0.02195
4627.06,0.02183
4603.92,0.02255
4580.77,0.02196
4557.63,0.02191
4534.48,0.02111
4511.34,0.02242
4488.19,0.02190
4465.05,0.02278
4441.9,0.02192
4418.76,0.02161
4395.61,0.02187
4372.47,0.02154
4349.32,0.02203
4326.18,0.02244
4303.03,0.02183
4279.89,0.02193
4256.74,0.02138
4233.6,0.02324
4210.45,0.02293
4187.31,0.02146
4164.16,0.02209
4141.02,0.02200
4117.87,0.02145
4094.73,0.02200
4071.58,0.02219
4048.44,0.02226
4025.29,0.02188
4002.15,0.02179
3979,0.02255
3955.86,0.02304
3932.71,0.02265
3909.57,0.02230
3886.42,0.02252
3863.28,0.02266
3840.13,0.02147
3816.99,0.02262
3793.84,0.02260
3770.7,0.02237
3747.55,0.02267
3724.41,0.02265
3701.26,0.02214
3678.12,0.02267
3654.97,0.02179
3631.83,0.02133
3608.68,0.02191
3585.54,0.02082
3562.39,0.02137
3539.25,0.02100
3516.1,0.02078
3492.96,0.02091
3469.81,0.02076
3446.67,0.02060
3423.52,0.02038
3400.38,0.01966
3377.23,0.02078
3354.09,0.02009
3330.94,0.01989
3307.8,0.02118
3284.65,0.02061
3261.51,0.02013
3238.36,0.02082
3215.22,0.02037
3192.07,0.02068
3168.93,0.02101
3145.78,0.02105
3122.64,0.02040
3099.49,0.02059
3076.35,0.02081
3053.2,0.02033
3030.06,0.02061
3006.91,0.02027
2983.77,0.02001
2960.62,0.01987
2937.48,0.01936
2914.33,0.02058
2891.19,0.02041
2868.04,0.02040
2844.9,0.02180
2821.75,0.02089
2798.61,0.02147
2775.46,0.02147
2752.32,0.02158
2729.17,0.02184
2706.03,0.02139
2682.88,0.02129
2659.74,0.02192
2636.59,0.02133
2613.45,0.02133
2590.3,0.02112
2567.16,0.02136
2544.02,0.02160
2520.87,0.02120
2497.73,0.02196
2474.58,0.02131
2451.44,0.02127
2428.29,0.02110
2405.15,0.02163
2382,0.02150
2358.86,0.02163
2335.71,0.02112
2312.57,0.02135
2289.42,0.02149
2266.28,0.02125
2243.13,0.02105
2219.99,0.02138
2196.84,0.02115
2173.7,0.02129
2150.55,0.02090
2127.41,0.02119
2104.26,0.02122
2081.12,0.02135
2057.97,0.02118
2034.83,0.02126
2011.68,0.02078
1988.54,0.02112
1965.39,0.02148
1942.25,0.02104
1919.1,0.02124
1895.96,0.02075
1872.81,0.02079
1849.67,0.02095
1826.52,0.02040
1803.38,0.02008
1780.23,0.01944
1757.09,0.01764
1733.94,0.01995
1710.8,0.02046
1687.65,0.01942
1664.51,0.01858
1641.36,0.01897
1618.22,0.01915
1595.07,0.01916
1571.93,0.01897
1548.78,0.01833
1525.64,0.01910
1502.49,0.01884
1479.35,0.01879
1456.2,0.01868
1433.06,0.01905
1409.91,0.01888
1386.77,0.01808
1363.62,0.01840
1340.48,0.01819
1317.33,0.01714
1294.19,0.01835
1271.04,0.01950
1247.9,0.02047
1224.75,0.01968
1201.61,0.01891
1178.46,0.01795
1155.32,0.01777
1132.17,0.01761
1109.03,0.01888
1085.88,0.01889
1062.74,0.01990
1039.59,0.01975
1016.45,0.01929
993.304,0.02130
970.159,0.02068
947.014,0.01998
923.869,0.01934
900.724,0.01894
877.579,0.01870
854.434,0.01924
831.289,0.01883
808.144,0.01973
784.999,0.01801
761.854,0.01888
738.709,0.01788
715.565,0.01772
692.42,0.01833
669.275,0.01712
646.13,0.01558
622.985,0.01495
599.84,0.01513