File: 01_Data/Pressure_Treated_Deck/FTIR/IS/Pressure_Treated_Deck_IS_S_221012_R5.dpt
7497.03,0.79624
7473.89,0.80660
7450.74,0.80167
7427.6,0.80315
7404.45,0.77969
7381.31,0.78523
7358.16,0.78273
7335.02,0.76730
7311.87,0.76337
7288.73,0.76869
7265.58,0.76908
7242.44,0.76674
7219.29,0.76447
7196.15,0.75754
7173,0.75307
7149.86,0.75094
7126.71,0.73864
7103.57,0.73066
7080.42,0.70513
7057.28,0.68903
7034.13,0.67325
7010.99,0.66006
6987.84,0.64526
6964.7,0.64390
6941.55,0.63132
6918.41,0.62803
6895.26,0.62823
6872.12,0.62907
6848.97,0.63693
6825.83,0.63474
6802.68,0.63393
6779.54,0.62619
6756.39,0.62641
6733.25,0.63920
6710.1,0.63049
6686.96,0.63861
6663.82,0.64512
6640.67,0.64496
6617.53,0.64820
6594.38,0.65538
6571.24,0.65736
6548.09,0.65761
6524.95,0.65967
6501.8,0.66208
6478.66,0.66570
6455.51,0.66196
6432.37,0.67034
6409.22,0.67011
6386.08,0.66862
6362.93,0.66921
6339.79,0.67777
6316.64,0.67709
6293.5,0.67673
6270.35,0.68290
6247.21,0.69190
6224.06,0.69470
6200.92,0.69956
6177.77,0.70537
6154.63,0.71305
6131.48,0.71544
6108.34,0.72177
6085.19,0.72206
6062.05,0.71709
6038.9,0.71899
6015.76,0.70786
5992.61,0.69986
5969.47,0.70570
5946.32,0.70178
5923.18,0.70122
5900.03,0.69662
5876.89,0.69343
5853.74,0.69619
5830.6,0.69324
5807.45,0.68860
5784.31,0.68930
5761.16,0.69311
5738.02,0.69117
5714.87,0.69358
5691.73,0.69248
5668.58,0.69002
5645.44,0.69062
5622.29,0.69210
5599.15,0.69159
5576,0.69151
5552.86,0.69579
5529.71,0.69481
5506.57,0.69942
5483.42,0.69875
5460.28,0.70141
5437.13,0.70402
5413.99,0.70748
5390.84,0.71199
5367.7,0.71124
5344.55,0.70766
5321.41,0.69724
5298.26,0.67801
5275.12,0.63951
5251.97,0.59440
5228.83,0.56085
5205.68,0.54662
5182.54,0.54670
5159.39,0.55357
5136.25,0.56594
5113.1,0.58041
5089.96,0.59360
5066.81,0.60487
5043.67,0.61520
5020.52,0.62110
4997.38,0.62488
4974.23,0.62153
4951.09,0.60755
4927.94,0.58905
4904.8,0.56692
4881.65,0.54847
4858.51,0.52987
4835.36,0.51496
4812.22,0.50306
4789.07,0.49825
4765.93,0.49441
4742.78,0.49327
4719.64,0.49628
4696.49,0.49972
4673.35,0.50353
4650.2,0.51322
4627.06,0.52240
4603.92,0.53519
4580.77,0.54531
4557.63,0.55164
4534.48,0.55593
4511.34,0.55589
4488.19,0.54792
4465.05,0.52574
4441.9,0.49757
4418.76,0.46728
4395.61,0.45253
4372.47,0.45939
4349.32,0.46366
4326.18,0.45823
4303.03,0.44736
4279.89,0.44108
4256.74,0.44503
4233.6,0.44733
4210.45,0.44732
4187.31,0.44919
4164.16,0.45478
4141.02,0.44910
4117.87,0.43522
4094.73,0.41517
4071.58,0.39151
4048.44,0.36928
4025.29,0.35486
4002.15,0.35191
3979,0.35657
3955.86,0.36624
3932.71,0.37747
3909.57,0.38928
3886.42,0.39988
3863.28,0.40937
3840.13,0.41974
3816.99,0.42241
3793.84,0.42077
3770.7,0.41703
3747.55,0.40843
3724.41,0.39005
3701.26,0.35666
3678.12,0.29005
3654.97,0.20379
3631.83,0.14731
3608.68,0.11040
3585.54,0.08524
3562.39,0.07064
3539.25,0.06127
3516.1,0.05538
3492.96,0.05158
3469.81,0.04907
3446.67,0.04760
3423.52,0.04821
3400.38,0.04912
3377.23,0.05002
3354.09,0.05139
3330.94,0.05403
3307.8,0.05735
3284.65,0.06022
3261.51,0.06477
3238.36,0.07060
3215.22,0.07642
3192.07,0.08277
3168.93,0.09110
3145.78,0.10000
3122.64,0.10866
3099.49,0.11772
3076.35,0.12505
3053.2,0.13276
3030.06,0.13766
3006.91,0.13158
2983.77,0.11847
2960.62,0.09418
2937.48,0.08048
2914.33,0.08019
2891.19,0.08265
2868.04,0.08876
2844.9,0.10406
2821.75,0.13121
2798.61,0.15126
2775.46,0.16089
2752.32,0.16539
2729.17,0.16877
2706.03,0.17699
2682.88,0.18664
2659.74,0.19380
2636.59,0.20059
2613.45,0.20810
2590.3,0.21518
2567.16,0.21914
2544.02,0.22148
2520.87,0.22780
2497.73,0.23745
2474.58,0.24770
2451.44,0.25710
2428.29,0.26827
2405.15,0.28108
2382,0.29238
2358.86,0.30158
2335.71,0.30738
2312.57,0.31012
2289.42,0.30835
2266.28,0.30445
2243.13,0.29991
2219.99,0.29692
2196.84,0.29206
2173.7,0.27916
2150.55,0.26913
2127.41,0.26639
2104.26,0.26964
2081.12,0.27030
2057.97,0.26546
2034.83,0.27130
2011.68,0.28405
1988.54,0.29263
1965.39,0.29975
1942.25,0.31080
1919.1,0.31722
1895.96,0.31671
1872.81,0.31434
1849.67,0.30866
1826.52,0.29594
1803.38,0.26427
1780.23,0.20986
1757.09,0.12045
1733.94,0.09161
1710.8,0.10940
1687.65,0.11321
1664.51,0.09106
1641.36,0.09221
1618.22,0.09177
1595.07,0.08657
1571.93,0.12548
1548.78,0.14289
1525.64,0.09584
1502.49,0.06899
1479.35,0.07856
1456.2,0.06134
1433.06,0.05837
1409.91,0.06462
1386.77,0.05964
1363.62,0.05877
1340.48,0.06017
1317.33,0.05822
1294.19,0.05829
1271.04,0.05142
1247.9,0.05659
1224.75,0.05630
1201.61,0.05824
1178.46,0.04977
1155.32,0.05065
1132.17,0.04396
1109.03,0.04811
1085.88,0.05040
1062.74,0.06912
1039.59,0.07448
1016.45,0.08715
993.304,0.09319
970.159,0.11040
947.014,0.12455
923.869,0.13092
900.724,0.11132
877.579,0.11913
854.434,0.12558
831.289,0.12303
808.144,0.10762
784.999,0.11039
761.854,0.10169
738.709,0.09422
715.565,0.08583
692.42,0.08065
669.275,0.07427
646.13,0.07449
622.985,0.07172
599.84,0.07811