File: 01_Data/Pressure_Treated_Deck/FTIR/IS/Pressure_Treated_Deck_IS_S_221012_R3.dpt
7497.03,0.81341
7473.89,0.79885
7450.74,0.79654
7427.6,0.79527
7404.45,0.77964
7381.31,0.78537
7358.16,0.78388
7335.02,0.75892
7311.87,0.76004
7288.73,0.76675
7265.58,0.76189
7242.44,0.76495
7219.29,0.77342
7196.15,0.75077
7173,0.76177
7149.86,0.74173
7126.71,0.73877
7103.57,0.72086
7080.42,0.70333
7057.28,0.68277
7034.13,0.67169
7010.99,0.65031
6987.84,0.64511
6964.7,0.63186
6941.55,0.63408
6918.41,0.63014
6895.26,0.62828
6872.12,0.62867
6848.97,0.62850
6825.83,0.63092
6802.68,0.63434
6779.54,0.63371
6756.39,0.62924
6733.25,0.63065
6710.1,0.63344
6686.96,0.63301
6663.82,0.64379
6640.67,0.64412
6617.53,0.64821
6594.38,0.65417
6571.24,0.65690
6548.09,0.66124
6524.95,0.65495
6501.8,0.65988
6478.66,0.66448
6455.51,0.66157
6432.37,0.66711
6409.22,0.66945
6386.08,0.66900
6362.93,0.67209
6339.79,0.67757
6316.64,0.67454
6293.5,0.67817
6270.35,0.68599
6247.21,0.68901
6224.06,0.69498
6200.92,0.69826
6177.77,0.70939
6154.63,0.70851
6131.48,0.71811
6108.34,0.71843
6085.19,0.72143
6062.05,0.72213
6038.9,0.71181
6015.76,0.70868
5992.61,0.70493
5969.47,0.69950
5946.32,0.70182
5923.18,0.70653
5900.03,0.69902
5876.89,0.69705
5853.74,0.69268
5830.6,0.69274
5807.45,0.69034
5784.31,0.68945
5761.16,0.69127
5738.02,0.69421
5714.87,0.69311
5691.73,0.69200
5668.58,0.69037
5645.44,0.69310
5622.29,0.68850
5599.15,0.68808
5576,0.69055
5552.86,0.69252
5529.71,0.69501
5506.57,0.69741
5483.42,0.69877
5460.28,0.70271
5437.13,0.70565
5413.99,0.71090
5390.84,0.71459
5367.7,0.71185
5344.55,0.70952
5321.41,0.69865
5298.26,0.67458
5275.12,0.63514
5251.97,0.58745
5228.83,0.55619
5205.68,0.53819
5182.54,0.53908
5159.39,0.54646
5136.25,0.55903
5113.1,0.57265
5089.96,0.58586
5066.81,0.59870
5043.67,0.60973
5020.52,0.61727
4997.38,0.62092
4974.23,0.61679
4951.09,0.60659
4927.94,0.58712
4904.8,0.56806
4881.65,0.54739
4858.51,0.53021
4835.36,0.51518
4812.22,0.50561
4789.07,0.49795
4765.93,0.49438
4742.78,0.49363
4719.64,0.49701
4696.49,0.50051
4673.35,0.50429
4650.2,0.51387
4627.06,0.52327
4603.92,0.53589
4580.77,0.54565
4557.63,0.55127
4534.48,0.55636
4511.34,0.55717
4488.19,0.54768
4465.05,0.52607
4441.9,0.49737
4418.76,0.46829
4395.61,0.45362
4372.47,0.45997
4349.32,0.46401
4326.18,0.45831
4303.03,0.44762
4279.89,0.44153
4256.74,0.44453
4233.6,0.44827
4210.45,0.44677
4187.31,0.44921
4164.16,0.45366
4141.02,0.44944
4117.87,0.43497
4094.73,0.41434
4071.58,0.39094
4048.44,0.36929
4025.29,0.35445
4002.15,0.35119
3979,0.35577
3955.86,0.36525
3932.71,0.37806
3909.57,0.38824
3886.42,0.39762
3863.28,0.40792
3840.13,0.41839
3816.99,0.42006
3793.84,0.41861
3770.7,0.41383
3747.55,0.40486
3724.41,0.38554
3701.26,0.35123
3678.12,0.28435
3654.97,0.19772
3631.83,0.14166
3608.68,0.10701
3585.54,0.08373
3562.39,0.06904
3539.25,0.06064
3516.1,0.05487
3492.96,0.05097
3469.81,0.04882
3446.67,0.04798
3423.52,0.04773
3400.38,0.04825
3377.23,0.04943
3354.09,0.05082
3330.94,0.05386
3307.8,0.05739
3284.65,0.05923
3261.51,0.06407
3238.36,0.06911
3215.22,0.07565
3192.07,0.08170
3168.93,0.09003
3145.78,0.09817
3122.64,0.10661
3099.49,0.11520
3076.35,0.12276
3053.2,0.13080
3030.06,0.13669
3006.91,0.13066
2983.77,0.11790
2960.62,0.09370
2937.48,0.08109
2914.33,0.08029
2891.19,0.08266
2868.04,0.08929
2844.9,0.10391
2821.75,0.13074
2798.61,0.14999
2775.46,0.16000
2752.32,0.16452
2729.17,0.16809
2706.03,0.17665
2682.88,0.18652
2659.74,0.19296
2636.59,0.19974
2613.45,0.20748
2590.3,0.21437
2567.16,0.21851
2544.02,0.22109
2520.87,0.22734
2497.73,0.23669
2474.58,0.24697
2451.44,0.25694
2428.29,0.26759
2405.15,0.28026
2382,0.29110
2358.86,0.30005
2335.71,0.30561
2312.57,0.30834
2289.42,0.30664
2266.28,0.30255
2243.13,0.29725
2219.99,0.29493
2196.84,0.28924
2173.7,0.27642
2150.55,0.26638
2127.41,0.26367
2104.26,0.26692
2081.12,0.26783
2057.97,0.26308
2034.83,0.26902
2011.68,0.28187
1988.54,0.29053
1965.39,0.29738
1942.25,0.30841
1919.1,0.31467
1895.96,0.31428
1872.81,0.31224
1849.67,0.30683
1826.52,0.29423
1803.38,0.26340
1780.23,0.20938
1757.09,0.12060
1733.94,0.09096
1710.8,0.10858
1687.65,0.11167
1664.51,0.08951
1641.36,0.09042
1618.22,0.09097
1595.07,0.08615
1571.93,0.12427
1548.78,0.14248
1525.64,0.09593
1502.49,0.06909
1479.35,0.07839
1456.2,0.06197
1433.06,0.05886
1409.91,0.06486
1386.77,0.06006
1363.62,0.05888
1340.48,0.05971
1317.33,0.05815
1294.19,0.05853
1271.04,0.05135
1247.9,0.05664
1224.75,0.05634
1201.61,0.05829
1178.46,0.04936
1155.32,0.05051
1132.17,0.04387
1109.03,0.04862
1085.88,0.04985
1062.74,0.06907
1039.59,0.07426
1016.45,0.08709
993.304,0.09304
970.159,0.10957
947.014,0.12387
923.869,0.13039
900.724,0.11032
877.579,0.11797
854.434,0.12315
831.289,0.12155
808.144,0.10656
784.999,0.10878
761.854,0.09944
738.709,0.09255
715.565,0.08458
692.42,0.08051
669.275,0.07220
646.13,0.07295
622.985,0.06980
599.84,0.07083