File: 01_Data/Pressure_Treated_Deck/FTIR/IS/Pressure_Treated_Deck_IS_S_221012_R6.dpt
7497.03,0.81074
7473.89,0.79888
7450.74,0.78697
7427.6,0.79302
7404.45,0.77910
7381.31,0.77891
7358.16,0.77677
7335.02,0.77820
7311.87,0.77759
7288.73,0.77668
7265.58,0.76183
7242.44,0.75934
7219.29,0.76600
7196.15,0.77128
7173,0.76396
7149.86,0.74950
7126.71,0.73167
7103.57,0.72503
7080.42,0.70984
7057.28,0.69233
7034.13,0.67206
7010.99,0.65850
6987.84,0.65278
6964.7,0.64007
6941.55,0.63155
6918.41,0.63469
6895.26,0.63872
6872.12,0.63215
6848.97,0.63234
6825.83,0.62623
6802.68,0.63122
6779.54,0.62792
6756.39,0.63300
6733.25,0.63521
6710.1,0.63215
6686.96,0.64238
6663.82,0.64519
6640.67,0.64725
6617.53,0.65483
6594.38,0.65118
6571.24,0.65767
6548.09,0.65367
6524.95,0.65907
6501.8,0.66733
6478.66,0.66660
6455.51,0.66379
6432.37,0.66520
6409.22,0.67061
6386.08,0.67471
6362.93,0.67517
6339.79,0.67705
6316.64,0.67849
6293.5,0.67705
6270.35,0.68097
6247.21,0.68771
6224.06,0.69533
6200.92,0.70329
6177.77,0.70871
6154.63,0.71379
6131.48,0.71912
6108.34,0.72133
6085.19,0.72051
6062.05,0.71798
6038.9,0.71353
6015.76,0.70600
5992.61,0.70382
5969.47,0.69979
5946.32,0.70194
5923.18,0.70277
5900.03,0.69827
5876.89,0.69516
5853.74,0.69630
5830.6,0.69138
5807.45,0.68998
5784.31,0.68839
5761.16,0.69021
5738.02,0.69464
5714.87,0.69119
5691.73,0.69262
5668.58,0.69025
5645.44,0.69207
5622.29,0.69051
5599.15,0.69209
5576,0.68928
5552.86,0.69465
5529.71,0.69638
5506.57,0.69604
5483.42,0.70121
5460.28,0.70054
5437.13,0.70510
5413.99,0.70747
5390.84,0.71300
5367.7,0.71138
5344.55,0.70843
5321.41,0.69952
5298.26,0.67929
5275.12,0.64160
5251.97,0.59434
5228.83,0.56454
5205.68,0.55039
5182.54,0.54686
5159.39,0.55503
5136.25,0.56778
5113.1,0.58199
5089.96,0.59476
5066.81,0.60584
5043.67,0.61653
5020.52,0.62455
4997.38,0.62535
4974.23,0.62021
4951.09,0.60875
4927.94,0.58915
4904.8,0.56802
4881.65,0.54706
4858.51,0.53070
4835.36,0.51531
4812.22,0.50367
4789.07,0.49652
4765.93,0.49290
4742.78,0.49272
4719.64,0.49773
4696.49,0.49965
4673.35,0.50483
4650.2,0.51376
4627.06,0.52193
4603.92,0.53470
4580.77,0.54520
4557.63,0.55224
4534.48,0.55562
4511.34,0.55646
4488.19,0.54843
4465.05,0.52609
4441.9,0.49818
4418.76,0.46752
4395.61,0.45308
4372.47,0.46012
4349.32,0.46371
4326.18,0.45809
4303.03,0.44825
4279.89,0.44112
4256.74,0.44460
4233.6,0.44833
4210.45,0.44807
4187.31,0.44941
4164.16,0.45436
4141.02,0.44918
4117.87,0.43538
4094.73,0.41557
4071.58,0.39211
4048.44,0.36966
4025.29,0.35507
4002.15,0.35192
3979,0.35638
3955.86,0.36652
3932.71,0.37785
3909.57,0.39016
3886.42,0.39998
3863.28,0.40922
3840.13,0.42028
3816.99,0.42277
3793.84,0.42153
3770.7,0.41833
3747.55,0.40921
3724.41,0.39086
3701.26,0.35802
3678.12,0.29211
3654.97,0.20528
3631.83,0.14841
3608.68,0.11088
3585.54,0.08619
3562.39,0.07101
3539.25,0.06137
3516.1,0.05532
3492.96,0.05162
3469.81,0.04934
3446.67,0.04883
3423.52,0.04776
3400.38,0.04902
3377.23,0.04990
3354.09,0.05100
3330.94,0.05442
3307.8,0.05701
3284.65,0.05987
3261.51,0.06425
3238.36,0.07013
3215.22,0.07624
3192.07,0.08328
3168.93,0.09126
3145.78,0.10032
3122.64,0.10889
3099.49,0.11745
3076.35,0.12497
3053.2,0.13371
3030.06,0.13862
3006.91,0.13197
2983.77,0.11880
2960.62,0.09381
2937.48,0.08062
2914.33,0.08016
2891.19,0.08263
2868.04,0.08855
2844.9,0.10454
2821.75,0.13100
2798.61,0.15147
2775.46,0.16041
2752.32,0.16565
2729.17,0.16862
2706.03,0.17728
2682.88,0.18724
2659.74,0.19384
2636.59,0.20071
2613.45,0.20825
2590.3,0.21499
2567.16,0.21954
2544.02,0.22158
2520.87,0.22793
2497.73,0.23770
2474.58,0.24799
2451.44,0.25780
2428.29,0.26848
2405.15,0.28170
2382,0.29229
2358.86,0.30180
2335.71,0.30786
2312.57,0.31079
2289.42,0.30868
2266.28,0.30469
2243.13,0.29982
2219.99,0.29760
2196.84,0.29281
2173.7,0.27979
2150.55,0.26960
2127.41,0.26717
2104.26,0.27017
2081.12,0.27090
2057.97,0.26637
2034.83,0.27230
2011.68,0.28487
1988.54,0.29363
1965.39,0.30053
1942.25,0.31126
1919.1,0.31744
1895.96,0.31721
1872.81,0.31458
1849.67,0.30952
1826.52,0.29625
1803.38,0.26442
1780.23,0.20998
1757.09,0.12010
1733.94,0.09170
1710.8,0.10979
1687.65,0.11305
1664.51,0.09150
1641.36,0.09251
1618.22,0.09150
1595.07,0.08675
1571.93,0.12499
1548.78,0.14361
1525.64,0.09606
1502.49,0.06913
1479.35,0.07856
1456.2,0.06163
1433.06,0.05834
1409.91,0.06488
1386.77,0.05967
1363.62,0.05916
1340.48,0.06008
1317.33,0.05806
1294.19,0.05831
1271.04,0.05164
1247.9,0.05657
1224.75,0.05646
1201.61,0.05796
1178.46,0.04949
1155.32,0.05067
1132.17,0.04391
1109.03,0.04852
1085.88,0.05042
1062.74,0.06984
1039.59,0.07518
1016.45,0.08670
993.304,0.09314
970.159,0.11071
947.014,0.12415
923.869,0.13100
900.724,0.11098
877.579,0.11899
854.434,0.12510
831.289,0.12281
808.144,0.10883
784.999,0.10972
761.854,0.10253
738.709,0.09536
715.565,0.08660
692.42,0.08175
669.275,0.07391
646.13,0.07595
622.985,0.07142
599.84,0.07664