File: 01_Data/Pressure_Treated_Deck/FTIR/IS/Pressure_Treated_Deck_IS_S_221012_R4.dpt
7497.03,0.80091
7473.89,0.78947
7450.74,0.79447
7427.6,0.80107
7404.45,0.79309
7381.31,0.77558
7358.16,0.78010
7335.02,0.77637
7311.87,0.76840
7288.73,0.76815
7265.58,0.76271
7242.44,0.76618
7219.29,0.76747
7196.15,0.75296
7173,0.75687
7149.86,0.74541
7126.71,0.74211
7103.57,0.71657
7080.42,0.70742
7057.28,0.68883
7034.13,0.66821
7010.99,0.65351
6987.84,0.63727
6964.7,0.64153
6941.55,0.63540
6918.41,0.62808
6895.26,0.63152
6872.12,0.63112
6848.97,0.62576
6825.83,0.62906
6802.68,0.62635
6779.54,0.62555
6756.39,0.63102
6733.25,0.63503
6710.1,0.63271
6686.96,0.64026
6663.82,0.64504
6640.67,0.64704
6617.53,0.64885
6594.38,0.65445
6571.24,0.65806
6548.09,0.65676
6524.95,0.65830
6501.8,0.65894
6478.66,0.66077
6455.51,0.66229
6432.37,0.66423
6409.22,0.66742
6386.08,0.67111
6362.93,0.67304
6339.79,0.67149
6316.64,0.67581
6293.5,0.67881
6270.35,0.67950
6247.21,0.68591
6224.06,0.69492
6200.92,0.69970
6177.77,0.70849
6154.63,0.71299
6131.48,0.71464
6108.34,0.72150
6085.19,0.72183
6062.05,0.71942
6038.9,0.71668
6015.76,0.70493
5992.61,0.70272
5969.47,0.70339
5946.32,0.69930
5923.18,0.70295
5900.03,0.69935
5876.89,0.69510
5853.74,0.69347
5830.6,0.69144
5807.45,0.68728
5784.31,0.68917
5761.16,0.69171
5738.02,0.69278
5714.87,0.69232
5691.73,0.69153
5668.58,0.69011
5645.44,0.68944
5622.29,0.68960
5599.15,0.69035
5576,0.69141
5552.86,0.69619
5529.71,0.69477
5506.57,0.69835
5483.42,0.69836
5460.28,0.70022
5437.13,0.70398
5413.99,0.70796
5390.84,0.71296
5367.7,0.71206
5344.55,0.70823
5321.41,0.69886
5298.26,0.67578
5275.12,0.63608
5251.97,0.59094
5228.83,0.55893
5205.68,0.54232
5182.54,0.54281
5159.39,0.55065
5136.25,0.56433
5113.1,0.57774
5089.96,0.59049
5066.81,0.60231
5043.67,0.61192
5020.52,0.61967
4997.38,0.62349
4974.23,0.61959
4951.09,0.60564
4927.94,0.58763
4904.8,0.56839
4881.65,0.54684
4858.51,0.52912
4835.36,0.51547
4812.22,0.50440
4789.07,0.49618
4765.93,0.49380
4742.78,0.49367
4719.64,0.49468
4696.49,0.49933
4673.35,0.50386
4650.2,0.51327
4627.06,0.52247
4603.92,0.53500
4580.77,0.54459
4557.63,0.55122
4534.48,0.55666
4511.34,0.55691
4488.19,0.54847
4465.05,0.52506
4441.9,0.49734
4418.76,0.46753
4395.61,0.45240
4372.47,0.45922
4349.32,0.46404
4326.18,0.45873
4303.03,0.44747
4279.89,0.44088
4256.74,0.44412
4233.6,0.44710
4210.45,0.44772
4187.31,0.44918
4164.16,0.45529
4141.02,0.44932
4117.87,0.43431
4094.73,0.41356
4071.58,0.39103
4048.44,0.36940
4025.29,0.35417
4002.15,0.35165
3979,0.35696
3955.86,0.36553
3932.71,0.37632
3909.57,0.38872
3886.42,0.39950
3863.28,0.40843
3840.13,0.41898
3816.99,0.42250
3793.84,0.41974
3770.7,0.41557
3747.55,0.40700
3724.41,0.38852
3701.26,0.35464
3678.12,0.28824
3654.97,0.20175
3631.83,0.14488
3608.68,0.10992
3585.54,0.08532
3562.39,0.07023
3539.25,0.06135
3516.1,0.05522
3492.96,0.05151
3469.81,0.04865
3446.67,0.04726
3423.52,0.04817
3400.38,0.04887
3377.23,0.04968
3354.09,0.05136
3330.94,0.05445
3307.8,0.05681
3284.65,0.05999
3261.51,0.06411
3238.36,0.06920
3215.22,0.07600
3192.07,0.08219
3168.93,0.09056
3145.78,0.09917
3122.64,0.10856
3099.49,0.11699
3076.35,0.12488
3053.2,0.13255
3030.06,0.13773
3006.91,0.13160
2983.77,0.11850
2960.62,0.09337
2937.48,0.08087
2914.33,0.07990
2891.19,0.08210
2868.04,0.08938
2844.9,0.10479
2821.75,0.13168
2798.61,0.15080
2775.46,0.16028
2752.32,0.16493
2729.17,0.16843
2706.03,0.17713
2682.88,0.18643
2659.74,0.19351
2636.59,0.20015
2613.45,0.20786
2590.3,0.21466
2567.16,0.21883
2544.02,0.22097
2520.87,0.22807
2497.73,0.23706
2474.58,0.24778
2451.44,0.25705
2428.29,0.26799
2405.15,0.28020
2382,0.29160
2358.86,0.30067
2335.71,0.30695
2312.57,0.30921
2289.42,0.30776
2266.28,0.30338
2243.13,0.29847
2219.99,0.29627
2196.84,0.29106
2173.7,0.27795
2150.55,0.26853
2127.41,0.26540
2104.26,0.26822
2081.12,0.26923
2057.97,0.26468
2034.83,0.27058
2011.68,0.28305
1988.54,0.29208
1965.39,0.29875
1942.25,0.30974
1919.1,0.31618
1895.96,0.31547
1872.81,0.31334
1849.67,0.30776
1826.52,0.29505
1803.38,0.26404
1780.23,0.20975
1757.09,0.12046
1733.94,0.09191
1710.8,0.10925
1687.65,0.11219
1664.51,0.09065
1641.36,0.09125
1618.22,0.09125
1595.07,0.08658
1571.93,0.12471
1548.78,0.14284
1525.64,0.09611
1502.49,0.06939
1479.35,0.07855
1456.2,0.06145
1433.06,0.05850
1409.91,0.06486
1386.77,0.06027
1363.62,0.05894
1340.48,0.05976
1317.33,0.05783
1294.19,0.05875
1271.04,0.05175
1247.9,0.05642
1224.75,0.05670
1201.61,0.05833
1178.46,0.05002
1155.32,0.05096
1132.17,0.04414
1109.03,0.04909
1085.88,0.05053
1062.74,0.06980
1039.59,0.07437
1016.45,0.08690
993.304,0.09316
970.159,0.11007
947.014,0.12468
923.869,0.13117
900.724,0.11065
877.579,0.11862
854.434,0.12460
831.289,0.12185
808.144,0.10678
784.999,0.10877
761.854,0.10117
738.709,0.09300
715.565,0.08592
692.42,0.08153
669.275,0.07514
646.13,0.07505
622.985,0.07077
599.84,0.07563