File: 01_Data/Homasote/Cone/Homasote_HRRPUA_25.csv
Time after Ignition,Homasote_R1,Homasote_R2,Homasote_R3,Homasote_R4,Mean,Std. Dev.
0.0,4.6,0.0,12.7,-2.6,3.7,6.7
3.0,5.6,-0.4,9.5,-0.9,3.5,5.0
6.0,6.8,-0.0,9.3,0.7,4.2,4.6
9.0,7.0,0.9,11.1,4.0,5.7,4.4
12.0,31.0,17.6,32.8,18.0,24.9,8.2
15.0,101.8,87.7,114.9,93.5,99.5,11.8
18.0,148.7,134.4,164.3,150.5,149.5,12.3
21.0,170.9,158.5,178.4,172.0,170.0,8.3
24.0,174.9,166.1,182.7,174.1,174.5,6.8
27.0,171.8,168.8,168.6,170.2,169.9,1.5
30.0,165.6,170.9,156.4,160.6,163.4,6.3
33.0,163.2,164.9,150.4,152.7,157.8,7.3
36.0,156.0,161.4,139.7,147.8,151.2,9.5
39.0,147.1,154.8,135.3,142.3,144.9,8.2
42.0,145.9,148.2,130.3,135.7,140.0,8.5
45.0,142.6,142.0,125.4,131.3,135.3,8.4
48.0,132.0,141.5,122.7,128.5,131.2,7.9
51.0,128.7,132.3,117.9,123.0,125.5,6.4
54.0,122.9,127.7,113.3,121.7,121.4,6.0
57.0,122.6,123.9,111.9,116.2,118.6,5.6
60.0,116.9,123.2,110.0,114.8,116.2,5.5
63.0,112.0,119.0,105.7,115.5,113.0,5.7
66.0,110.0,117.5,104.4,117.6,112.4,6.4
69.0,109.4,112.5,101.0,119.1,110.5,7.5
72.0,106.6,110.2,99.2,114.0,107.5,6.3
75.0,105.0,110.2,95.1,109.7,105.0,7.0
78.0,104.3,107.9,92.8,105.6,102.7,6.7
81.0,101.8,106.6,89.6,102.7,100.2,7.4
84.0,99.5,105.0,90.0,98.2,98.2,6.2
87.0,98.7,101.9,87.1,95.2,95.7,6.4
90.0,97.2,100.4,86.5,91.3,93.9,6.2
93.0,96.9,98.2,85.5,88.8,92.3,6.2
96.0,96.1,97.8,83.9,85.7,90.9,7.1
99.0,96.2,95.1,83.2,84.9,89.9,6.7
102.0,94.5,94.7,80.8,81.9,88.0,7.7
105.0,92.1,91.9,79.9,83.6,86.9,6.1
108.0,89.1,88.9,79.3,81.2,84.6,5.1
111.0,84.9,87.8,77.9,80.8,82.8,4.4
114.0,82.2,84.1,77.9,79.9,81.0,2.7
117.0,80.0,83.0,75.8,81.2,80.0,3.1
120.0,78.3,81.3,74.8,80.3,78.6,2.9
123.0,78.3,80.6,73.8,77.4,77.5,2.8
126.0,76.1,78.6,73.4,75.1,75.8,2.2
129.0,75.8,76.1,72.6,74.3,74.7,1.6
132.0,74.3,75.4,71.4,71.4,73.1,2.0
135.0,73.0,75.3,69.4,68.9,71.7,3.1
138.0,73.8,72.6,69.3,67.2,70.7,3.0
141.0,73.9,72.2,67.0,65.2,69.6,4.1
144.0,72.3,70.8,64.5,66.9,68.6,3.5
147.0,71.9,70.6,61.9,65.9,67.6,4.6
150.0,70.1,68.4,59.3,62.8,65.1,5.0
153.0,66.7,68.3,56.9,56.9,62.2,6.1
156.0,67.5,67.2,55.5,48.2,59.6,9.4
159.0,67.5,67.0,53.8,43.9,58.1,11.4
162.0,67.0,66.9,52.1,39.8,56.5,13.1
165.0,67.2,65.9,48.5,35.5,54.3,15.1
168.0,68.0,66.0,46.9,34.8,53.9,15.9
171.0,67.4,65.6,,35.5,56.2,17.9
174.0,66.0,63.6,,36.8,55.5,16.2
177.0,64.4,62.9,,36.9,54.8,15.5
180.0,64.1,63.5,,36.3,54.7,15.9
183.0,63.0,63.5,,35.9,54.1,15.8
186.0,60.6,62.2,,37.0,53.3,14.1
189.0,59.1,61.8,,37.4,52.8,13.4
192.0,62.8,62.7,,36.8,54.1,15.0
195.0,62.7,62.5,,36.6,53.9,15.0
198.0,62.4,62.4,,34.1,53.0,16.3
201.0,60.9,63.1,,32.9,52.3,16.9
204.0,57.7,60.1,,32.6,50.1,15.2
207.0,56.4,59.0,,32.5,49.3,14.6
210.0,57.1,59.0,,31.6,49.3,15.3
213.0,58.4,59.6,,31.4,49.8,16.0
216.0,60.1,60.2,,32.3,50.9,16.1
219.0,59.7,61.2,,32.9,51.3,15.9
222.0,62.2,61.6,,32.4,52.1,17.0
225.0,61.7,61.8,,32.1,51.9,17.1
228.0,62.2,62.7,,31.6,52.1,17.8
231.0,61.4,61.0,,30.9,51.1,17.5
234.0,61.4,61.3,,31.0,51.2,17.5
237.0,62.9,60.5,,30.6,51.3,18.0
240.0,65.6,60.1,,31.5,52.4,18.3
243.0,66.9,60.7,,32.0,53.2,18.6
246.0,67.3,61.1,,31.8,53.4,19.0
249.0,69.8,61.7,,33.0,54.8,19.3
252.0,69.4,60.7,,32.9,54.3,19.1
255.0,69.0,62.5,,32.9,54.8,19.3
258.0,69.8,62.9,,33.5,55.4,19.3
261.0,68.4,63.3,,33.4,55.0,18.9
264.0,68.8,64.9,,32.6,55.4,19.9
267.0,68.3,65.7,,32.0,55.3,20.3
270.0,68.5,66.3,,31.9,55.6,20.5
273.0,69.0,64.5,,32.7,55.4,19.8
276.0,69.3,65.6,,32.5,55.8,20.3
279.0,70.1,66.5,,32.5,56.3,20.8
282.0,71.2,66.1,,33.2,56.9,20.6
285.0,71.3,66.1,,33.9,57.1,20.3
288.0,71.7,67.5,,33.2,57.5,21.1
291.0,70.4,68.8,,32.8,57.3,21.2
294.0,70.7,67.5,,33.2,57.1,20.8
297.0,70.4,67.6,,32.5,56.9,21.1
300.0,71.5,67.7,,32.8,57.3,21.3
303.0,72.6,67.7,,34.2,58.2,20.9
306.0,73.9,68.8,,34.1,58.9,21.6
309.0,74.0,68.1,,32.7,58.3,22.3
312.0,74.7,68.5,,32.3,58.5,22.9
315.0,75.3,68.3,,32.1,58.6,23.1
318.0,77.1,67.0,,31.6,58.6,23.9
321.0,77.5,69.2,,31.4,59.3,24.5
324.0,80.8,70.1,,30.6,60.5,26.4
327.0,80.0,72.0,,31.1,61.1,26.2
330.0,81.7,73.1,,31.2,62.0,27.0
333.0,80.8,74.2,,30.4,61.8,27.4
336.0,82.0,74.7,,30.3,62.3,28.0
339.0,82.4,79.0,,30.4,63.9,29.1
342.0,84.9,80.8,,30.1,65.2,30.5
345.0,84.6,79.6,,30.3,64.8,30.0
348.0,87.5,80.9,,29.7,66.0,31.7
351.0,88.4,83.0,,30.6,67.3,31.9
354.0,90.9,83.7,,32.2,68.9,32.0
357.0,95.8,85.7,,34.0,71.9,33.2
360.0,94.7,88.0,,36.2,73.0,32.0
363.0,96.1,89.2,,37.4,74.2,32.1
366.0,96.7,89.0,,38.9,74.9,31.4
369.0,100.2,89.4,,40.2,76.6,32.0
372.0,103.0,90.6,,41.6,78.4,32.4
375.0,104.1,92.3,,43.3,79.9,32.3
378.0,105.0,92.4,,42.5,80.0,33.0
381.0,104.7,94.6,,42.2,80.5,33.6
384.0,108.9,95.0,,41.6,81.8,35.5
387.0,111.5,95.2,,42.2,83.0,36.2
390.0,115.0,98.1,,55.9,89.7,30.5
393.0,116.3,98.6,,73.6,96.2,21.5
396.0,119.6,98.4,,85.5,101.2,17.2
399.0,120.7,99.6,,90.8,103.7,15.3
402.0,122.9,103.3,,92.2,106.1,15.5
405.0,126.6,105.3,,91.8,107.9,17.6
408.0,127.3,105.1,,92.9,108.4,17.4
411.0,129.5,106.4,,95.4,110.4,17.4
414.0,133.3,107.6,,95.9,112.3,19.1
417.0,132.4,111.6,,97.3,113.7,17.7
420.0,134.6,113.2,,101.6,116.4,16.7
423.0,139.8,115.3,,102.3,119.2,19.0
426.0,139.2,119.1,,104.5,120.9,17.4
429.0,137.0,119.8,,105.9,120.9,15.6
432.0,141.9,122.5,,107.3,123.9,17.3
435.0,144.0,123.4,,111.2,126.2,16.6
438.0,143.4,124.2,,112.7,126.8,15.5
441.0,147.5,127.1,,113.6,129.4,17.1
444.0,148.2,126.5,,115.9,130.2,16.5
447.0,147.6,128.3,,118.1,131.3,15.0
450.0,151.9,127.2,,118.6,132.6,17.3
453.0,148.6,133.2,,120.7,134.2,14.0
456.0,151.3,134.5,,124.0,136.6,13.8
459.0,151.3,137.6,,124.2,137.7,13.6
462.0,151.6,140.3,,124.5,138.8,13.6
465.0,148.0,139.6,,127.4,138.3,10.3
468.0,148.9,144.0,,126.9,139.9,11.6
471.0,146.5,140.4,,126.6,137.8,10.2
474.0,143.7,140.4,,132.1,138.7,5.9
477.0,143.5,138.8,,131.5,137.9,6.1
480.0,139.5,139.4,,131.1,136.7,4.8
483.0,140.0,138.9,,134.7,137.9,2.8
486.0,138.5,137.3,,137.0,137.6,0.8
489.0,139.7,137.9,,139.6,139.1,1.0
492.0,138.7,139.2,,139.8,139.2,0.5
495.0,139.2,133.8,,141.0,138.0,3.7
498.0,134.2,135.7,,141.5,137.1,3.9
501.0,138.8,132.0,,140.0,136.9,4.3
504.0,136.9,131.2,,141.2,136.4,5.0
507.0,136.1,129.1,,142.8,136.0,6.9
510.0,135.8,130.6,,140.7,135.7,5.1
513.0,135.9,129.4,,140.5,135.2,5.5
516.0,135.7,129.1,,140.8,135.2,5.9
519.0,134.1,128.2,,138.2,133.5,5.0
522.0,132.7,127.6,,136.9,132.4,4.7
525.0,130.9,127.9,,136.0,131.6,4.1
528.0,129.9,124.5,,135.1,129.8,5.3
531.0,127.8,124.4,,132.5,128.2,4.1
534.0,126.8,123.6,,129.7,126.7,3.0
537.0,123.2,125.6,,130.6,126.5,3.8
540.0,121.4,121.6,,128.9,124.0,4.3
543.0,118.0,120.2,,129.0,122.4,5.8
546.0,115.1,118.6,,128.6,120.8,7.0
549.0,112.0,118.2,,126.2,118.8,7.1
552.0,105.6,119.6,,126.1,117.1,10.5
555.0,101.7,117.6,,126.5,115.3,12.6
558.0,94.6,115.9,,122.1,110.9,14.4
561.0,90.8,116.5,,122.3,109.9,16.7
564.0,89.0,113.1,,122.9,108.3,17.5
567.0,86.1,114.2,,123.9,108.1,19.6
570.0,84.4,110.9,,122.5,105.9,19.5
573.0,82.9,107.9,,121.2,104.0,19.5
576.0,79.7,103.0,,121.1,101.2,20.8
579.0,75.3,98.3,,123.0,98.9,23.8
582.0,72.6,93.6,,119.3,95.2,23.4
585.0,70.6,88.9,,118.2,92.5,24.0
588.0,67.3,83.1,,120.1,90.2,27.1
591.0,63.3,76.7,,115.6,85.2,27.2
594.0,61.1,73.5,,112.8,82.5,27.0
597.0,57.1,70.2,,113.0,80.1,29.2
600.0,55.5,68.8,,108.0,77.4,27.3
603.0,52.7,67.3,,105.8,75.3,27.4
606.0,54.1,64.3,,98.5,72.3,23.2
609.0,56.4,60.1,,94.5,70.4,21.0
612.0,57.7,58.6,,88.5,68.3,17.5
615.0,54.1,55.8,,83.2,64.4,16.3
618.0,52.3,53.4,,78.7,61.5,14.9
621.0,49.8,50.7,,74.9,58.5,14.3
624.0,48.7,48.2,,72.9,56.6,14.1
627.0,49.2,46.4,,71.4,55.7,13.7
630.0,49.2,,,68.1,58.7,13.3
633.0,48.5,,,66.4,57.4,12.7
636.0,47.3,,,65.1,56.2,12.6
639.0,45.9,,,63.2,54.6,12.2
642.0,46.0,,,61.3,53.6,10.8
645.0,46.6,,,58.2,52.4,8.2
648.0,46.3,,,55.9,51.1,6.8
651.0,47.3,,,53.5,50.4,4.4
654.0,46.4,,,50.2,48.3,2.7
657.0,47.2,,,45.1,46.2,1.5
660.0,47.4,,,43.6,45.5,2.7
663.0,47.1,,,43.6,45.3,2.5
666.0,47.5,,,44.0,45.8,2.5
669.0,48.9,,,44.7,46.8,3.0
672.0,49.8,,,45.3,47.5,3.2
675.0,50.4,,,45.6,48.0,3.4
678.0,50.0,,,45.5,47.8,3.2
681.0,50.9,,,44.9,47.9,4.2
684.0,50.3,,,42.9,46.6,5.3
687.0,49.4,,,43.6,46.5,4.1
690.0,50.0,,,43.3,46.6,4.8
693.0,50.3,,,44.5,47.4,4.1
696.0,49.9,,,44.9,47.4,3.6
699.0,48.0,,,45.8,46.9,1.6
702.0,46.6,,,46.0,46.3,0.5
705.0,46.4,,,44.3,45.3,1.4
708.0,45.7,,,42.8,44.3,2.1
711.0,45.1,,,42.9,44.0,1.5
714.0,46.4,,,42.2,44.3,3.0
717.0,46.4,,,42.1,44.3,3.0
720.0,45.7,,,42.5,44.1,2.3
723.0,44.8,,,42.3,43.6,1.8
726.0,42.9,,,41.7,42.3,0.9
729.0,43.3,,,42.4,42.9,0.6
732.0,42.7,,,43.6,43.2,0.6
735.0,41.6,,,41.8,41.7,0.2
738.0,41.6,,,42.3,42.0,0.4
741.0,41.0,,,42.7,41.8,1.2
744.0,40.1,,,40.9,40.5,0.6
747.0,39.5,,,39.9,39.7,0.3
750.0,38.5,,,39.2,38.9,0.5
753.0,37.8,,,39.1,38.4,0.9
756.0,36.8,,,38.5,37.6,1.2
759.0,36.9,,,37.5,37.2,0.4
762.0,36.6,,,38.3,37.4,1.2
765.0,36.1,,,38.7,37.4,1.8
768.0,36.5,,,38.4,37.5,1.4
771.0,36.8,,,40.0,38.4,2.2
774.0,37.0,,,38.8,37.9,1.3
777.0,37.8,,,38.7,38.3,0.6
780.0,37.1,,,38.2,37.6,0.8
783.0,36.9,,,36.9,36.9,0.0
786.0,37.0,,,37.1,37.0,0.1
789.0,37.9,,,35.8,36.9,1.5
792.0,38.3,,,34.2,36.3,2.9
795.0,38.8,,,34.1,36.4,3.3
798.0,38.6,,,34.0,36.3,3.2
801.0,37.3,,,34.0,35.6,2.3
804.0,37.5,,,34.0,35.7,2.5
807.0,37.8,,,33.9,35.8,2.7
810.0,37.2,,,33.9,35.5,2.3
813.0,36.5,,,35.0,35.7,1.1
816.0,37.5,,,35.8,36.7,1.2
819.0,38.6,,,36.9,37.8,1.2
822.0,39.4,,,36.8,38.1,1.8
825.0,39.4,,,36.6,38.0,2.0
828.0,39.0,,,36.6,37.8,1.7
831.0,38.7,,,36.7,37.7,1.4
834.0,38.5,,,36.8,37.6,1.2
837.0,37.3,,,38.6,37.9,0.9
840.0,36.9,,,38.3,37.6,1.0
843.0,36.6,,,37.3,36.9,0.5
846.0,36.6,,,36.1,36.3,0.4
849.0,36.6,,,34.8,35.7,1.2
852.0,35.7,,,34.5,35.1,0.8
855.0,36.5,,,34.7,35.6,1.3
858.0,35.9,,,34.0,34.9,1.3
861.0,34.4,,,35.2,34.8,0.6
864.0,34.6,,,34.6,34.6,0.0
867.0,33.7,,,34.0,33.9,0.2
870.0,33.9,,,34.1,34.0,0.1
873.0,33.3,,,34.8,34.0,1.1
876.0,33.3,,,33.4,33.3,0.1
879.0,33.2,,,32.8,33.0,0.3
882.0,33.3,,,31.8,32.5,1.1
885.0,32.9,,,,32.9,
888.0,32.9,,,,32.9,
891.0,31.7,,,,31.7,
893.25,31.2,,,,31.2,