File: 01_Data/Homasote/Cone/Homasote_Cone_HF25Scan_230608_R4.csv
Names,Time,Stack TC,Smoke TC,Exh Press,Smoke Comp,Smoke Meas,CO Meter,CO2 Meter,O2 Meter,Sample Mass,Ext Coeff,Start Test,Flame Verif
Chan Gain,,500,500,1,1,1,1,1,1,1,1,1.0,1.0
Offset,,0,0,0.143883,0,0,0,0,0,0,0,0.0,0.0
Gain,,1,1,25.011,13.4045,14.1318,1,1,1,1.00094,1.03262,1.0,1.0
Units,sec,C,C,Pa,%,%,%,%,%,g,/m,,
Baseline,,28.182,28.4665,159.472,101.009,100.957,0.000596986,0.0589524,20.9403,-445.497,0.00471186,,
44,10.75,25.7849,26.0191,158.248,101.25,101.157,0.000617393,0.0658849,20.9342,108.522,0.00832145,0.0,0.0
88,21.75,25.6768,26.0584,158.96,101.262,100.693,0.0009103,0.0591959,20.9402,108.442,0.0510686,0.0,0.0
132,32.75,26.2488,26.2929,157.242,101.27,100.413,0.000602393,0.0577745,20.947,108.292,0.0769386,0.0,0.0
176,43.75,25.9639,26.4367,156.314,101.24,99.8815,0.000873531,0.058051,20.947,108.182,0.122398,0.0,0.0
220,54.75,26.1432,26.3195,162.869,101.19,98.5208,0.00125869,0.0603214,20.9454,107.891,0.242138,0.0,0.0
264,65.75,31.6532,28.7262,146.593,101.103,100.521,0.0023274,0.167737,20.9273,106.52,0.0523151,0.0,0.0
308,76.75,36.2389,33.5309,148.514,100.973,100.164,0.00265173,0.364486,20.6018,105.389,0.0728102,0.0,0.0
352,87.75,37.7073,35.8991,147.992,100.819,100.185,0.00258776,0.312201,20.6349,104.378,0.0571299,0.0,0.0
396,98.75,38.7122,37.118,148.911,100.652,100.093,0.00294593,0.279633,20.6767,103.407,0.050434,0.0,0.0
440,109.75,38.8528,37.8713,149.498,100.541,100.258,0.00264319,0.259495,20.707,102.546,0.0255154,0.0,0.0
484,120.75,38.3309,38.802,148.637,100.59,100.669,0.00308317,0.254273,20.7125,101.766,-0.00704305,0.0,0.0
528,131.75,38.2765,38.8077,151.427,100.822,100.948,0.0035278,0.230774,20.7287,101.045,-0.0112915,0.0,0.0
572,142.75,37.8856,38.1438,153.098,101.087,101.345,0.00346981,0.210095,20.7586,100.334,-0.0231151,0.0,0.0
616,153.75,37.3443,38.7375,155.65,101.252,101.399,0.00380391,0.199664,20.7787,99.6736,-0.013134,0.0,0.0
660,164.75,36.5424,38.0715,153.144,101.128,101.32,0.00384733,0.191552,20.786,98.953,-0.0172149,0.0,0.0
704,175.75,36.3855,37.9901,149.649,100.876,100.749,0.00519605,0.183297,20.7878,98.3023,0.0113783,0.0,0.0
748,186.75,35.3841,37.6316,152.706,101.185,101.139,0.00605911,0.171711,20.8011,97.5817,0.00408505,0.0,0.0
792,197.75,35.1564,36.5464,155.566,101.545,100.022,0.00708667,0.170138,20.8143,97.0211,0.136885,0.0,0.0
836,208.75,33.7293,35.7144,154.9,101.753,100.101,0.0107569,0.134639,20.8351,96.3805,0.148257,0.0,0.0
880,219.75,33.5807,36.4532,156.716,101.735,100.526,0.015368,0.113357,20.871,95.9301,0.108293,0.0,0.0
924,230.75,33.0529,35.053,157.941,101.524,100.436,0.0156383,0.114052,20.8712,95.3296,0.0976068,0.0,0.0
968,241.75,32.475,33.889,153.637,101.109,100.159,0.0158331,0.116118,20.8705,94.709,0.0854529,0.0,0.0
1012,252.75,32.3667,34.0118,161.891,100.614,99.5878,0.0157562,0.1135,20.8742,94.1685,0.0928262,0.0,0.0
1056,263.75,31.4856,33.112,159.762,100.235,98.9655,0.0158484,0.111693,20.8794,93.5379,0.11544,0.0,0.0
1100,274.75,31.3887,32.2735,155.218,100.098,98.9607,0.0161068,0.113001,20.8791,93.0574,0.103482,0.0,0.0
1144,285.75,30.9382,32.0001,161.875,100.182,98.9327,0.0161224,0.111528,20.8818,92.587,0.113634,0.0,0.0
1188,296.75,31.198,32.3839,158.934,100.429,99.5024,0.0162598,0.11137,20.8807,92.0064,0.0839359,0.0,0.0
1232,307.75,30.964,31.9989,158.563,100.673,99.5188,0.016529,0.112529,20.8789,91.4259,0.104407,0.0,0.0
1276,318.75,30.6412,31.8669,157.28,100.908,99.6676,0.016121,0.112445,20.8794,90.8553,0.112014,0.0,0.0
1320,329.75,30.5605,30.995,158.225,101.077,100.044,0.0162507,0.111882,20.8804,90.445,0.0930528,0.0,0.0
1364,340.75,30.7543,30.9965,159.969,101.21,99.8086,0.0170801,0.113029,20.8773,89.8844,0.126339,0.0,0.0
1408,351.75,30.6578,30.735,157.572,101.308,99.9591,0.0169584,0.112146,20.8788,89.2939,0.121435,0.0,0.0
1452,362.75,29.5931,30.0205,159.981,101.339,100.01,0.0168943,0.112646,20.8766,88.8935,0.119492,0.0,0.0
1496,373.75,30.213,31.2591,157.218,101.277,99.7262,0.0171032,0.111601,20.8809,88.373,0.139783,0.0,0.0
1540,384.75,30.4943,30.2975,159.074,101.152,99.3394,0.0172373,0.111237,20.8813,87.9326,0.163822,0.0,0.0
1584,395.75,30.5509,30.6448,154.433,101.036,99.0004,0.017715,0.110407,20.8833,87.4622,0.184374,0.0,0.0
1628,406.75,30.4585,30.5206,155.872,101.042,98.5911,0.0178102,0.112766,20.8829,86.9417,0.222412,0.0,0.0
1672,417.75,30.5705,30.7189,158.561,101.109,98.3798,0.0180174,0.116779,20.8707,86.4712,0.247896,0.0,0.0
1716,428.75,29.4202,30.6837,159.071,101.247,97.9917,0.0182577,0.120635,20.8612,85.9908,0.296046,0.0,0.0
1760,439.75,32.3245,31.8345,154.697,101.307,101.403,0.0189577,0.121877,20.8604,85.2501,-0.00857769,0.0,0.0
1804,450.75,34.2405,33.466,151.461,101.193,101.208,0.0052528,0.207989,20.7783,84.5995,-0.00136227,0.0,0.0
1848,461.75,35.7695,34.8169,155.862,100.802,100.646,0.00272166,0.217771,20.7613,83.9589,0.0139996,0.0,0.0
1892,472.75,37.206,35.9699,151.628,100.303,99.8828,0.00228323,0.230875,20.752,83.2582,0.0380403,0.0,0.0
1936,483.75,38.2004,37.9838,150.094,100.093,99.4826,0.00227785,0.243032,20.7346,82.4575,0.0554366,0.0,0.0
1980,494.75,40.0756,39.5652,151.132,100.295,99.6551,0.00192964,0.253915,20.7191,81.6467,0.0580119,0.0,0.0
2024,505.75,40.7952,40.5118,150.047,100.72,100.018,0.00202564,0.266568,20.7063,80.7358,0.063333,0.0,0.0
2068,516.75,42.2331,41.7387,153.51,101.124,100.117,0.00185324,0.277202,20.6921,79.845,0.0907077,0.0,0.0
2112,527.75,43.373,42.5363,148.959,101.39,100.372,0.00208669,0.286496,20.6852,78.8941,0.0913491,0.0,0.0
2156,538.75,44.4423,43.931,150.813,101.528,100.14,0.0021081,0.296578,20.6725,77.9232,0.124656,0.0,0.0
2200,549.75,44.7806,45.1123,144.74,101.621,99.7538,0.00233644,0.30315,20.6603,76.9623,0.167957,0.0,0.0
2244,560.75,45.54,46.1372,145.241,101.653,100.016,0.00252795,0.303741,20.6597,75.9413,0.147062,0.0,0.0
2288,571.75,45.5564,46.4131,146.819,101.689,99.8767,0.00255694,0.298021,20.6603,74.9604,0.16289,0.0,0.0
2332,582.75,45.0365,46.7622,149.021,101.706,100.215,0.00249488,0.287797,20.6704,74.0996,0.13377,0.0,0.0
2376,593.75,45.3547,46.5757,149.424,101.711,99.9656,0.00195974,0.281957,20.682,73.2888,0.156804,0.0,0.0
2420,604.75,46.0699,46.9845,150.802,101.662,100.188,0.00213181,0.274022,20.69,72.4381,0.132254,0.0,0.0
2464,615.75,45.3191,47.2606,147.553,101.539,100.081,0.00217744,0.266984,20.697,71.6073,0.131063,0.0,0.0
2508,626.75,45.5019,46.9452,147.72,101.332,99.6728,0.00248722,0.265801,20.6979,70.8566,0.149579,0.0,0.0
2552,637.75,44.7718,46.9375,148.233,101.116,99.3726,0.00248064,0.260827,20.7023,70.1359,0.157533,0.0,0.0
2596,648.75,44.088,46.5661,151.163,100.871,99.4985,0.00329437,0.247761,20.7152,69.4853,0.124085,0.0,0.0
2640,659.75,42.9603,45.3704,152.545,100.555,99.2829,0.00434784,0.215947,20.7394,69.0849,0.115334,0.0,0.0
2684,670.75,41.2892,44.1289,154.432,100.315,99.7107,0.00603671,0.179008,20.7788,68.7045,0.0547293,0.0,0.0
2728,681.75,39.8324,42.6114,157.078,100.195,99.8431,0.00757772,0.158706,20.801,68.4043,0.0318811,0.0,0.0
2772,692.75,38.7751,41.6714,154.193,100.144,100.317,0.0086151,0.14735,20.8179,68.074,-0.0156036,0.0,0.0
2816,703.75,37.2143,40.4029,153.838,100.111,100.123,0.00962724,0.13562,20.8338,67.9138,-0.00105827,0.0,0.0
2860,714.75,36.182,39.3304,155.462,100.142,100.226,0.0121043,0.122085,20.8569,67.6836,-0.00756825,0.0,0.0
2904,725.75,35.6055,37.9903,155.074,100.19,100.349,0.0118004,0.121574,20.8549,67.5435,-0.0143414,0.0,0.0
2948,736.75,34.9039,36.6817,155.83,100.288,100.42,0.0131172,0.118817,20.855,67.2832,-0.0119251,0.0,0.0
2992,747.75,34.2307,36.2328,154.346,100.344,100.387,0.0131565,0.118842,20.8569,67.083,-0.00379522,0.0,0.0
3036,758.75,34.0425,36.2757,159.348,100.365,100.519,0.0129241,0.120026,20.8536,66.9129,-0.0138899,0.0,0.0
3080,769.75,33.3306,35.2351,158.755,100.445,100.545,0.013191,0.117986,20.8607,66.7627,-0.00898571,0.0,0.0
3124,780.75,33.6271,35.1015,156.531,100.573,100.749,0.0130222,0.116282,20.8607,66.6026,-0.0158416,0.0,0.0
3168,791.75,33.3488,34.4963,155.449,100.74,100.913,0.012411,0.116161,20.8604,66.4524,-0.0155474,0.0,0.0
3212,802.75,33.3031,33.6414,155.255,100.919,101.048,0.0126113,0.114072,20.8648,66.3924,-0.0115964,0.0,0.0
3256,813.75,32.9519,33.5832,151.099,101.084,101.176,0.0121607,0.112609,20.8674,66.2122,-0.00824966,0.0,0.0
3300,824.75,32.939,33.7108,152.549,101.242,101.387,0.0120956,0.113823,20.8661,66.052,-0.0130096,0.0,0.0
3344,835.75,32.3773,32.7687,159.258,101.323,101.41,0.0125391,0.111025,20.869,65.8719,-0.00780817,0.0,0.0
3388,846.75,32.1043,32.9083,158.874,101.325,101.473,0.0127824,0.108059,20.8744,65.7818,-0.0132091,0.0,0.0
3432,857.75,32.1063,33.2111,157.899,101.323,101.512,0.0132415,0.107935,20.8762,65.6617,-0.0168563,0.0,0.0
3476,868.75,32.0652,32.2784,154.19,101.291,101.404,0.0129737,0.107397,20.8743,65.5716,-0.0101585,0.0,0.0
3520,879.75,31.8995,32.7446,154.902,101.279,101.421,0.0128706,0.107361,20.8711,65.4014,-0.0126836,0.0,0.0
3564,890.75,31.5625,31.4551,156.868,101.208,101.31,0.0125644,0.107552,20.869,65.3214,-0.00911271,0.0,0.0
3608,901.75,31.9945,32.4783,157.424,101.104,101.22,0.0131635,0.105397,20.8722,65.2313,-0.0104272,0.0,0.0
3652,912.75,30.894,31.7927,156.996,101.037,101.16,0.0128587,0.104932,20.8757,65.1212,-0.0109618,0.0,0.0
3696,923.75,31.493,31.5474,154.354,101.03,101.148,0.0133846,0.104348,20.8759,65.0111,-0.0105401,0.0,0.0
3740,934.75,30.8906,31.8681,158.309,101.126,101.298,0.0136506,0.102175,20.8782,64.891,-0.0153943,0.0,0.0
3784,945.75,30.0297,30.594,156.793,101.269,101.35,0.0124817,0.102094,20.8824,64.8409,-0.00716732,0.0,0.0
3828,956.75,29.564,30.1436,160.18,101.294,101.396,0.0125381,0.103163,20.8752,64.6908,-0.00909542,0.0,0.0
3872,967.75,29.9998,29.4336,157.557,101.111,101.181,0.0129019,0.0995674,20.8804,64.6407,-0.00625529,0.0,0.0
3916,978.75,29.6505,29.1494,159.723,100.65,100.757,0.0122045,0.0975283,20.8863,64.5306,-0.00969371,0.0,0.0
3960,989.75,28.8798,29.3023,158.248,100.197,100.219,0.0121257,0.0954758,20.8902,64.4305,-0.00198543,0.0,0.0
4004,1000.75,28.5125,29.4756,156.663,100.075,100.151,0.0126509,0.0940331,20.8925,64.2904,-0.00689122,0.0,0.0
4048,1011.75,29.2181,28.9076,157.798,100.324,100.426,0.0122911,0.0940136,20.8937,64.2103,-0.00914568,0.0,0.0
4092,1022.75,28.8929,28.7914,158.129,100.643,100.7,0.0120999,0.0925218,20.8974,64.1403,-0.00504948,0.0,0.0
4136,1033.75,28.3396,29.1699,157.297,100.855,100.953,0.0119133,0.0917266,20.8984,63.9701,-0.00877926,0.0,0.0
4180,1044.75,28.4043,29.0057,159.9,100.959,101.073,0.0109212,0.0906489,20.899,63.92,-0.0102407,0.0,0.0
4224,1055.75,28.8589,28.7332,158.922,101.003,101.102,0.0106932,0.0897509,20.9012,63.83,-0.00886519,0.0,0.0
4233,1058,28.129,28.2275,157.592,100.985,101.013,0.0107645,0.0901692,20.9014,63.7999,-0.00244284,0.0,0.0