File: 01_Data/Homasote/Cone/Homasote_HRRPUA_50.csv
Time after Ignition,Homasote_R1,Homasote_R2,Homasote_R3,Mean,Std. Dev.
0.0,12.2,10.5,17.1,13.3,3.4
3.0,11.7,7.6,12.8,10.7,2.8
6.0,8.9,6.0,10.8,8.6,2.4
9.0,8.1,7.0,12.3,9.1,2.8
12.0,53.7,21.7,32.9,36.1,16.3
15.0,139.4,108.0,109.3,118.9,17.8
18.0,195.4,175.2,183.7,184.8,10.1
21.0,211.8,206.9,214.8,211.2,4.0
24.0,214.2,219.1,225.4,219.6,5.6
27.0,215.5,214.5,224.8,218.3,5.7
30.0,214.0,207.4,224.7,215.3,8.8
33.0,205.8,200.5,209.8,205.4,4.7
36.0,199.0,192.1,204.2,198.4,6.1
39.0,200.2,186.1,191.8,192.7,7.1
42.0,186.0,177.2,186.5,183.2,5.2
45.0,174.8,169.9,184.0,176.2,7.2
48.0,167.0,162.5,176.5,168.7,7.2
51.0,160.6,156.9,168.3,161.9,5.8
54.0,155.4,149.4,163.8,156.2,7.2
57.0,149.5,142.9,161.5,151.3,9.4
60.0,143.2,138.9,156.8,146.3,9.4
63.0,139.0,136.0,153.6,142.9,9.4
66.0,138.7,129.6,146.8,138.3,8.6
69.0,132.5,125.6,144.5,134.2,9.6
72.0,130.5,126.9,142.5,133.3,8.2
75.0,130.4,120.0,139.3,129.9,9.6
78.0,126.0,118.8,132.9,125.9,7.0
81.0,125.0,116.8,131.0,124.3,7.1
84.0,121.5,115.0,129.4,122.0,7.2
87.0,119.2,115.5,128.0,120.9,6.4
90.0,116.8,113.1,129.7,119.9,8.7
93.0,114.9,109.9,125.4,116.8,7.9
96.0,114.2,109.1,127.5,116.9,9.5
99.0,114.1,104.6,119.6,112.8,7.6
102.0,113.3,104.8,118.6,112.2,7.0
105.0,113.0,102.0,113.1,109.4,6.4
108.0,110.7,101.8,111.7,108.1,5.5
111.0,109.4,100.4,109.7,106.5,5.3
114.0,107.5,99.8,108.7,105.3,4.8
117.0,105.2,98.2,107.2,103.5,4.7
120.0,105.0,98.1,104.9,102.7,4.0
123.0,102.5,96.4,102.8,100.5,3.6
126.0,98.9,95.7,99.8,98.1,2.2
129.0,98.5,95.3,100.7,98.2,2.7
132.0,98.1,95.1,98.2,97.2,1.8
135.0,97.9,96.5,98.8,97.7,1.1
138.0,96.6,101.0,98.6,98.7,2.2
141.0,95.1,99.8,96.4,97.1,2.4
144.0,95.6,96.8,95.3,95.9,0.8
147.0,93.3,94.1,96.0,94.4,1.4
150.0,91.6,93.3,92.9,92.6,0.9
153.0,92.1,90.3,92.0,91.5,1.0
156.0,93.3,89.5,92.1,91.6,1.9
159.0,92.0,88.9,91.5,90.8,1.6
162.0,92.1,88.3,92.8,91.1,2.4
165.0,91.1,88.7,93.1,91.0,2.2
168.0,88.5,87.2,92.2,89.3,2.6
171.0,89.1,86.7,90.7,88.9,2.0
174.0,87.6,87.2,89.8,88.2,1.4
177.0,88.4,89.0,88.9,88.8,0.3
180.0,87.9,88.2,89.0,88.4,0.6
183.0,89.0,88.6,87.7,88.4,0.6
186.0,88.5,89.5,88.8,88.9,0.5
189.0,89.3,89.0,88.2,88.8,0.6
192.0,89.9,88.0,88.2,88.7,1.1
195.0,89.8,86.4,88.4,88.2,1.7
198.0,89.4,89.6,88.2,89.1,0.8
201.0,87.9,90.1,88.5,88.8,1.2
204.0,85.3,89.7,88.1,87.7,2.2
207.0,86.0,88.3,87.2,87.2,1.1
210.0,87.2,88.9,88.7,88.3,0.9
213.0,86.8,91.9,88.3,89.0,2.6
216.0,86.1,89.5,90.9,88.8,2.4
219.0,87.3,89.7,90.1,89.0,1.5
222.0,88.8,91.1,91.1,90.3,1.3
225.0,90.6,90.9,91.6,91.0,0.5
228.0,89.1,91.0,89.0,89.7,1.1
231.0,90.4,93.6,89.4,91.2,2.2
234.0,90.6,95.3,91.6,92.5,2.5
237.0,94.0,94.2,90.1,92.8,2.3
240.0,91.7,97.1,91.2,93.3,3.3
243.0,90.4,98.0,93.4,94.0,3.8
246.0,93.9,99.6,92.4,95.3,3.8
249.0,93.3,100.4,94.0,95.9,3.9
252.0,94.8,100.3,95.1,96.7,3.1
255.0,94.7,103.0,98.9,98.9,4.1
258.0,93.5,107.2,101.3,100.6,6.9
261.0,95.7,105.9,100.3,100.6,5.1
264.0,94.4,114.1,103.2,103.9,9.9
267.0,94.4,113.7,103.3,103.8,9.7
270.0,95.6,116.1,105.7,105.8,10.2
273.0,94.8,115.9,106.4,105.7,10.6
276.0,96.1,115.6,105.9,105.9,9.7
279.0,98.1,114.1,107.9,106.7,8.1
282.0,100.1,115.1,109.7,108.3,7.6
285.0,101.6,114.9,111.5,109.4,6.9
288.0,103.3,116.5,111.7,110.5,6.7
291.0,103.3,117.9,111.0,110.7,7.3
294.0,108.3,118.6,112.5,113.1,5.2
297.0,108.6,115.7,113.1,112.5,3.6
300.0,108.7,117.9,114.7,113.7,4.7
303.0,111.8,117.7,115.3,115.0,2.9
306.0,112.0,118.3,118.1,116.1,3.6
309.0,114.8,119.3,119.0,117.7,2.5
312.0,114.6,120.3,119.8,118.2,3.1
315.0,121.5,119.4,121.7,120.9,1.2
318.0,123.0,119.4,122.5,121.6,1.9
321.0,121.2,119.5,124.2,121.6,2.4
324.0,120.1,121.3,125.8,122.4,3.0
327.0,118.3,117.1,128.1,121.2,6.0
330.0,120.1,122.0,127.3,123.1,3.8
333.0,122.7,122.8,128.4,124.7,3.2
336.0,120.7,121.6,130.6,124.3,5.4
339.0,120.2,121.3,133.6,125.0,7.5
342.0,123.3,124.8,137.1,128.4,7.6
345.0,121.2,124.4,137.9,127.8,8.9
348.0,121.1,123.5,138.1,127.5,9.2
351.0,121.4,123.2,139.2,127.9,9.8
354.0,126.3,124.0,140.4,130.2,8.9
357.0,122.8,126.5,137.0,128.8,7.4
360.0,125.4,125.1,136.9,129.1,6.8
363.0,124.8,126.9,138.9,130.2,7.6
366.0,125.8,124.7,143.5,131.3,10.5
369.0,127.0,125.4,138.1,130.2,6.9
372.0,127.8,126.1,141.8,131.9,8.6
375.0,127.4,126.0,136.9,130.1,5.9
378.0,127.1,126.5,136.7,130.1,5.7
381.0,125.3,125.4,141.3,130.7,9.2
384.0,128.1,125.6,140.6,131.4,8.0
387.0,129.7,126.8,141.9,132.8,8.0
390.0,127.9,125.7,141.0,131.5,8.3
393.0,130.9,125.6,142.5,133.0,8.6
396.0,128.8,126.7,142.0,132.5,8.3
399.0,129.1,126.8,144.7,133.5,9.7
402.0,130.1,128.1,142.5,133.6,7.8
405.0,133.0,125.5,142.6,133.7,8.6
408.0,129.2,125.1,144.3,132.8,10.1
411.0,129.9,126.1,142.8,132.9,8.8
414.0,131.1,127.1,142.6,133.6,8.1
417.0,132.4,127.0,139.8,133.1,6.4
420.0,129.9,124.7,139.8,131.5,7.7
423.0,131.0,125.4,139.4,131.9,7.0
426.0,129.5,126.1,134.8,130.1,4.4
429.0,131.4,122.9,135.8,130.0,6.5
432.0,128.3,121.2,134.3,127.9,6.6
435.0,131.7,120.5,131.9,128.0,6.5
438.0,130.8,122.3,133.3,128.8,5.8
441.0,130.7,122.6,130.1,127.8,4.5
444.0,129.0,122.0,126.9,125.9,3.6
447.0,129.4,118.9,127.0,125.1,5.5
450.0,127.9,118.7,124.6,123.7,4.7
453.0,130.2,118.8,122.9,124.0,5.8
456.0,126.1,113.6,116.6,118.8,6.5
459.0,128.4,110.7,115.8,118.3,9.1
462.0,126.3,111.4,115.1,117.6,7.8
465.0,122.2,107.0,111.2,113.5,7.9
468.0,121.1,106.9,108.6,112.2,7.8
471.0,119.6,105.6,104.9,110.0,8.3
474.0,117.9,101.8,100.3,106.7,9.8
477.0,115.2,99.8,100.2,105.1,8.8
480.0,112.2,99.3,96.3,102.6,8.5
483.0,109.1,95.8,93.1,99.3,8.6
486.0,105.8,94.0,90.9,96.9,7.9
489.0,105.9,89.2,89.6,94.9,9.5
492.0,103.0,84.2,82.7,89.9,11.3
495.0,99.8,81.0,77.8,86.2,11.9
498.0,99.1,77.1,75.6,83.9,13.2
501.0,96.2,73.3,71.1,80.2,13.9
504.0,94.2,69.4,69.8,77.8,14.2
507.0,91.3,66.8,67.7,75.3,13.9
510.0,86.2,62.9,66.0,71.7,12.7
513.0,82.4,60.0,65.0,69.1,11.8
516.0,78.9,58.4,63.5,66.9,10.6
519.0,75.3,56.5,62.9,64.9,9.6
522.0,71.4,55.9,59.1,62.1,8.2
525.0,67.8,53.7,56.3,59.3,7.5
528.0,64.9,52.8,55.2,57.6,6.4
531.0,63.2,50.6,55.3,56.4,6.4
534.0,62.5,49.2,53.7,55.1,6.8
537.0,62.5,48.3,51.5,54.1,7.4
540.0,63.9,47.5,51.4,54.3,8.5
543.0,64.7,47.2,50.9,54.3,9.2
546.0,64.2,48.4,49.3,54.0,8.9
549.0,63.0,50.8,49.7,54.5,7.3
552.0,59.0,50.5,49.6,53.0,5.2
555.0,55.7,49.8,49.6,51.7,3.5
558.0,54.0,51.1,49.7,51.6,2.2
561.0,52.2,50.5,49.1,50.6,1.6
564.0,51.3,51.6,47.9,50.3,2.1
567.0,51.1,49.8,48.7,49.9,1.2
570.0,50.8,48.3,48.2,49.1,1.5
573.0,50.0,47.6,48.4,48.7,1.3
576.0,47.8,46.8,47.0,47.2,0.5
579.0,48.7,45.8,46.5,47.0,1.5
582.0,48.6,46.7,47.7,47.7,1.0
585.0,48.9,46.9,47.5,47.8,1.0
588.0,49.0,46.3,46.3,47.2,1.6
591.0,49.2,45.6,46.1,47.0,2.0
594.0,49.7,44.4,46.6,46.9,2.7
597.0,49.7,43.5,46.4,46.5,3.1
600.0,47.0,42.6,45.7,45.1,2.3
603.0,48.6,41.9,45.5,45.3,3.3
606.0,48.5,41.3,46.0,45.3,3.6
609.0,47.9,40.5,45.6,44.7,3.8
612.0,46.4,40.1,44.9,43.8,3.3
615.0,45.6,40.2,45.4,43.7,3.0
618.0,45.1,39.2,45.0,43.1,3.4
621.0,46.0,39.0,45.8,43.6,4.0
624.0,46.5,39.5,44.5,43.5,3.6
627.0,45.9,39.1,43.4,42.8,3.4
630.0,46.6,39.3,42.3,42.7,3.7
633.0,45.6,39.2,45.1,43.3,3.6
636.0,46.1,39.3,49.2,44.8,5.1
639.0,44.7,39.4,50.3,44.8,5.5
642.0,43.9,39.1,48.6,43.9,4.8
645.0,43.9,39.0,46.3,43.1,3.7
648.0,44.0,38.6,45.9,42.8,3.8
651.0,43.4,38.5,45.4,42.4,3.6
654.0,41.7,38.1,45.0,41.6,3.4
657.0,41.5,37.2,43.7,40.8,3.3
660.0,41.0,37.0,,39.0,2.8
663.0,40.9,36.8,,38.9,2.9
666.0,42.1,36.3,,39.2,4.1
669.0,41.8,36.6,,39.2,3.7
672.0,42.4,36.4,,39.4,4.2
675.0,42.5,36.0,,39.3,4.6
678.0,43.3,,,43.3,
681.0,42.7,,,42.7,
684.0,43.1,,,43.1,
687.0,41.8,,,41.8,
690.0,41.1,,,41.1,
693.0,41.3,,,41.3,
696.0,42.1,,,42.1,
699.0,42.1,,,42.1,
702.0,42.3,,,42.3,
705.0,42.4,,,42.4,
708.0,43.2,,,43.2,
711.0,42.8,,,42.8,
714.0,39.9,,,39.9,
717.0,39.1,,,39.1,
720.0,38.9,,,38.9,
723.0,38.8,,,38.8,
726.0,38.3,,,38.3,
729.0,37.4,,,37.4,
732.0,37.1,,,37.1,
735.0,37.6,,,37.6,
738.0,39.5,,,39.5,
741.0,41.2,,,41.2,
744.0,41.1,,,41.1,
747.0,41.0,,,41.0,
750.0,41.8,,,41.8,
753.0,41.1,,,41.1,
756.0,40.2,,,40.2,
759.0,38.1,,,38.1,
762.0,38.2,,,38.2,
765.0,38.2,,,38.2,
768.0,37.9,,,37.9,
771.0,37.8,,,37.8,
774.0,38.1,,,38.1,
777.0,37.1,,,37.1,
780.0,36.8,,,36.8,
783.0,36.4,,,36.4,
786.0,36.8,,,36.8,
789.0,36.9,,,36.9,
792.0,37.2,,,37.2,
795.0,36.9,,,36.9,
798.0,35.8,,,35.8,
801.0,35.6,,,35.6,
804.0,35.8,,,35.8,
807.0,35.8,,,35.8,
810.0,34.9,,,34.9,
813.0,34.8,,,34.8,
816.0,34.6,,,34.6,
819.0,34.4,,,34.4,
822.0,34.7,,,34.7,
825.0,34.8,,,34.8,
828.0,34.0,,,34.0,
831.0,33.0,,,33.0,
834.0,32.5,,,32.5,
837.0,33.4,,,33.4,
840.0,32.4,,,32.4,
843.0,31.8,,,31.8,
846.0,31.9,,,31.9,
848.25,32.7,,,32.7,