File: 01_Data/Homasote/Cone/Homasote_Cone_HF50Scan_230608_R1.csv
Names,Time,Stack TC,Smoke TC,Exh Press,Smoke Comp,Smoke Meas,CO Meter,CO2 Meter,O2 Meter,Sample Mass,Ext Coeff,Start Test,Flame Verif
Chan Gain,,500,500,1,1,1,1,1,1,1,1,1.0,1.0
Offset,,0,0,0.143883,0,0,0,0,0,0,0,0.0,0.0
Gain,,1,1,25.011,13.2306,13.9176,1,1,1,1.00094,1.03262,1.0,1.0
Units,sec,C,C,Pa,%,%,%,%,%,g,/m,,
Baseline,,37.4758,38.1566,154.705,99.5765,99.534,0.00035266,0.0538965,20.9494,-445.536,0.00387505,,
41,10,35.4269,35.8465,145.818,100.014,99.8647,0.000558805,0.0741773,20.9253,103.077,0.0135231,0.0,1.0
82,20.25,42.5147,40.2636,141.579,99.9954,98.3319,0.00110174,0.189311,20.913,101.545,0.151954,0.0,0.0
123,30.5,48.3547,44.727,141.266,100.03,96.0952,0.00299325,0.435805,20.5107,100.114,0.363472,0.0,0.0
164,40.75,51.2504,48.8458,140.871,99.9909,96.8092,0.0037907,0.41579,20.5143,98.7728,0.292912,0.0,0.0
205,51,53.0237,50.625,145.519,99.8924,97.0097,0.00398025,0.372925,20.5611,97.6417,0.265245,0.0,0.0
246,61.25,53.0123,52.0222,142.443,99.6869,98.0227,0.00322775,0.33122,20.6209,96.6208,0.152496,0.0,0.0
287,71.5,53.2063,53.3962,142.711,99.4466,98.5022,0.00266869,0.300719,20.656,95.6298,0.0864358,0.0,0.0
328,81.75,53.4976,53.5525,147.85,99.3017,98.6381,0.00232029,0.280121,20.6826,94.769,0.0607335,0.0,0.0
369,92,53.5473,54.1775,145.838,99.613,99.0582,0.00184767,0.263897,20.699,93.8882,0.0505929,0.0,0.0
410,102.25,52.7265,54.2245,142.472,99.9707,99.7632,0.00184726,0.254863,20.7158,92.9974,0.0188219,0.0,0.0
451,112.5,52.3605,54.1731,145.567,100.03,99.8826,0.00219415,0.249318,20.7208,92.2166,0.0133689,0.0,0.0
492,122.75,52.4885,54.0965,144.523,99.7579,99.7076,0.00194893,0.240574,20.7315,91.3658,0.00457504,0.0,0.0
533,133,52.6417,54.3045,144.4,99.739,99.7925,0.00207973,0.231624,20.7404,90.5651,-0.00486203,0.0,0.0
574,143.25,52.3327,53.9676,144.129,100.032,100.146,0.00198612,0.226206,20.7499,89.8144,-0.0103737,0.0,0.0
615,153.5,52.1158,53.831,142.218,100.372,100.488,0.00172565,0.220819,20.7586,89.0436,-0.0104747,0.0,0.0
656,163.75,51.8232,53.742,145.073,100.546,100.642,0.00169275,0.216606,20.7621,88.2529,-0.00863389,0.0,0.0
697,174,51.6984,53.7952,152.177,100.46,100.608,0.00182158,0.215074,20.763,87.5122,-0.0133643,0.0,0.0
738,184.25,51.2357,53.6552,142.001,100.192,100.296,0.00155105,0.209563,20.7722,86.7715,-0.00938402,0.0,0.0
779,194.5,51.6447,53.4302,153.557,99.9122,100.023,0.00186254,0.211363,20.7697,86.0408,-0.0100164,0.0,0.0
820,204.75,51.59,53.4025,149.001,99.6614,99.8375,0.00167828,0.209948,20.7698,85.4202,-0.0159909,0.0,0.0
861,215,50.8841,52.6929,144.755,99.5363,99.674,0.00185817,0.20869,20.7755,84.7796,-0.0125263,0.0,0.0
902,225.25,51.3605,53.1375,143.771,99.4164,99.5092,0.00183808,0.208695,20.7749,84.0189,-0.00845718,0.0,0.0
943,235.5,51.4719,53.5459,146.655,99.3558,99.3092,0.00148266,0.213311,20.7682,83.3183,0.00425018,0.0,0.0
984,245.75,51.483,53.1473,145.444,99.3053,99.2204,0.00167305,0.218148,20.7625,82.5876,0.00774858,0.0,0.0
1025,256,51.3436,53.3462,149.319,99.3558,99.1809,0.0017572,0.218836,20.7615,81.937,0.0159573,0.0,0.0
1066,266.25,52.0365,53.5994,145.735,99.485,99.3856,0.00133311,0.220389,20.7578,81.2263,0.00905285,0.0,0.0
1107,276.5,51.7123,53.1818,141.351,99.6711,99.4349,0.00155973,0.223947,20.7578,80.5256,0.0214949,0.0,0.0
1148,286.75,52.0341,53.7644,145.844,99.8791,99.6332,0.0016131,0.230705,20.753,79.7449,0.0223211,0.0,0.0
1189,297,52.3768,54.1675,147.67,100.062,99.7088,0.00118277,0.242468,20.7411,79.0242,0.0320608,0.0,0.0
1230,307.25,52.8803,54.3843,144.069,100.127,99.4064,0.00165575,0.246737,20.7309,78.2835,0.065457,0.0,0.0
1271,317.5,53.4523,54.6133,145.021,100.132,99.2986,0.00180991,0.258634,20.7166,77.4928,0.0757308,0.0,0.0
1312,327.75,53.5226,55.1489,140.246,100.045,98.6576,0.00133797,0.272314,20.6996,76.672,0.126455,0.0,0.0
1353,338,54.3217,55.79,143.753,99.8795,98.5527,0.00171359,0.270519,20.7044,75.8513,0.121128,0.0,0.0
1394,348.25,54.6072,55.6783,144.553,99.7947,98.2236,0.00194572,0.272256,20.7019,75.0105,0.14374,0.0,0.0
1435,358.5,54.9854,55.8031,145.829,99.6421,97.9891,0.00149381,0.274077,20.6987,74.1697,0.151523,0.0,0.0
1476,368.75,55.4455,56.6403,144.503,99.5141,97.5941,0.00190222,0.27703,20.6925,73.3189,0.176467,0.0,0.0
1517,379,55.6642,57.0749,145.006,99.3796,97.3843,0.00187205,0.280677,20.6895,72.428,0.183715,0.0,0.0
1558,389.25,55.9544,57.5987,142.349,99.2326,97.4013,0.00213821,0.283325,20.6854,71.5973,0.168729,0.0,0.0
1599,399.5,56.2998,57.8134,143.312,99.0933,97.0827,0.00187121,0.285066,20.6817,70.7665,0.185678,0.0,0.0
1640,409.75,56.8355,58.4195,140.746,98.9553,97.1197,0.00193107,0.284497,20.6803,69.8857,0.169599,0.0,0.0
1681,420,57.1465,59.0581,142.888,98.8721,97.1333,0.00171841,0.286243,20.6793,69.0349,0.160714,0.0,0.0
1722,430.25,57.1592,59.139,145.869,98.8353,97.1465,0.00182912,0.283761,20.6779,68.2241,0.15612,0.0,0.0
1763,440.5,57.0608,59.2151,142.401,98.8297,96.9757,0.00197662,0.282143,20.6814,67.4434,0.171537,0.0,0.0
1804,450.75,57.6207,59.1786,138.261,98.9141,96.9795,0.00192908,0.282674,20.6796,66.6026,0.17891,0.0,0.0
1845,461,57.4957,59.2651,150.01,99.0518,97.397,0.00212318,0.279311,20.6838,65.8318,0.152597,0.0,0.0
1886,471.25,57.3039,59.3232,145.896,99.2746,97.7988,0.00207336,0.272784,20.6891,65.0411,0.135666,0.0,0.0
1927,481.5,57.196,58.9481,146.36,99.5686,98.2367,0.00213533,0.26279,20.7027,64.3705,0.12198,0.0,0.0
1968,491.75,56.2425,58.9506,146.085,99.8181,98.4262,0.00200061,0.248229,20.7233,63.7399,0.127202,0.0,0.0
2009,502,55.5783,57.5644,145.631,100.007,99.0072,0.00178604,0.236133,20.7394,63.1593,0.0910551,0.0,0.0
2050,512.25,54.54,57.1463,144.696,100.022,99.4718,0.00198512,0.216952,20.7553,62.7389,0.049997,0.0,0.0
2091,522.5,52.9431,55.9345,146.312,99.8718,100.014,0.00242523,0.189453,20.7822,62.4587,-0.0129074,0.0,0.0
2132,532.75,51.1335,54.7559,147.702,99.6332,99.7751,0.00355201,0.163426,20.8084,62.3286,-0.0128944,0.0,0.0
2173,543,50.791,53.4638,146.213,99.3324,99.4336,0.00447506,0.152404,20.8234,62.0683,-0.00922837,0.0,0.0
2214,553.25,49.46,52.3348,148.63,99.525,99.7055,0.00573111,0.156973,20.8194,61.8781,-0.0164111,0.0,0.0
2255,563.5,48.7815,50.5922,148.021,99.9017,100.258,0.00685277,0.141363,20.835,61.768,-0.0322516,0.0,0.0
2296,573.75,47.6925,50.3083,149.075,99.9788,100.051,0.00753631,0.135407,20.8477,61.5578,-0.00651679,0.0,0.0
2337,584,46.9843,49.5971,148.401,99.8189,99.8533,0.00730451,0.133064,20.8519,61.3576,-0.00311576,0.0,0.0
2378,594.25,46.7352,48.6815,147.183,99.575,99.5581,0.00746165,0.133704,20.8537,61.2776,0.00154399,0.0,0.0
2419,604.5,46.419,47.8057,150.83,99.5948,99.6545,0.00706797,0.132655,20.8515,61.1274,-0.00542439,0.0,0.0
2460,614.75,46.0828,47.1703,150.369,99.6243,99.632,0.006965,0.132049,20.8532,60.9873,-0.000697579,0.0,0.0
2501,625,46.1389,47.6797,148.173,99.6312,99.6549,0.0069486,0.128763,20.8587,60.8472,-0.00215824,0.0,0.0
2542,635.25,45.9764,47.1132,147.908,99.6639,99.7046,0.00700798,0.129326,20.8582,60.667,-0.00370178,0.0,0.0
2583,645.5,44.9103,45.6435,145.705,99.6344,99.6167,0.00656705,0.12737,20.859,60.4668,0.00160984,0.0,0.0
2624,655.75,45.0677,46.1817,149.934,99.5512,99.5844,0.0065195,0.12743,20.8629,60.3967,-0.00301909,0.0,0.0
2665,666,44.5371,45.2512,143.745,99.615,99.584,0.00670256,0.125703,20.8677,60.2766,0.00282216,0.0,0.0
2706,676.25,44.0536,44.9951,154.041,99.764,99.6757,0.00654383,0.12393,20.8671,60.1065,0.00801938,0.0,0.0
2747,686.5,43.6242,45.1546,150.57,99.8052,99.8503,0.00672844,0.123095,20.8652,59.9663,-0.00409283,0.0,0.0
2788,696.75,43.3839,45.0283,151.087,99.833,99.8571,0.0067397,0.121672,20.867,59.8162,-0.00218038,0.0,0.0
2829,707,43.8642,44.3127,152.057,99.7507,99.7887,0.00691353,0.123742,20.8663,59.6761,-0.0034517,0.0,0.0
2870,717.25,43.8366,44.6558,148.656,99.5839,99.657,0.00685861,0.122607,20.8652,59.5259,-0.00664754,0.0,0.0
2911,727.5,43.1887,44.4106,149.056,99.6873,99.7594,0.00670505,0.118966,20.8729,59.4158,-0.00654921,0.0,0.0
2952,737.75,43.5611,44.1578,148.321,99.8989,100,0.0069093,0.117605,20.8749,59.3157,-0.00918567,0.0,0.0
2993,748,43.2545,43.7019,149.585,100.201,100.154,0.00729432,0.121737,20.8716,59.2056,0.00420377,0.0,0.0
3034,758.25,42.8792,43.611,145.861,100.386,100.416,0.007315,0.122408,20.8694,59.1055,-0.00272853,0.0,0.0
3075,768.5,42.7849,44.1927,153.185,100.486,100.472,0.00730027,0.117771,20.8738,58.9954,0.00125032,0.0,0.0
3116,778.75,42.5233,43.9448,154.266,100.489,100.439,0.00770612,0.116331,20.8752,58.9053,0.0044887,0.0,0.0
3157,789,42.2805,43.5797,152.454,100.408,100.335,0.0078408,0.114543,20.8769,58.7552,0.00655958,0.0,0.0
3198,799.25,42.5377,43.3295,149.756,100.221,100.306,0.00785605,0.114014,20.8772,58.6451,-0.00771145,0.0,0.0
3239,809.5,43.0262,43.3359,151.024,99.8234,99.855,0.00821525,0.112732,20.8792,58.555,-0.00286679,0.0,0.0
3280,819.75,42.8163,43.3939,153.467,99.3441,99.4481,0.00793681,0.111839,20.8806,58.4049,-0.0094759,0.0,0.0
3321,830,42.9978,42.8167,150.877,98.9371,98.9082,0.0080013,0.110724,20.8815,58.3248,0.00264189,0.0,0.0
3362,840.25,42.7053,42.9553,145.456,98.8325,98.8929,0.00785135,0.109514,20.8842,58.2447,-0.00553676,0.0,0.0
3403,850.5,42.1238,43.2002,148.168,99.1814,99.2106,0.00833171,0.108584,20.8858,58.1046,-0.0026729,0.0,0.0
3444,860.75,40.8529,41.4622,149.769,99.6295,99.6413,0.00828276,0.109298,20.8846,58.0045,-0.00107015,0.0,0.0
3485,871,40.9835,41.4745,151.955,99.9445,99.9225,0.00827814,0.107757,20.886,57.9044,0.00199417,0.0,0.0
3526,881.25,40.9465,41.4242,149.004,100.044,100.019,0.00817845,0.10856,20.8858,57.8343,0.00225543,0.0,0.0
3567,891.5,40.2889,41.1756,151.215,99.8839,99.973,0.00844218,0.107378,20.888,57.7442,-0.00807728,0.0,0.0
3608,901.75,40.7928,41.7556,150.29,99.5952,99.6681,0.00858241,0.106589,20.8891,57.5941,-0.00662269,0.0,0.0
3649,912,40.1562,41.4384,149.923,99.29,99.3508,0.00833432,0.105336,20.891,57.504,-0.00554702,0.0,0.0
3690,922.25,40.4051,41.3726,148.337,99.5217,99.6545,0.00834974,0.105256,20.8903,57.3939,-0.0120737,0.0,0.0
3731,932.5,40.5083,41.2242,150.552,99.8488,99.8809,0.008604,0.104634,20.8908,57.3439,-0.00290945,0.0,0.0
3772,942.75,40.2284,41.271,150.008,99.9586,99.9518,0.00831828,0.104256,20.8903,57.2638,0.000617626,0.0,0.0
3813,953,40.052,40.6753,148.605,99.9756,100.003,0.00878699,0.104175,20.8887,57.1637,-0.00250117,0.0,0.0
3854,963.25,40.5869,40.6453,150.234,99.8524,99.8741,0.0087456,0.103456,20.8916,57.0536,-0.00196329,0.0,0.0
3895,973.5,40.1376,40.6665,149.827,99.5972,99.6124,0.00878435,0.102651,20.8935,56.9535,-0.00138117,0.0,0.0
3913,978,40.1237,40.9882,151.542,99.6804,99.6672,0.00883611,0.103001,20.8927,56.9335,0.0011985,0.0,0.0