File: 01_Data/Homasote/Cone/Homasote_Cone_HF25Scalar_230608_R4.csv
LABORATORY,FSRI
TEST IDENT,Homasote_HF25_R4
OPERATOR,Marino
MATERIAL,Homasote
ORIENTATION,Horizontal
HEAT FLUX,25
SURF AREA,0.01
C FACTOR,0.0405875
SPEC HOLDER DIFF,-566
SPECIMEN MASS,57.93
SCAN TIME,0.25
O2 DELAY TIME,11
CO DELAY TIME,11
CO2 DELAY TIME,8
FLOW FACTOR,1
SCAN COUNT,4233
TIME TO IGN,55.5
END OF TEST SCAN,3753
END OF TEST TIME,938.25
TEST STATUS,1
PRE TEST CMT,Dimensions: 101.30 x 101.90 x 12.14 mm
POST TEST CMT,"Sample corners lifted off insulation during test, reference test picture. 3:20 sample self extinguished, spark ingitor reinserted immediately. Reignited at 7:13."