File: 01_Data/Homasote/Cone/Homasote_Cone_HF75Scan_230608_R1.csv
Names,Time,Stack TC,Smoke TC,Exh Press,Smoke Comp,Smoke Meas,CO Meter,CO2 Meter,O2 Meter,Sample Mass,Ext Coeff,Start Test,Flame Verif
Chan Gain,,500,500,1,1,1,1,1,1,1,1,1.0,1.0
Offset,,0,0,0.143883,0,0,0,0,0,0,0,0.0,0.0
Gain,,1,1,25.011,13.2166,13.8964,1,1,1,1.00094,1.03262,1.0,1.0
Units,sec,C,C,Pa,%,%,%,%,%,g,/m,,
Baseline,,45.5031,46.1105,149.841,99.6778,99.6471,0.00104762,0.0643963,20.9418,-446.686,0.00279755,,
28,6.75,43.9435,43.909,128.513,99.6962,98.6892,0.0011984,0.0811745,20.9191,101.676,0.0919551,0.0,1.0
56,13.75,52.2742,49.1019,130.935,99.6805,93.2932,0.00141117,0.116652,20.9269,100.194,0.599846,0.0,0.0
84,20.75,59.0908,54.8312,126.72,99.6768,91.702,0.00353345,0.559796,20.5547,98.8228,0.75534,0.0,0.0
112,27.75,62.573,59.4508,130.704,99.6514,93.1274,0.0061961,0.645673,20.2581,97.5516,0.613321,0.0,0.0
140,34.75,64.4118,61.9156,132.764,99.647,95.3483,0.00684102,0.561351,20.2854,96.5107,0.399436,0.0,0.0
168,41.75,65.1653,63.3647,132.312,99.668,97.1914,0.00611187,0.478268,20.403,95.5097,0.227923,0.0,0.0
196,48.75,66.0495,65.1233,139.163,99.674,97.8296,0.00472521,0.430593,20.4857,94.5889,0.169184,0.0,0.0
224,55.75,66.2231,66.0847,141.948,99.7063,98.0289,0.00368113,0.406483,20.5216,93.718,0.153679,0.0,0.0
252,62.75,66.5914,66.5619,134.205,99.7757,98.8292,0.0033184,0.382078,20.5506,92.9073,0.0863364,0.0,0.0
280,69.75,66.6639,67.3231,137.493,99.8575,99.0281,0.00273719,0.367874,20.5787,92.1265,0.0755552,0.0,0.0
308,76.75,67.3062,68.2196,137.459,99.912,99.0268,0.00257278,0.358435,20.5893,91.3158,0.0806092,0.0,0.0
336,83.75,67.4909,68.2014,141.06,99.9378,99.2919,0.00251492,0.346414,20.5996,90.5651,0.0587372,0.0,0.0
364,90.75,67.0964,68.7306,135.482,99.9245,99.3338,0.00254158,0.338151,20.6138,89.8244,0.053701,0.0,0.0
392,97.75,67.3076,68.8329,139.539,99.8454,99.4628,0.00265328,0.332837,20.6212,89.0436,0.0347837,0.0,0.0
420,104.75,67.4547,69.987,137.009,99.674,99.344,0.00235217,0.325151,20.6283,88.2729,0.0300399,0.0,0.0
448,111.75,66.8332,69.1763,136.7,99.6413,99.4789,0.00248285,0.317766,20.6395,87.5723,0.0147823,0.0,0.0
476,118.75,67.1103,69.753,134.372,99.7906,99.4963,0.00252192,0.312879,20.6452,86.8216,0.0267557,0.0,0.0
504,125.75,66.8051,70.0626,136.763,100.013,99.9038,0.00234395,0.310727,20.6491,86.1309,0.00991579,0.0,0.0
532,132.75,67.1489,70.0208,138.758,100.228,99.9869,0.00244408,0.309231,20.6545,85.4503,0.0218321,0.0,0.0
560,139.75,67.4007,70.2737,136.45,100.375,100.189,0.00234592,0.30402,20.6572,84.7396,0.0168228,0.0,0.0
588,146.75,67.5054,70.3681,137.279,100.469,100.435,0.00219833,0.302561,20.6625,84.0389,0.00305209,0.0,0.0
616,153.75,67.7646,70.652,137.882,100.512,100.239,0.00206321,0.298889,20.6678,83.3683,0.0245904,0.0,0.0
644,160.75,67.2593,70.5691,137.519,100.495,100.394,0.00194469,0.29982,20.6699,82.6877,0.0091618,0.0,0.0
672,167.75,67.6188,70.2522,135.634,100.381,100.264,0.00219898,0.297664,20.6698,82.0271,0.0106201,0.0,0.0
700,174.75,68.0028,70.9518,134.852,100.168,99.8911,0.00224864,0.296989,20.6714,81.3865,0.0250491,0.0,0.0
728,181.75,67.7191,70.7991,140.215,99.9205,99.6943,0.00201751,0.297169,20.6731,80.7258,0.0205254,0.0,0.0
756,188.75,67.85,70.7667,141.727,99.6728,99.4674,0.00214069,0.298033,20.6716,80.0752,0.018685,0.0,0.0
784,195.75,67.9929,71.2533,141.035,99.4482,98.9997,0.00205219,0.308123,20.6695,79.3846,0.040943,0.0,0.0
812,202.75,68.3162,71.1047,135.474,99.2533,98.7711,0.00220185,0.308437,20.6596,78.804,0.0441189,0.0,0.0
840,209.75,67.7643,70.8118,139.091,99.1021,98.4216,0.00204393,0.306868,20.6617,78.1234,0.0624087,0.0,0.0
868,216.75,68.1925,70.9854,137.81,98.9976,98.2393,0.00232687,0.307344,20.6629,77.4928,0.069653,0.0,0.0
896,223.75,68.1163,70.6331,140.301,98.9706,98.2528,0.00219879,0.308809,20.6604,76.8422,0.0659297,0.0,0.0
924,230.75,68.4198,70.6998,139.89,98.9565,97.6922,0.00217016,0.311517,20.6578,76.2917,0.116471,0.0,0.0
952,237.75,68.6028,70.8474,140.508,98.9351,98.0001,0.00213185,0.313158,20.6516,75.601,0.0860123,0.0,0.0
980,244.75,68.6139,71.1702,138.748,98.9403,97.6676,0.00223433,0.315714,20.6493,74.8803,0.117275,0.0,0.0
1008,251.75,68.3136,70.9448,141.627,98.9545,97.7087,0.00236524,0.320189,20.6466,74.2397,0.114754,0.0,0.0
1036,258.75,68.5187,71.0673,143.315,98.9875,97.2334,0.00257447,0.320397,20.6452,73.5091,0.16196,0.0,0.0
1064,265.75,68.4232,70.9588,136.697,98.9968,97.1825,0.00225208,0.321733,20.6433,72.9485,0.167551,0.0,0.0
1092,272.75,69.1482,71.5774,144.687,99.0069,97.3856,0.00236322,0.324022,20.6369,72.2879,0.149559,0.0,0.0
1120,279.75,68.801,71.5039,137.564,99.0101,96.886,0.00254753,0.323243,20.6374,71.6073,0.19644,0.0,0.0
1148,286.75,69.3453,71.4865,136.517,98.9916,97.1159,0.00272136,0.326095,20.6331,70.9266,0.173278,0.0,0.0
1176,293.75,69.1651,71.6736,137.47,98.9529,97.1299,0.00270037,0.327174,20.6341,70.266,0.168429,0.0,0.0
1204,300.75,69.2493,71.9355,137.397,98.9323,97.2312,0.00247126,0.326018,20.6348,69.6254,0.157099,0.0,0.0
1232,307.75,69.6598,71.93,136.073,98.9359,97.0408,0.00286071,0.326935,20.6321,68.9348,0.175188,0.0,0.0
1260,314.75,69.7565,71.9914,140.66,98.952,97.4106,0.00229631,0.326663,20.6298,68.2942,0.142212,0.0,0.0
1288,321.75,69.8257,72.3675,134.591,98.9726,97.487,0.00240088,0.325512,20.6293,67.5835,0.137,0.0,0.0
1316,328.75,69.8628,71.961,139.538,98.9779,96.8627,0.00208294,0.327646,20.63,67.033,0.195668,0.0,0.0
1344,335.75,69.9753,72.4421,137.519,98.9645,97.1854,0.00243841,0.326067,20.6295,66.4024,0.16432,0.0,0.0
1372,342.75,69.8145,73.1184,137.354,98.9625,97.0968,0.00239257,0.329792,20.6255,65.7718,0.1724,0.0,0.0
1400,349.75,69.9915,72.7403,134.272,98.9524,96.7834,0.00248115,0.326761,20.6245,65.1812,0.200761,0.0,0.0
1428,356.75,70.1562,72.736,135.68,98.9593,96.984,0.00250833,0.325305,20.6228,64.5807,0.182635,0.0,0.0
1456,363.75,69.6468,72.368,140.795,98.9581,97.0493,0.00257247,0.321548,20.6291,63.9901,0.176427,0.0,0.0
1484,370.75,69.5526,72.2915,140.17,98.9702,96.825,0.00238798,0.316071,20.6353,63.4396,0.198498,0.0,0.0
1512,377.75,69.0195,72.4596,137.681,98.9827,97.1782,0.00225281,0.311347,20.6436,62.9191,0.166654,0.0,0.0
1540,384.75,68.8463,71.3787,136.771,98.9815,97.0616,0.00253313,0.300235,20.654,62.4587,0.17742,0.0,0.0
1568,391.75,68.4231,71.5466,138.87,98.9996,97.4997,0.00242742,0.284954,20.6707,61.9782,0.138291,0.0,0.0
1596,398.75,67.6883,70.9375,142.881,99.0065,97.6629,0.00215994,0.273281,20.691,61.5578,0.123762,0.0,0.0
1624,405.75,66.8679,70.3533,143.13,99.0113,98.0196,0.00231427,0.256706,20.7053,61.1775,0.0911866,0.0,0.0
1652,412.75,66.2433,69.3679,140.747,99.0319,98.2741,0.00205164,0.238631,20.7266,60.9473,0.0695844,0.0,0.0
1680,419.75,65.1147,68.3836,140.051,99.0831,99.0853,0.00196662,0.21719,20.7472,60.7371,-0.000200845,0.0,0.0
1708,426.75,64.1877,67.5948,139.676,99.1662,99.3338,0.00201394,0.200135,20.7677,60.5669,-0.0152975,0.0,0.0
1736,433.75,62.8493,66.391,140.976,99.2812,99.5243,0.00206305,0.181884,20.7837,60.4168,-0.0221506,0.0,0.0
1764,440.75,61.7841,65.3647,147.357,99.4522,99.6519,0.00244394,0.170969,20.8043,60.2966,-0.0181718,0.0,0.0
1792,447.75,61.3051,64.119,146.845,99.6103,99.8957,0.0031081,0.162653,20.816,60.1966,-0.0259199,0.0,0.0
1820,454.75,60.5357,63.5484,146.003,99.7858,100.043,0.00281414,0.155865,20.8261,60.0364,-0.0233132,0.0,0.0
1848,461.75,59.7367,62.966,146.48,99.9402,100.108,0.00333415,0.153137,20.8319,59.8963,-0.0152131,0.0,0.0
1876,468.75,59.1437,62.178,143.195,100.072,100.319,0.00298264,0.151153,20.8373,59.8162,-0.0223173,0.0,0.0
1904,475.75,58.572,61.8465,148.376,100.161,100.356,0.00339691,0.1503,20.8359,59.7461,-0.0176206,0.0,0.0
1932,482.75,58.4822,61.1192,145.08,100.169,100.504,0.00307906,0.150123,20.8382,59.636,-0.030239,0.0,0.0
1960,489.75,58.2341,60.3622,148.565,100.158,100.412,0.00372678,0.150885,20.8374,59.4959,-0.0229278,0.0,0.0
1988,496.75,58.1848,60.0367,142.933,100.056,100.283,0.00348726,0.148354,20.8407,59.3958,-0.0205969,0.0,0.0
2016,503.75,57.3742,59.6837,146.142,99.8503,100.05,0.00356074,0.146257,20.8404,59.2957,-0.0180718,0.0,0.0
2044,510.75,57.6581,59.4161,141.868,99.5696,99.7783,0.00339958,0.14512,20.8419,59.1856,-0.0189677,0.0,0.0
2072,517.75,57.1825,59.2187,148.548,99.4054,99.6765,0.00376685,0.143658,20.8442,59.0555,-0.0246698,0.0,0.0
2100,524.75,56.8488,58.9907,148.591,99.7059,100.013,0.0033977,0.14353,20.8475,58.9554,-0.027839,0.0,0.0
2128,531.75,56.1655,58.0967,142.449,99.8112,99.9717,0.0033453,0.142233,20.8492,58.8653,-0.0145539,0.0,0.0
2156,538.75,56.6317,57.9176,142.72,99.9511,100.194,0.00329251,0.142113,20.8493,58.7452,-0.022012,0.0,0.0
2184,545.75,56.6262,57.9137,147.544,99.9705,100.246,0.0036884,0.141212,20.8512,58.6851,-0.0249724,0.0,0.0
2212,552.75,54.2451,56.2745,148.759,99.8951,100.205,0.00408172,0.13983,20.8555,58.575,-0.0280914,0.0,0.0
2240,559.75,54.5301,55.9897,143.072,99.7232,99.8656,0.00404247,0.138706,20.8556,58.535,-0.0129263,0.0,0.0
2268,566.75,54.4287,55.9209,144.469,99.6841,99.8788,0.00395535,0.138743,20.8554,58.3949,-0.0176725,0.0,0.0
2296,573.75,54.5242,55.4982,142.173,99.8846,100.055,0.00409307,0.139404,20.8548,58.2747,-0.0154224,0.0,0.0
2324,580.75,53.7873,55.4726,147.689,100.124,100.31,0.00398094,0.137692,20.8567,58.1747,-0.0167665,0.0,0.0
2352,587.75,54.1741,55.0996,145.87,100.336,100.534,0.00425787,0.138625,20.8556,58.1346,-0.0179014,0.0,0.0
2380,594.75,53.5757,55.1309,144.033,100.482,100.653,0.00435897,0.13733,20.8588,58.0645,-0.0154241,0.0,0.0
2408,601.75,53.7244,54.9094,144.156,100.544,100.712,0.00448097,0.136455,20.8585,57.9444,-0.0151655,0.0,0.0
2436,608.75,53.7572,54.7393,147.334,100.554,100.696,0.00455332,0.137735,20.8591,57.8544,-0.0128106,0.0,0.0
2464,615.75,53.6181,54.9942,142.208,100.507,100.629,0.00433439,0.136296,20.8597,57.8043,-0.0109196,0.0,0.0
2492,622.75,53.247,54.7464,144.914,100.398,100.53,0.00444109,0.136,20.8601,57.6942,-0.0119143,0.0,0.0
2520,629.75,53.1897,54.581,147.648,100.254,100.445,0.00459098,0.135924,20.8601,57.504,-0.0172706,0.0,0.0
2548,636.75,53.0447,54.7844,144.61,100.192,100.235,0.00458693,0.134282,20.8607,57.5741,-0.00385787,0.0,0.0
2576,643.75,53.1367,53.9993,146.009,100.118,100.206,0.00446137,0.133601,20.8612,57.4239,-0.00796272,0.0,0.0
2604,650.75,52.5179,54.1043,147.591,100.083,100.195,0.00493214,0.133438,20.8614,57.3339,-0.0101418,0.0,0.0
2632,657.75,52.4171,53.6937,144.331,100.081,100.153,0.00462906,0.132294,20.8634,57.2438,-0.00649139,0.0,0.0
2660,664.75,52.4567,53.5998,147.057,100.087,100.255,0.0042218,0.132661,20.8627,57.1937,-0.0151082,0.0,0.0
2676,668.75,52.6182,53.7818,147.908,100.094,100.232,0.00430583,0.131962,20.8638,57.1537,-0.0124927,0.0,0.0