File: 01_Data/Homasote/Cone/Homasote_HRRPUA_75.csv
Time after Ignition,Homasote_R1,Homasote_R2,Homasote_R3,Mean,Std. Dev.
0.0,12.5,8.1,6.8,9.1,3.0
2.0,10.7,8.7,6.0,8.5,2.3
4.0,10.2,9.2,5.4,8.3,2.6
6.0,9.1,8.6,5.6,7.8,1.9
8.0,7.4,7.3,5.8,6.8,0.9
10.0,6.6,8.2,6.0,6.9,1.1
12.0,34.9,34.1,17.2,28.7,10.0
14.0,103.2,104.0,99.4,102.2,2.5
16.0,175.5,176.6,177.9,176.7,1.2
18.0,242.7,233.5,234.6,236.9,5.1
20.0,284.1,278.0,261.0,274.4,12.0
22.0,311.3,292.3,280.9,294.9,15.4
24.0,319.6,290.3,280.4,296.8,20.4
26.0,316.8,288.9,275.4,293.7,21.1
28.0,308.2,276.2,265.6,283.3,22.2
30.0,300.7,267.7,253.6,274.0,24.2
32.0,289.6,249.5,248.7,262.6,23.4
34.0,272.4,243.4,241.9,252.6,17.2
36.0,257.2,232.1,227.6,239.0,15.9
38.0,242.0,221.2,222.2,228.4,11.8
40.0,229.9,218.7,211.6,220.1,9.2
42.0,217.6,211.6,201.6,210.3,8.1
44.0,214.2,200.2,191.4,201.9,11.5
46.0,204.0,193.7,190.5,196.1,7.1
48.0,198.0,186.3,185.6,190.0,7.0
50.0,196.1,185.5,181.5,187.7,7.6
52.0,191.8,179.4,175.5,182.2,8.5
54.0,187.9,172.3,169.8,176.7,9.8
56.0,185.8,170.6,169.5,175.3,9.1
58.0,180.5,169.8,165.4,171.9,7.7
60.0,177.5,168.9,167.4,171.3,5.4
62.0,167.7,165.6,164.3,165.9,1.7
64.0,168.8,162.5,161.5,164.3,4.0
66.0,166.8,159.9,157.3,161.3,4.9
68.0,165.9,157.0,152.6,158.5,6.8
70.0,166.0,155.3,151.0,157.4,7.7
72.0,164.5,154.4,148.0,155.6,8.4
74.0,162.0,153.7,148.7,154.8,6.7
76.0,161.5,148.9,149.3,153.3,7.2
78.0,162.4,149.4,148.7,153.5,7.7
80.0,157.5,145.3,145.4,149.4,7.0
82.0,158.3,143.5,146.4,149.4,7.8
84.0,157.1,143.0,143.9,148.0,7.9
86.0,152.1,144.2,140.9,145.7,5.7
88.0,152.2,144.2,142.9,146.4,5.0
90.0,152.2,142.5,137.9,144.2,7.3
92.0,152.6,140.9,141.8,145.1,6.5
94.0,148.6,141.8,141.2,143.9,4.1
96.0,147.3,142.1,137.7,142.4,4.8
98.0,147.6,140.6,134.9,141.0,6.4
100.0,146.2,139.5,139.8,141.9,3.7
102.0,146.4,137.4,135.9,139.9,5.7
104.0,143.5,137.1,133.5,138.0,5.1
106.0,140.8,135.9,134.6,137.1,3.3
108.0,140.5,136.7,133.6,136.9,3.4
110.0,139.7,135.9,133.3,136.3,3.2
112.0,140.1,134.0,130.1,134.7,5.0
114.0,137.1,132.3,127.0,132.1,5.0
116.0,136.9,133.1,125.4,131.8,5.9
118.0,138.7,134.7,123.8,132.4,7.7
120.0,137.5,132.5,125.3,131.8,6.2
122.0,137.0,131.2,126.6,131.6,5.2
124.0,136.3,129.7,126.4,130.8,5.0
126.0,134.4,129.1,128.9,130.8,3.1
128.0,135.0,129.3,127.5,130.6,3.9
130.0,133.3,128.1,128.7,130.0,2.9
132.0,135.2,132.5,130.2,132.7,2.5
134.0,135.4,129.1,128.0,130.8,4.0
136.0,130.4,128.2,129.6,129.4,1.1
138.0,130.4,129.5,130.1,130.0,0.5
140.0,130.3,128.3,129.1,129.2,1.0
142.0,130.4,128.3,126.1,128.3,2.2
144.0,129.7,126.4,125.4,127.2,2.2
146.0,130.6,126.9,128.5,128.7,1.9
148.0,130.8,125.3,127.1,127.8,2.8
150.0,125.1,127.5,125.9,126.2,1.2
152.0,127.3,127.9,126.8,127.3,0.5
154.0,126.2,127.3,125.8,126.5,0.8
156.0,127.2,126.8,127.6,127.2,0.4
158.0,128.3,126.0,124.2,126.1,2.0
160.0,125.0,126.4,125.7,125.7,0.7
162.0,124.4,127.0,126.8,126.1,1.4
164.0,129.1,127.1,125.4,127.2,1.9
166.0,127.5,127.5,125.6,126.9,1.1
168.0,128.8,128.5,125.8,127.7,1.6
170.0,125.1,130.5,126.5,127.4,2.8
172.0,127.0,128.9,126.7,127.5,1.2
174.0,127.6,127.0,126.4,127.0,0.6
176.0,125.8,128.7,127.5,127.3,1.4
178.0,125.6,130.8,125.9,127.4,2.9
180.0,122.6,128.8,125.1,125.5,3.1
182.0,126.8,131.6,127.0,128.5,2.7
184.0,128.2,131.0,123.7,127.6,3.7
186.0,123.4,131.0,127.7,127.4,3.8
188.0,127.2,130.4,126.5,128.0,2.1
190.0,127.9,130.0,126.6,128.2,1.7
192.0,128.3,130.9,125.5,128.2,2.7
194.0,130.7,129.7,129.7,130.0,0.6
196.0,132.1,131.0,129.8,130.9,1.1
198.0,130.7,129.3,128.8,129.6,1.0
200.0,131.6,130.4,126.7,129.6,2.5
202.0,131.8,130.9,125.2,129.3,3.6
204.0,131.2,129.2,127.1,129.2,2.1
206.0,128.4,132.5,128.7,129.9,2.3
208.0,129.7,131.9,128.2,129.9,1.9
210.0,130.8,129.8,129.4,130.0,0.7
212.0,130.3,127.8,130.3,129.5,1.4
214.0,132.2,127.8,127.4,129.1,2.6
216.0,130.3,128.8,129.1,129.4,0.8
218.0,132.8,129.5,129.8,130.7,1.8
220.0,131.7,130.6,130.6,131.0,0.6
222.0,131.3,129.4,132.8,131.1,1.7
224.0,134.3,129.7,133.1,132.3,2.4
226.0,133.7,130.7,130.8,131.8,1.7
228.0,134.8,132.9,132.3,133.3,1.3
230.0,136.4,133.4,131.2,133.7,2.6
232.0,136.3,130.5,131.4,132.7,3.1
234.0,136.9,130.8,132.1,133.3,3.2
236.0,135.6,131.1,131.2,132.6,2.6
238.0,137.8,130.2,132.3,133.4,3.9
240.0,137.1,129.6,130.4,132.4,4.1
242.0,136.5,129.6,130.6,132.2,3.7
244.0,140.8,131.0,131.7,134.5,5.5
246.0,137.5,131.6,132.5,133.8,3.2
248.0,138.4,131.8,133.1,134.4,3.5
250.0,140.4,135.5,132.6,136.2,3.9
252.0,138.7,131.0,132.6,134.1,4.0
254.0,141.3,131.5,132.2,135.0,5.4
256.0,138.9,131.4,133.7,134.7,3.8
258.0,139.6,132.4,134.9,135.6,3.7
260.0,139.8,132.5,135.7,136.0,3.7
262.0,139.9,132.0,137.5,136.5,4.1
264.0,140.6,133.4,137.2,137.1,3.6
266.0,142.4,132.8,135.4,136.9,5.0
268.0,145.7,132.7,137.7,138.7,6.6
270.0,143.0,132.2,137.1,137.5,5.4
272.0,143.2,133.1,136.8,137.7,5.1
274.0,140.9,137.3,136.9,138.4,2.2
276.0,142.1,136.6,135.7,138.1,3.4
278.0,141.7,133.7,138.5,138.0,4.0
280.0,144.6,134.6,137.1,138.8,5.2
282.0,143.3,134.4,139.4,139.0,4.5
284.0,145.2,136.0,136.2,139.2,5.3
286.0,144.5,134.1,136.4,138.3,5.4
288.0,141.1,135.0,136.6,137.6,3.1
290.0,140.8,136.2,136.3,137.7,2.7
292.0,141.9,136.2,139.8,139.3,2.9
294.0,143.1,137.2,140.6,140.3,3.0
296.0,143.0,135.5,141.7,140.1,4.0
298.0,141.8,136.2,142.7,140.2,3.5
300.0,142.9,135.6,142.5,140.4,4.1
302.0,143.9,136.3,143.0,141.1,4.2
304.0,145.8,138.8,141.2,141.9,3.6
306.0,145.1,137.5,141.6,141.4,3.8
308.0,145.3,137.3,140.5,141.1,4.0
310.0,146.9,137.2,141.6,141.9,4.8
312.0,142.8,139.4,140.0,140.7,1.8
314.0,145.3,141.3,137.2,141.3,4.1
316.0,146.1,139.9,141.6,142.6,3.2
318.0,145.7,139.8,141.7,142.4,3.0
320.0,146.4,138.0,141.1,141.8,4.3
322.0,145.3,141.5,142.6,143.1,2.0
324.0,146.2,142.6,141.2,143.3,2.6
326.0,149.0,141.6,141.2,143.9,4.4
328.0,149.0,140.7,139.2,143.0,5.3
330.0,145.4,140.4,140.5,142.1,2.9
332.0,146.0,139.1,139.8,141.6,3.8
334.0,146.8,140.2,139.7,142.2,3.9
336.0,147.4,140.5,138.2,142.1,4.8
338.0,147.2,140.6,137.8,141.8,4.8
340.0,149.1,140.1,137.9,142.4,5.9
342.0,149.8,141.7,141.0,144.2,4.9
344.0,148.4,138.2,137.6,141.4,6.1
346.0,149.0,139.2,135.4,141.2,7.0
348.0,148.8,140.9,137.9,142.5,5.6
350.0,148.6,141.2,137.1,142.3,5.8
352.0,147.4,140.6,137.6,141.9,5.1
354.0,148.7,143.8,136.4,143.0,6.2
356.0,145.4,141.8,136.4,141.2,4.5
358.0,146.1,141.0,136.5,141.2,4.8
360.0,145.0,141.2,133.3,139.8,6.0
362.0,146.2,140.9,133.3,140.1,6.5
364.0,146.7,140.2,131.0,139.3,7.9
366.0,144.1,138.0,131.8,137.9,6.2
368.0,142.7,139.4,132.2,138.1,5.4
370.0,141.0,137.1,131.0,136.3,5.1
372.0,141.3,138.4,129.3,136.3,6.3
374.0,139.2,136.1,129.4,134.9,5.0
376.0,137.4,136.3,128.4,134.0,4.9
378.0,138.8,135.6,126.5,133.7,6.4
380.0,133.9,135.5,125.6,131.6,5.3
382.0,131.8,136.5,123.7,130.6,6.5
384.0,128.1,134.3,123.9,128.8,5.2
386.0,128.0,133.1,122.6,127.9,5.3
388.0,127.4,130.6,121.4,126.5,4.7
390.0,123.8,131.2,117.1,124.1,7.1
392.0,120.6,127.9,116.8,121.8,5.7
394.0,119.5,126.3,114.2,120.0,6.1
396.0,117.3,125.1,112.7,118.4,6.3
398.0,115.8,123.2,109.3,116.1,7.0
400.0,114.5,122.0,106.8,114.4,7.6
402.0,110.2,117.7,106.1,111.3,5.9
404.0,107.9,116.5,104.7,109.7,6.1
406.0,104.0,113.6,97.3,104.9,8.2
408.0,102.1,111.4,97.2,103.6,7.3
410.0,99.0,110.2,97.0,102.0,7.1
412.0,96.6,109.1,96.8,100.8,7.2
414.0,95.2,106.3,92.8,98.1,7.2
416.0,92.1,103.1,92.4,95.9,6.2
418.0,88.2,99.0,89.5,92.2,5.9
420.0,85.1,96.1,85.0,88.7,6.4
422.0,82.6,94.9,80.3,85.9,7.8
424.0,81.6,91.3,78.3,83.7,6.8
426.0,80.2,87.6,73.8,80.5,6.9
428.0,77.4,82.3,69.8,76.5,6.3
430.0,76.0,80.8,66.3,74.4,7.4
432.0,70.0,77.2,65.2,70.8,6.1
434.0,68.1,74.1,63.4,68.5,5.4
436.0,67.3,72.7,62.9,67.6,4.9
438.0,65.3,68.8,60.8,65.0,4.0
440.0,63.8,65.6,58.3,62.6,3.8
442.0,61.7,64.2,56.2,60.7,4.1
444.0,60.6,61.7,55.6,59.3,3.3
446.0,58.2,60.4,54.5,57.7,3.0
448.0,56.8,58.6,53.5,56.3,2.6
450.0,56.5,56.8,52.6,55.3,2.3
452.0,55.3,56.7,51.5,54.5,2.7
454.0,54.4,54.6,51.3,53.4,1.9
456.0,53.9,53.9,50.8,52.9,1.8
458.0,53.1,53.5,50.9,52.5,1.4
460.0,52.4,52.3,50.5,51.7,1.1
462.0,51.7,53.0,50.5,51.7,1.2
464.0,50.6,53.3,50.4,51.4,1.6
466.0,50.6,52.4,50.3,51.1,1.2
468.0,51.7,51.3,49.6,50.9,1.2
470.0,51.7,51.3,49.7,50.9,1.0
472.0,51.6,50.8,48.1,50.2,1.8
474.0,51.5,50.1,48.5,50.0,1.5
476.0,50.8,49.7,48.7,49.8,1.0
478.0,50.6,51.5,48.4,50.1,1.6
480.0,50.6,50.1,49.1,49.9,0.7
482.0,50.4,50.3,49.3,50.0,0.6
484.0,51.4,49.6,50.5,50.5,0.9
486.0,50.6,49.5,50.3,50.1,0.5
488.0,50.3,49.9,50.1,50.1,0.2
490.0,50.9,49.4,50.7,50.4,0.8
492.0,49.0,48.3,50.4,49.2,1.1
494.0,49.4,48.5,51.2,49.7,1.4
496.0,49.3,46.7,50.5,48.8,1.9
498.0,49.3,,49.7,49.5,0.3
500.0,49.3,,50.2,49.8,0.7
502.0,49.2,,49.5,49.3,0.2
504.0,49.1,,49.2,49.1,0.0
506.0,48.3,,48.6,48.4,0.2
508.0,48.1,,47.5,47.8,0.5
510.0,48.3,,46.7,47.5,1.2
512.0,47.5,,46.8,47.2,0.5
514.0,47.7,,46.2,47.0,1.0
516.0,48.1,,47.0,47.6,0.8
518.0,46.9,,46.8,46.9,0.1
520.0,46.7,,46.2,46.4,0.4
522.0,45.3,,46.6,45.9,0.9
524.0,45.8,,46.0,45.9,0.1
526.0,45.5,,46.1,45.8,0.4
528.0,44.5,,46.6,45.6,1.5
530.0,45.3,,46.4,45.8,0.8
532.0,45.1,,46.8,46.0,1.2
534.0,44.9,,46.5,45.7,1.1
536.0,45.4,,46.7,46.1,1.0
538.0,44.9,,47.7,46.3,2.0
540.0,44.9,,47.4,46.2,1.8
542.0,44.2,,47.7,45.9,2.5
544.0,43.3,,47.5,45.4,3.0
544.25,43.2,,47.3,45.2,2.9