File: 01_Data/Homasote/Cone/Homasote_Cone_HF75Scan_230608_R2.csv
Names,Time,Stack TC,Smoke TC,Exh Press,Smoke Comp,Smoke Meas,CO Meter,CO2 Meter,O2 Meter,Sample Mass,Ext Coeff,Start Test,Flame Verif
Chan Gain,,500,500,1,1,1,1,1,1,1,1,1.0,1.0
Offset,,0,0,0.143883,0,0,0,0,0,0,0,0.0,0.0
Gain,,1,1,25.011,13.1415,13.798,1,1,1,1.00094,1.03262,1.0,1.0
Units,sec,C,C,Pa,%,%,%,%,%,g,/m,,
Baseline,,48.6505,49.5936,149.389,99.9255,99.8791,0.000774044,0.0587415,20.9461,-446.898,0.00420466,,
26,6.25,47.7514,47.1386,128.802,98.6917,97.4739,0.000411589,0.0698762,20.9267,108.082,0.112463,0.0,1.0
52,12.75,54.7091,52.057,126.221,98.6973,91.6457,0.00106713,0.123195,20.9303,106.68,0.671448,0.0,0.0
78,19.25,60.2877,57.1297,132.775,98.6985,91.5156,0.00299785,0.545187,20.5844,105.539,0.684427,0.0,0.0
104,25.75,63.6916,60.5154,134.326,98.743,92.6395,0.00547697,0.596697,20.3147,104.368,0.577951,0.0,0.0
130,32.25,65.8067,62.7847,136.123,98.8449,93.5941,0.00621186,0.521344,20.358,103.397,0.494431,0.0,0.0
156,38.75,66.3734,64.8663,137.21,98.9933,94.4257,0.00549702,0.46178,20.4328,102.516,0.427888,0.0,0.0
182,45.25,67.4491,66.3022,138.89,99.1962,95.8945,0.00492418,0.416063,20.4969,101.726,0.30663,0.0,0.0
208,51.75,67.2897,66.5669,137.294,99.4593,96.3715,0.00421019,0.385598,20.5447,100.895,0.285668,0.0,0.0
234,58.25,67.6961,67.858,141.318,99.6494,97.0061,0.00407891,0.36997,20.575,100.104,0.243516,0.0,0.0
260,64.75,68.0822,68.8531,139.433,99.7661,97.4929,0.00362442,0.353148,20.5876,99.4034,0.208779,0.0,0.0
286,71.25,67.8212,69.1659,139.078,99.8547,98.2037,0.00338746,0.34004,20.6089,98.6227,0.151024,0.0,0.0
312,77.75,68.4815,70.1876,136.859,99.8904,98.5292,0.00298834,0.330161,20.6213,97.962,0.124287,0.0,0.0
338,84.25,68.2558,69.9899,141.666,99.9365,98.797,0.00314335,0.321293,20.6353,97.2814,0.103881,0.0,0.0
364,90.75,68.1696,69.8244,142.14,99.9341,99.1044,0.00260607,0.320548,20.639,96.5407,0.0755241,0.0,0.0
390,97.25,68.0779,70.681,136.403,99.9566,98.8863,0.00237602,0.315969,20.6424,95.9001,0.097517,0.0,0.0
416,103.75,68.3267,70.79,135.927,99.9522,99.2134,0.00238932,0.309225,20.6499,95.2195,0.0671978,0.0,0.0
442,110.25,68.3291,70.6366,137.876,99.9514,99.2315,0.00247878,0.304729,20.6551,94.5688,0.065472,0.0,0.0
468,116.75,68.1724,70.7327,135.007,99.959,99.5726,0.00188824,0.301114,20.6609,93.9583,0.0350817,0.0,0.0
494,123.25,68.4204,70.9202,137.677,99.965,99.4261,0.00205921,0.297389,20.6629,93.2776,0.0489671,0.0,0.0
520,129.75,68.1332,70.767,134.457,99.9919,99.6223,0.00202768,0.293096,20.6705,92.647,0.0335413,0.0,0.0
546,136.25,67.8473,71.0193,139.262,99.9883,99.752,0.00222973,0.29514,20.6716,91.9964,0.0214303,0.0,0.0
572,142.75,68.5495,70.9082,133.412,99.9919,99.6122,0.00193445,0.291172,20.6712,91.3658,0.034461,0.0,0.0
598,149.25,68.2272,71.1239,136.726,99.9979,99.6678,0.00212498,0.292173,20.6757,90.7453,0.0299538,0.0,0.0
624,155.75,68.2903,71.7087,138.213,99.9959,99.8918,0.00225489,0.293324,20.674,90.1447,0.00943471,0.0,0.0
650,162.25,68.5838,71.5404,140.84,100.013,99.7192,0.00212545,0.291336,20.6754,89.5041,0.0266653,0.0,0.0
676,168.75,68.7868,71.9327,140.118,100.01,99.7608,0.00191483,0.294786,20.6731,88.8735,0.0225527,0.0,0.0
702,175.25,69.1458,71.9271,136.553,100.01,99.6897,0.00188764,0.296099,20.6705,88.2329,0.0290174,0.0,0.0
728,181.75,69.0494,72.0599,136.236,100.02,99.7406,0.00226036,0.299747,20.6682,87.6624,0.0253323,0.0,0.0
754,188.25,69.0915,71.9873,138.163,100.017,99.4716,0.00188774,0.301143,20.6644,86.9917,0.049547,0.0,0.0
780,194.75,69.2253,72.2458,135.759,100.043,99.5482,0.00181961,0.302,20.6641,86.4412,0.0449323,0.0,0.0
806,201.25,69.7564,72.8528,141.703,100.011,99.4088,0.00209849,0.301936,20.6657,85.7906,0.0547175,0.0,0.0
832,207.75,69.8013,72.1867,134.505,100.023,99.3465,0.0020282,0.302767,20.6653,85.2,0.0614875,0.0,0.0
858,214.25,69.635,72.2908,137.11,100.014,99.1945,0.00218525,0.301745,20.6673,84.5895,0.0745229,0.0,0.0
884,220.75,69.2936,72.9369,139.203,100.026,99.1393,0.00202761,0.302413,20.6684,84.0189,0.0806873,0.0,0.0
910,227.25,70.071,73.1655,137.039,100.027,99.0635,0.00170492,0.302959,20.6667,83.3583,0.0876507,0.0,0.0
936,233.75,69.8968,73.0194,138.985,100.019,98.9705,0.00203997,0.306382,20.6657,82.7678,0.0954743,0.0,0.0
962,240.25,70.3974,73.1069,134.294,100.017,98.9376,0.00227191,0.303563,20.665,82.1572,0.098299,0.0,0.0
988,246.75,70.1838,73.5956,132.694,100.008,98.8054,0.00223677,0.30562,20.6661,81.5666,0.109613,0.0,0.0
1014,253.25,70.8178,73.6929,136.434,100.01,98.6513,0.00192866,0.306876,20.6609,80.9961,0.123862,0.0,0.0
1040,259.75,70.776,73.2003,141.144,100.002,98.8227,0.00213706,0.308079,20.6614,80.3655,0.107413,0.0,0.0
1066,266.25,71.152,73.6891,138.9,99.9626,98.5751,0.00212304,0.309042,20.6589,79.805,0.126612,0.0,0.0
1092,272.75,71.245,73.9142,140.141,99.9285,98.4618,0.00231688,0.310441,20.6578,79.2044,0.133937,0.0,0.0
1118,279.25,71.4018,74.1296,140.77,99.8499,98.3814,0.00208131,0.311717,20.6538,78.6038,0.134211,0.0,0.0
1144,285.75,71.8799,74.2711,138.681,99.7529,98.0041,0.00153536,0.311255,20.653,77.9833,0.160207,0.0,0.0
1170,292.25,71.6795,74.2308,137.999,99.6229,98.1936,0.00216397,0.314291,20.6517,77.4327,0.130903,0.0,0.0
1196,298.75,72.0363,74.7577,137.71,99.4649,98.175,0.00228219,0.313433,20.6511,76.8022,0.118234,0.0,0.0
1222,305.25,71.7839,74.5993,135.889,99.331,97.7236,0.00224949,0.315487,20.6506,76.2216,0.147772,0.0,0.0
1248,311.75,72.3376,74.3672,136.442,99.0947,97.3165,0.00203565,0.317931,20.6496,75.6511,0.164027,0.0,0.0
1274,318.25,71.9551,74.4766,132.347,98.9139,97.3135,0.00231354,0.317509,20.6453,75.0505,0.147752,0.0,0.0
1300,324.75,72.4404,74.8031,136.474,98.7061,97.3977,0.00230381,0.319239,20.643,74.51,0.120874,0.0,0.0
1326,331.25,72.3059,75.1296,134.596,98.5938,97.007,0.00241146,0.320471,20.6413,73.8994,0.146977,0.0,0.0
1352,337.75,72.6164,74.8895,139.045,98.5265,96.8057,0.00231099,0.31599,20.6437,73.3889,0.159599,0.0,0.0
1378,344.25,72.5356,74.9599,134.385,98.4799,96.9653,0.00211264,0.31798,20.6425,72.8284,0.1404,0.0,0.0
1404,350.75,72.5811,75.023,135.236,98.4936,96.7076,0.00200461,0.315056,20.6424,72.3079,0.16576,0.0,0.0
1430,357.25,71.8987,74.6846,135.075,98.4964,96.7682,0.0024384,0.315736,20.6423,71.7274,0.160341,0.0,0.0
1456,363.75,72.3473,75.2415,133.138,98.5209,96.5669,0.00239647,0.314678,20.643,71.1568,0.181451,0.0,0.0
1482,370.25,71.7559,74.8943,138.722,98.5289,96.7762,0.00189057,0.310812,20.6475,70.6063,0.162578,0.0,0.0
1508,376.75,72.2552,75.2288,138.187,98.5437,96.9926,0.00234437,0.306531,20.6505,70.1059,0.143707,0.0,0.0
1534,383.25,72.0923,74.7181,138.847,98.573,97.0996,0.0023274,0.304276,20.6536,69.5954,0.136415,0.0,0.0
1560,389.75,71.6408,74.5738,137.928,98.5606,96.9181,0.00227593,0.296021,20.6623,69.165,0.152218,0.0,0.0
1586,396.25,71.0562,74.4317,139.635,98.5505,96.8347,0.00211952,0.285981,20.6713,68.6945,0.159092,0.0,0.0
1612,402.75,70.9093,73.567,138.518,98.5509,97.1615,0.0020453,0.27507,20.6855,68.3542,0.128615,0.0,0.0
1638,409.25,69.8766,72.942,145.087,98.5289,97.4849,0.00227788,0.261777,20.7042,67.9038,0.0964893,0.0,0.0
1664,415.75,69.232,72.4612,141.104,98.5112,97.3624,0.00214521,0.24791,20.718,67.6435,0.10626,0.0,0.0
1690,422.25,67.8525,71.7316,139.889,98.4908,97.5902,0.00172862,0.228512,20.7378,67.4033,0.0832095,0.0,0.0
1716,428.75,66.605,70.3551,140.607,98.506,98.1169,0.00192846,0.20746,20.7607,67.1731,0.0358486,0.0,0.0
1742,435.25,66.0051,69.849,143.282,98.4651,98.3847,0.00203958,0.184947,20.7843,67.043,0.00739578,0.0,0.0
1768,441.75,64.8661,68.3913,140.947,98.4563,98.4719,0.00203137,0.168052,20.8053,66.9629,-0.00143679,0.0,0.0
1794,448.25,63.5426,67.2661,143.599,98.4803,98.6715,0.00213411,0.158435,20.8186,66.7627,-0.0175649,0.0,0.0
1820,454.75,62.6022,65.9576,142.104,98.5012,98.6083,0.00223398,0.151866,20.8287,66.7127,-0.00984612,0.0,0.0
1846,461.25,62.0882,65.7173,143.921,98.5662,98.5885,0.00268233,0.148608,20.8369,66.6126,-0.00205564,0.0,0.0
1872,467.75,61.1015,64.6307,143.586,98.6817,98.7334,0.00317242,0.146134,20.8382,66.4624,-0.00474589,0.0,0.0
1898,474.25,60.5938,63.7438,146.224,98.8265,98.8749,0.00343437,0.145069,20.8403,66.3223,-0.00443745,0.0,0.0
1924,480.75,59.9109,63.0932,143.207,99.0073,99.1208,0.00330073,0.145325,20.8431,66.2322,-0.0103753,0.0,0.0
1950,487.25,59.2322,62.4275,147.286,99.1758,99.3002,0.00335008,0.143942,20.844,66.1822,-0.0113558,0.0,0.0
1976,493.75,59.0893,61.7285,144.688,99.3743,99.4417,0.00325319,0.143058,20.8453,66.0821,-0.00613913,0.0,0.0
2002,500.25,57.9059,60.5991,147.148,99.5319,99.6779,0.00290472,0.141318,20.8509,65.982,-0.0132767,0.0,0.0
2028,506.75,56.5069,59.6899,143.088,99.6991,99.7743,0.00329469,0.144022,20.8467,65.9019,-0.00682854,0.0,0.0
2054,513.25,56.3822,58.5402,143.615,99.803,99.8876,0.00327017,0.141457,20.8501,65.7017,-0.00767362,0.0,0.0
2080,519.75,56.1288,58.6596,143.707,99.8571,100.017,0.00327047,0.140875,20.85,65.6617,-0.0144766,0.0,0.0
2106,526.25,56.4554,58.1978,146.834,99.9001,100.059,0.00328461,0.14048,20.8517,65.6016,-0.0144355,0.0,0.0
2132,532.75,56.1021,57.4635,143.897,99.9141,100.067,0.00336426,0.140619,20.8513,65.4615,-0.0138877,0.0,0.0
2158,539.25,55.7303,57.5388,141.985,99.9233,100.084,0.00342613,0.14125,20.8502,65.3514,-0.0145755,0.0,0.0
2184,545.75,55.3764,57.4442,145.359,99.9117,100.035,0.00373428,0.140158,20.8515,65.2813,-0.011132,0.0,0.0
2210,552.25,55.1819,57.3374,149.082,99.9225,100.067,0.00373289,0.140766,20.8533,65.1612,-0.0131242,0.0,0.0
2236,558.75,55.2785,56.6378,146.45,99.9273,100.056,0.0035769,0.139974,20.852,65.0611,-0.0116202,0.0,0.0
2262,565.25,55.3546,56.5717,147.598,99.941,99.9491,0.00397855,0.13825,20.8529,64.941,-0.000734835,0.0,0.0
2288,571.75,55.0159,56.2525,144.597,99.9694,100.029,0.00379868,0.137691,20.8541,64.881,-0.00544006,0.0,0.0
2314,578.25,54.847,56.2674,150.559,99.9666,100.068,0.00382005,0.137197,20.8543,64.8009,-0.00916405,0.0,0.0
2340,584.75,54.7696,56.421,145.883,99.9983,100.11,0.00397058,0.136955,20.8554,64.7508,-0.0101423,0.0,0.0
2366,591.25,54.3184,55.6593,146.086,99.9983,100.08,0.0039577,0.136751,20.8534,64.5807,-0.00739858,0.0,0.0
2392,597.75,54.7713,56.4879,146.582,99.9887,100.12,0.00412825,0.136574,20.8567,64.5406,-0.0119283,0.0,0.0
2418,604.25,54.6797,55.3005,141.476,99.9927,99.9604,0.00411448,0.135922,20.857,64.4606,0.00292255,0.0,0.0
2444,610.75,54.5466,55.8355,145.083,99.9662,100.087,0.00393977,0.135016,20.8572,64.3304,-0.0109153,0.0,0.0
2470,617.25,54.3102,55.6868,143.482,99.9353,99.9676,0.0039497,0.134664,20.8579,64.2704,-0.00292242,0.0,0.0
2481,620,54.0902,55.4654,142.453,99.9281,99.9604,0.00391663,0.135314,20.8596,64.2403,-0.00292836,0.0,0.0