File: 01_Data/Homasote/Cone/Homasote_Cone_HF25Scan_230608_R1.csv
Names,Time,Stack TC,Smoke TC,Exh Press,Smoke Comp,Smoke Meas,CO Meter,CO2 Meter,O2 Meter,Sample Mass,Ext Coeff,Start Test,Flame Verif
Chan Gain,,500,500,1,1,1,1,1,1,1,1,1.0,1.0
Offset,,0,0,0.143883,0,0,0,0,0,0,0,0.0,0.0
Gain,,1,1,25.011,13.2469,13.9074,1,1,1,1.00094,1.03262,1.0,1.0
Units,sec,C,C,Pa,%,%,%,%,%,g,/m,,
Baseline,,25.8621,26.1808,160.57,99.9998,99.7699,0.00127936,0.0514241,20.9554,-444.683,0.0208557,,
45,11,23.7388,23.293,160.481,99.7529,99.4547,0.0014067,0.074883,20.9266,105.599,0.0271099,0.0,0.0
90,22.25,23.4614,23.4629,160.316,99.7953,99.0749,0.00151023,0.0692443,20.9243,105.459,0.0656274,0.0,0.0
135,33.5,23.5332,23.5637,161.177,99.7977,98.746,0.00139865,0.0594314,20.9462,105.319,0.0959701,0.0,0.0
180,44.75,23.9622,23.8025,162.269,99.7896,98.0775,0.00119794,0.0569079,20.9519,105.109,0.156762,0.0,0.0
225,56,23.905,24.0297,159.235,99.7949,96.4974,0.00197484,0.0587034,20.9485,104.879,0.30436,0.0,0.0
270,67.25,27.75,25.2234,147.595,99.7949,99.2302,0.00331468,0.0729873,20.941,103.607,0.0513993,0.0,0.0
315,78.5,33.1409,30.0146,149.178,99.8103,98.4599,0.00352631,0.357613,20.6441,102.336,0.123385,0.0,0.0
360,89.75,35.5529,33.06,150.598,99.8022,98.4378,0.0035409,0.327196,20.6311,101.315,0.124682,0.0,0.0
405,101,36.3034,34.3797,153.304,99.8139,98.8788,0.00354262,0.293168,20.6716,100.304,0.0852582,0.0,0.0
450,112.25,36.8512,36.4788,149.996,99.8272,98.8843,0.00346634,0.258764,20.7105,99.3934,0.0859641,0.0,0.0
495,123.5,37.1065,36.6982,154.829,99.7905,99.4539,0.00336694,0.240488,20.7364,98.5025,0.0306006,0.0,0.0
540,134.75,36.5804,37.3833,154.681,99.7149,99.6249,0.0032752,0.227477,20.7513,97.7218,0.00817149,0.0,0.0
585,146,36.5919,37.5162,153.234,99.5281,99.4335,0.00361401,0.216565,20.7627,96.901,0.00861056,0.0,0.0
630,157.25,35.9364,37.7482,156.656,99.3454,99.2773,0.00393321,0.20758,20.7728,96.0803,0.00620458,0.0,0.0
675,168.5,35.6912,37.1269,154.269,99.2447,99.1576,0.00412999,0.189741,20.7882,95.3496,0.00794817,0.0,0.0
720,179.75,34.9883,36.3195,155.094,99.4852,99.4123,0.00526655,0.180814,20.8045,94.6189,0.00664266,0.0,0.0
765,191,34.9784,35.9689,157.849,99.8717,99.827,0.00543526,0.172045,20.8139,93.9583,0.00406022,0.0,0.0
810,202.25,34.4864,35.8739,155.169,100.032,99.8983,0.00571101,0.16942,20.8159,93.2676,0.0120997,0.0,0.0
855,213.5,33.7627,35.2156,156.504,99.8661,99.7523,0.00658042,0.166539,20.8265,92.647,0.0103267,0.0,0.0
900,224.75,33.7749,35.0252,154.515,99.613,99.467,0.00712483,0.162961,20.8275,91.9063,0.0132805,0.0,0.0
945,236,32.7828,34.6436,152.573,99.7945,99.6788,0.00746348,0.158459,20.8318,91.2958,0.0105047,0.0,0.0
990,247.25,32.2437,34.0541,152.245,99.9906,99.8452,0.00963166,0.152751,20.842,90.6351,0.013177,0.0,0.0
1035,258.5,32.5498,33.7458,153.68,100.155,100.013,0.00916006,0.151131,20.8379,90.0546,0.0128351,0.0,0.0
1080,269.75,31.9757,33.5397,161.094,100.323,100.07,0.0100569,0.149395,20.8472,89.384,0.0228457,0.0,0.0
1125,281,32.1332,33.551,157.53,100.451,100.263,0.00957046,0.152869,20.8386,88.8234,0.0170211,0.0,0.0
1170,292.25,32.3499,33.4876,152.009,100.482,100.444,0.00918255,0.152616,20.8387,88.2429,0.00335864,0.0,0.0
1215,303.5,32.1262,33.2761,158.84,100.401,100.291,0.00725159,0.160295,20.8273,87.6724,0.00993089,0.0,0.0
1260,314.75,32.626,33.4469,153.726,100.183,100.139,0.00681963,0.163725,20.8232,87.0918,0.00398683,0.0,0.0
1305,326,32.6459,33.866,153.15,99.8479,99.8151,0.00631443,0.163609,20.8236,86.5013,0.00297437,0.0,0.0
1350,337.25,32.7883,33.6136,156.236,99.4557,99.4255,0.00606528,0.165783,20.8216,85.9007,0.00275739,0.0,0.0
1395,348.5,33.5094,33.9941,154.728,99.0765,99.0524,0.00525156,0.168501,20.8189,85.3802,0.00220685,0.0,0.0
1440,359.75,33.4246,33.7693,154.837,98.8097,98.7298,0.00416787,0.172484,20.8179,84.7796,0.00732457,0.0,0.0
1485,371,34.1851,34.2784,153.078,98.7046,98.6526,0.0038781,0.176623,20.8125,84.1691,0.00477363,0.0,0.0
1530,382.25,34.2224,34.5759,157.362,98.8594,98.8113,0.0036191,0.185321,20.8024,83.5685,0.00440992,0.0,0.0
1575,393.5,34.4221,35.0027,155.547,99.1594,99.0677,0.00331406,0.189857,20.7985,82.978,0.00838186,0.0,0.0
1620,404.75,35.1661,35.5238,157.188,99.4824,99.3864,0.0030886,0.198936,20.7909,82.2573,0.00874433,0.0,0.0
1665,416,35.7588,36.379,150.181,99.763,99.5766,0.00323364,0.212421,20.7739,81.6167,0.0169414,0.0,0.0
1710,427.25,36.9074,36.9194,150.529,99.8956,99.5927,0.00271511,0.224509,20.7622,80.866,0.0275061,0.0,0.0
1755,438.5,37.3263,36.9572,153.86,99.9206,99.344,0.00200691,0.231939,20.7524,80.0352,0.0524268,0.0,0.0
1800,449.75,38.532,38.502,149.297,99.7888,99.0774,0.00247369,0.248564,20.7303,79.2545,0.0648062,0.0,0.0
1845,461,39.779,39.3073,151.823,99.5786,98.3534,0.00254456,0.265018,20.7134,78.3536,0.112144,0.0,0.0
1890,472.25,40.7949,40.5587,151.37,99.3733,98.038,0.00295657,0.275361,20.6978,77.3927,0.122534,0.0,0.0
1935,483.5,41.6612,41.6552,148.969,99.2358,97.7286,0.00312499,0.286216,20.6835,76.3317,0.138628,0.0,0.0
1980,494.75,42.4607,42.0993,147.099,99.5244,97.4931,0.00315642,0.296275,20.6715,75.3408,0.186795,0.0,0.0
2025,506,43.0239,43.3119,149.531,99.8798,97.5262,0.00322836,0.303319,20.6615,74.4099,0.216003,0.0,0.0
2070,517.25,43.3612,44.177,148.694,99.9881,97.9795,0.00370413,0.301865,20.6565,73.3789,0.183821,0.0,0.0
2115,528.5,43.8029,44.2173,151.003,100.006,98.3992,0.00322643,0.294866,20.6625,72.418,0.146674,0.0,0.0
2160,539.75,43.6306,44.7697,148.125,99.8018,97.9502,0.00293271,0.291296,20.6747,71.5172,0.16963,0.0,0.0
2205,551,43.6852,44.8943,150.737,99.6837,97.7371,0.0027292,0.285449,20.6813,70.6464,0.178634,0.0,0.0
2250,562.25,44.0991,45.6773,150.181,99.9142,98.0546,0.0026631,0.28164,20.6836,69.6254,0.170174,0.0,0.0
2295,573.5,43.5132,44.8178,150.147,100.075,97.9039,0.00306195,0.275484,20.688,68.9147,0.198641,0.0,0.0
2340,584.75,42.9362,44.8091,147.436,100.184,97.8148,0.00338506,0.268062,20.6957,68.084,0.216766,0.0,0.0
2385,596,42.2074,44.3994,151.594,100.212,97.4396,0.00369585,0.251847,20.7101,67.4133,0.254134,0.0,0.0
2430,607.25,41.0704,43.4467,156.045,100.151,98.2973,0.00471154,0.224391,20.737,66.9129,0.169227,0.0,0.0
2475,618.5,39.2426,41.9141,153.76,99.9869,99.1233,0.00650583,0.190988,20.7754,66.4424,0.0785798,0.0,0.0
2520,629.75,38.3732,40.8631,155.002,99.7496,99.5766,0.00816009,0.173871,20.7926,66.052,0.0157288,0.0,0.0
2565,641,36.7705,39.4125,156.539,99.5649,99.4811,0.00933035,0.153498,20.8153,65.8719,0.00762883,0.0,0.0
2610,652.25,35.0467,37.5469,156.346,99.8656,99.7998,0.0107855,0.136477,20.8377,65.6116,0.00597473,0.0,0.0
2655,663.5,33.734,36.3561,154.305,99.9853,99.9246,0.0135834,0.131094,20.8549,65.3814,0.00550316,0.0,0.0
2700,674.75,32.3774,34.7955,157.539,99.9845,99.9513,0.0147895,0.124723,20.8529,65.1312,0.00300675,0.0,0.0
2745,686,31.738,33.9559,151.328,99.9679,99.925,0.0150453,0.120916,20.8632,64.931,0.00389077,0.0,0.0
2790,697.25,31.3631,33.3363,155.225,99.9914,99.9017,0.0139645,0.116439,20.8678,64.7608,0.0081305,0.0,0.0
2835,708.5,30.8625,32.6588,156.99,99.9922,99.8787,0.0141345,0.117272,20.8668,64.6107,0.0102825,0.0,0.0
2880,719.75,30.6866,32.0628,157.723,99.9109,99.8393,0.0141507,0.119492,20.8664,64.4305,0.00649915,0.0,0.0
2925,731,30.8127,31.5326,157.852,99.6801,99.5897,0.0133489,0.126277,20.8617,64.3004,0.0082168,0.0,0.0
2970,742.25,30.2542,31.1843,159.096,99.6591,99.5574,0.0128121,0.12171,20.8614,64.1403,0.00924055,0.0,0.0
3015,753.5,29.9735,30.8932,154.226,99.828,99.765,0.0128487,0.120763,20.8609,63.9901,0.0057233,0.0,0.0
3060,764.75,29.4574,30.4846,155.738,99.9372,99.8499,0.0122608,0.115767,20.8682,63.82,0.00791796,0.0,0.0
3105,776,29.3182,30.1071,156.986,99.9663,99.8775,0.0122338,0.115623,20.8675,63.6998,0.0080539,0.0,0.0
3150,787.25,29.1163,29.6121,154.956,99.9477,99.8236,0.0121035,0.110814,20.8739,63.5597,0.0112575,0.0,0.0
3195,798.5,28.9096,29.8575,156.915,99.8693,99.7357,0.0126219,0.10654,20.8777,63.3795,0.0121235,0.0,0.0
3240,809.75,28.8236,29.3135,158.21,99.7751,99.6258,0.0133388,0.102888,20.8834,63.2694,0.0135651,0.0,0.0
3285,821,28.5937,28.7405,152.866,99.6724,99.5515,0.0137111,0.102466,20.8867,63.2194,0.0109943,0.0,0.0
3330,832.25,28.6678,28.9854,158.887,99.6122,99.5091,0.0140203,0.102925,20.8861,63.0492,0.00938078,0.0,0.0
3375,843.5,28.2552,28.886,155.424,99.6029,99.5086,0.0137873,0.100768,20.8861,62.9191,0.00857389,0.0,0.0
3420,854.75,27.882,28.2044,159.321,99.6534,99.4861,0.0141914,0.10147,20.8836,62.819,0.0152157,0.0,0.0
3465,866,27.9503,28.2469,154.827,99.7949,99.6979,0.0141109,0.100057,20.8853,62.7089,0.00880474,0.0,0.0
3510,877.25,28.3325,28.5852,159.435,99.8988,99.7349,0.0136447,0.101967,20.8846,62.6288,0.0148772,0.0,0.0
3555,888.5,27.7884,28.5074,159.628,100.024,99.9012,0.0140029,0.102196,20.8824,62.5287,0.011099,0.0,0.0
3600,899.75,27.6226,27.5438,160.838,100.193,100.04,0.014567,0.098826,20.8869,62.4186,0.013812,0.0,0.0
3645,911,27.7813,28.1325,156.555,100.28,100.178,0.0144872,0.0968677,20.8885,62.3386,0.00922221,0.0,0.0
3690,922.25,27.3639,28.1467,157.217,100.342,100.188,0.0146774,0.0960596,20.8909,62.2385,0.0139629,0.0,0.0
3735,933.5,27.4635,27.4529,162.545,100.371,100.195,0.0144775,0.095484,20.8927,62.1083,0.0159368,0.0,0.0
3780,944.75,27.2476,27.7398,161.599,100.399,100.287,0.0145923,0.0937138,20.8936,61.9882,0.0100938,0.0,0.0
3825,956,25.3609,26.1441,155.806,100.431,100.332,0.0149708,0.0912079,20.8975,61.8681,0.00891477,0.0,0.0
3870,967.25,25.9395,25.941,158.618,100.472,100.299,0.013922,0.0907071,20.9004,61.8281,0.0155854,0.0,0.0
3915,978.5,25.2625,25.6776,156.304,100.498,100.39,0.0138606,0.0906611,20.9006,61.758,0.00968065,0.0,0.0
3960,989.75,25.7813,25.7419,160.925,100.448,100.341,0.0137367,0.0914941,20.9011,61.5178,0.00967741,0.0,0.0
4005,1001,25.4996,25.6496,159.448,100.317,100.212,0.0135164,0.0921064,20.8971,61.5578,0.00951346,0.0,0.0
4050,1012.25,25.8918,26.1509,157.128,100.099,100.027,0.0132294,0.0918621,20.8979,61.4778,0.00652074,0.0,0.0
4095,1023.5,25.6386,25.9977,156.556,99.8175,99.644,0.012808,0.0914746,20.8977,61.4177,0.0157579,0.0,0.0
4140,1034.75,25.3367,25.1533,156.407,99.5956,99.4174,0.0122436,0.0884193,20.9027,61.3376,0.0162224,0.0,0.0
4185,1046,25.2038,25.4099,156.943,99.423,99.2981,0.0122558,0.0884789,20.9049,61.2075,0.0113804,0.0,0.0
4230,1057.25,25.2844,25.4284,159.196,99.2734,99.136,0.0117284,0.0878937,20.9045,61.1374,0.0125451,0.0,0.0
4275,1068.5,25.4228,25.5273,159.48,99.028,98.8656,0.0115533,0.0865806,20.9077,61.0674,0.0148631,0.0,0.0
4291,1072.5,25.1098,25.5128,158.328,98.9342,98.8512,0.0115808,0.0866671,20.909,61.0474,0.00760185,0.0,0.0