File: 01_Data/Homasote/Cone/Homasote_Cone_HF25Scan_230608_R3.csv
Names,Time,Stack TC,Smoke TC,Exh Press,Smoke Comp,Smoke Meas,CO Meter,CO2 Meter,O2 Meter,Sample Mass,Ext Coeff,Start Test,Flame Verif
Chan Gain,,500,500,1,1,1,1,1,1,1,1,1.0,1.0
Offset,,0,0,0.143883,0,0,0,0,0,0,0,0.0,0.0
Gain,,1,1,25.011,13.3637,14.0881,1,1,1,1.00094,1.03262,1.0,1.0
Units,sec,C,C,Pa,%,%,%,%,%,g,/m,,
Baseline,,27.6485,27.9908,159.872,99.72,99.7139,0.000820082,0.0575576,20.9452,-445.443,0.00055988,,
14,3.25,24.9083,25.8695,158.947,101.045,101.052,0.000842989,0.0605887,20.9424,108.632,-0.000668422,0.0,0.0
28,6.75,25.3911,25.4748,155.179,100.932,100.932,0.000753196,0.062828,20.9406,108.582,3.13142e-05,0.0,0.0
42,10.25,25.4061,25.8561,161.613,100.828,100.695,0.000871046,0.0629757,20.9389,108.532,0.0119045,0.0,0.0
56,13.75,25.4421,25.9606,162.813,100.747,100.308,0.000902044,0.0620023,20.9384,108.452,0.0395219,0.0,0.0
70,17.25,25.5117,26.0713,157.526,100.688,100.007,0.000945093,0.0616605,20.9393,108.382,0.0615325,0.0,0.0
84,20.75,25.2836,26.0865,157.632,100.604,100.038,0.00116088,0.061815,20.9403,108.322,0.0510557,0.0,0.0
98,24.25,25.6084,26.0781,158.239,100.561,99.7355,0.00114668,0.0608685,20.9406,108.302,0.0746835,0.0,0.0
112,27.75,25.603,25.977,157.413,100.506,99.6973,0.00104473,0.0618851,20.9421,108.082,0.0731616,0.0,0.0
126,31.25,25.9295,26.0967,160.825,100.492,99.5266,0.00082224,0.0699328,20.9398,108.172,0.08747,0.0,0.0
140,34.75,25.8334,26.1815,158.633,100.475,99.2334,0.000968373,0.0777481,20.9289,108.072,0.112615,0.0,0.0
154,38.25,25.9748,26.6161,159.567,100.502,99.0502,0.00146363,0.081422,20.9181,108.031,0.131811,0.0,0.0
168,41.75,25.9446,26.317,157.686,100.525,99.0033,0.00158153,0.0801704,20.9132,107.981,0.138119,0.0,0.0
182,45.25,26.6256,26.3855,158.815,100.546,98.3034,0.00181393,0.0776537,20.9143,107.891,0.204331,0.0,0.0
196,48.75,26.0178,26.1531,160.847,100.551,97.26,0.00207416,0.074843,20.9181,107.751,0.301471,0.0,0.0
210,52.25,26.797,26.4414,144.158,100.546,100.657,0.00230297,0.0740467,20.9232,107.371,-0.0100072,0.0,1.0
224,55.75,28.4971,26.8591,141.435,100.55,100.371,0.00252577,0.0754158,20.9273,106.83,0.016202,0.0,1.0
238,59.25,30.089,28.3449,148.544,100.529,99.9195,0.00319235,0.0901687,20.9243,106.43,0.0550845,0.0,0.0
252,62.75,32.7853,29.7751,146.897,100.544,99.8482,0.00356368,0.258846,20.8934,106.11,0.062917,0.0,0.0
266,66.25,34.2311,31.0421,146.591,100.535,99.6199,0.00322576,0.361577,20.7192,105.689,0.0828425,0.0,0.0
280,69.75,34.9717,32.2424,150.945,100.53,99.7536,0.00298617,0.377075,20.6146,105.329,0.0702145,0.0,0.0
294,73.25,35.6766,33.1016,148.095,100.499,99.3138,0.00279929,0.359744,20.5883,105.019,0.107485,0.0,0.0
308,76.75,36.2887,34.3123,148.54,100.495,99.4905,0.00267915,0.334654,20.5984,104.708,0.0909781,0.0,0.0
322,80.25,37.4584,35.0808,149.252,100.481,99.9268,0.0027507,0.315458,20.6299,104.338,0.0500839,0.0,0.0
336,83.75,37.4065,35.4427,150.439,100.49,100.186,0.00299713,0.301551,20.6515,104.098,0.027462,0.0,0.0
350,87.25,37.8018,36.3111,145.315,100.515,99.9655,0.0031256,0.289602,20.6674,103.788,0.0496297,0.0,0.0
364,90.75,38.0624,36.8216,153.945,100.517,100.12,0.00313115,0.277727,20.6818,103.527,0.0358378,0.0,0.0
378,94.25,37.7132,36.5186,150.808,100.562,100.349,0.00277066,0.268056,20.6953,103.287,0.019171,0.0,0.0
392,97.75,37.5424,37.4433,146.94,100.587,100.29,0.00271338,0.262254,20.7048,102.957,0.0268042,0.0,0.0
406,101.25,37.9985,37.4143,147.01,100.644,100.408,0.00260473,0.254779,20.7134,102.686,0.021273,0.0,0.0
420,104.75,38.0027,37.1179,149.127,100.697,100.634,0.00268777,0.249267,20.7215,102.416,0.00562942,0.0,0.0
434,108.25,38.4073,37.8083,151.657,100.77,100.907,0.00273513,0.243883,20.7275,102.206,-0.01231,0.0,0.0
448,111.75,38.5614,38.054,150.439,100.846,100.763,0.00281193,0.238319,20.7325,101.936,0.00740765,0.0,0.0
462,115.25,38.2147,38.1501,153.206,100.941,101.049,0.00298174,0.232884,20.7385,101.655,-0.0096148,0.0,0.0
476,118.75,38.1248,37.9552,152.996,101.034,101.164,0.002983,0.227618,20.7453,101.465,-0.0116353,0.0,0.0
490,122.25,38.0609,38.2846,151.523,101.109,101.216,0.00325204,0.222062,20.7526,101.235,-0.00956724,0.0,0.0
504,125.75,37.9515,37.9905,155.869,101.23,101.386,0.00349872,0.218077,20.7599,101.045,-0.0139056,0.0,0.0
518,129.25,37.7434,38.2404,150.762,101.29,101.483,0.0035622,0.213869,20.7643,100.825,-0.0172219,0.0,0.0
532,132.75,37.7504,38.1843,153.435,101.375,101.514,0.00358399,0.209558,20.768,100.564,-0.0124381,0.0,0.0
546,136.25,37.3261,38.2496,153.126,101.392,101.488,0.00352524,0.205864,20.7729,100.364,-0.00860579,0.0,0.0
560,139.75,37.3652,38.5123,154.282,101.416,101.532,0.00359352,0.203122,20.7781,100.124,-0.0103326,0.0,0.0
574,143.25,37.2045,38.3443,151.406,101.403,101.487,0.00369646,0.200009,20.7803,99.9539,-0.0075434,0.0,0.0
588,146.75,37.1322,38.3351,158.5,101.374,101.522,0.00367,0.196451,20.7819,99.7137,-0.0131642,0.0,0.0
602,150.25,36.9696,38.3408,154.085,101.296,101.379,0.00391254,0.192666,20.785,99.5535,-0.00745586,0.0,0.0
616,153.75,36.8236,38.1214,153.992,101.254,101.379,0.00405029,0.190438,20.7888,99.2933,-0.0111758,0.0,0.0
630,157.25,36.586,38.2579,156.75,101.17,101.334,0.00399949,0.189586,20.7913,99.0831,-0.0147367,0.0,0.0
644,160.75,36.4411,37.6207,152.424,101.102,101.196,0.00429438,0.186475,20.792,98.9029,-0.00841448,0.0,0.0
658,164.25,36.1162,37.9359,153.622,101.038,101.122,0.00449198,0.183704,20.7962,98.6927,-0.00756987,0.0,0.0
672,167.75,36.3164,37.6103,154.538,100.972,101.116,0.00478618,0.181768,20.7997,98.4825,-0.0128826,0.0,0.0
686,171.25,35.483,37.6027,153.834,100.933,101.107,0.00506183,0.180381,20.8016,98.2823,-0.0156615,0.0,0.0
700,174.75,35.444,37.4827,155.037,100.871,100.959,0.00498952,0.178864,20.8039,98.0521,-0.00792813,0.0,0.0
714,178.25,35.9925,37.5496,151.677,100.881,100.949,0.00496527,0.177936,20.8053,97.8619,-0.00605053,0.0,0.0
728,181.75,35.8445,37.441,151.781,100.851,100.923,0.00528186,0.173614,20.8067,97.6718,-0.00640657,0.0,0.0
742,185.25,35.3631,37.2217,149.75,100.85,100.984,0.00558984,0.171078,20.8104,97.4215,-0.012031,0.0,0.0
756,188.75,35.2841,36.8212,155.721,100.816,100.688,0.00569225,0.168923,20.814,97.2914,0.0114969,0.0,0.0
770,192.25,34.913,36.8175,156.912,100.791,100.635,0.00564052,0.164627,20.8179,97.0912,0.0140222,0.0,0.0
784,195.75,34.9567,36.2282,155.955,100.764,100.843,0.00612524,0.159952,20.8231,96.9411,-0.00710572,0.0,0.0
798,199.25,34.5709,36.2834,150.651,100.739,100.61,0.00681514,0.153624,20.8281,96.7309,0.0115724,0.0,0.0
812,202.75,34.6989,36.0534,155.196,100.708,100.424,0.00795527,0.150539,20.8349,96.5107,0.0255994,0.0,0.0
826,206.25,34.0837,36.0121,160.608,100.666,100.583,0.0082934,0.148732,20.8385,96.2804,0.00744541,0.0,0.0
840,209.75,33.5553,35.6637,158.092,100.623,100.308,0.00881801,0.143182,20.841,96.1103,0.028406,0.0,0.0
854,213.25,33.3877,35.6051,156.471,100.57,100.103,0.00970292,0.13734,20.8464,95.9101,0.0421308,0.0,0.0
868,216.75,32.5968,35.3489,155.819,100.51,99.3413,0.0105197,0.135021,20.8532,95.77,0.105931,0.0,0.0
882,220.25,32.771,34.8558,154.377,100.454,99.2527,0.0105863,0.134125,20.8572,95.5798,0.108937,0.0,0.0
896,223.75,30.4217,32.8801,156.885,100.409,99.0128,0.0112199,0.132777,20.8576,95.3996,0.12681,0.0,0.0
910,227.25,30.2521,32.9128,162.437,100.36,99.0855,0.0120767,0.122607,20.8596,95.2595,0.115787,0.0,0.0
924,230.75,30.0928,32.2202,162.125,100.271,99.2639,0.0136222,0.11503,20.8712,95.0493,0.0914634,0.0,0.0
938,234.25,29.6018,31.7301,153.847,100.216,99.0248,0.0148762,0.111513,20.88,94.8591,0.108328,0.0,0.0
952,237.75,29.1423,31.0377,155.955,100.119,99.0132,0.015301,0.111814,20.8839,94.6889,0.100575,0.0,0.0
966,241.25,28.8303,30.9691,156.607,100.056,98.9909,0.0157342,0.111616,20.8835,94.4988,0.0969733,0.0,0.0
980,244.75,29.1037,30.5433,156.09,99.9719,98.7265,0.0156517,0.110976,20.8835,94.2986,0.113555,0.0,0.0
994,248.25,29.1161,30.8696,157.383,99.9018,98.889,0.0156976,0.111492,20.8834,94.1384,0.0922993,0.0,0.0
1008,251.75,28.8567,31.0803,158.11,99.8284,98.8082,0.0156649,0.110922,20.8834,94.0083,0.0930464,0.0,0.0
1022,255.25,28.7919,31.2887,157.444,99.7978,98.7411,0.0155121,0.110393,20.8834,93.8682,0.096422,0.0,0.0
1036,258.75,28.4078,30.3891,158.098,99.7546,98.5425,0.0154873,0.110119,20.8859,93.718,0.110738,0.0,0.0
1050,262.25,28.5681,29.5461,158.733,99.7154,98.6831,0.0159509,0.110467,20.887,93.5379,0.0942669,0.0,0.0
1064,265.75,27.7113,29.1179,154.947,99.6999,98.5012,0.0159428,0.110216,20.8861,93.3577,0.109567,0.0,0.0
1078,269.25,28.0633,29.7731,152.434,99.6954,98.4707,0.0157782,0.110269,20.8858,93.1875,0.111967,0.0,0.0
1092,272.75,28.4031,29.4523,161.532,99.7044,98.527,0.0157528,0.110714,20.8858,93.0174,0.107603,0.0,0.0
1106,276.25,28.1951,29.3729,157.849,99.7036,98.5498,0.0158389,0.110935,20.8858,92.8272,0.105435,0.0,0.0
1120,279.75,27.4362,29.1395,159.013,99.7595,98.6594,0.0161431,0.110757,20.8858,92.6771,0.100438,0.0,0.0
1134,283.25,27.5943,29.0056,156.807,99.7546,98.5566,0.0159231,0.110698,20.8858,92.4969,0.109433,0.0,0.0
1148,286.75,27.2407,28.778,154.528,99.8202,98.659,0.0160175,0.111121,20.885,92.3267,0.105994,0.0,0.0
1162,290.25,27.4168,28.8828,158.015,99.8145,98.699,0.0160281,0.110885,20.8845,92.1566,0.101805,0.0,0.0
1176,293.75,27.3868,28.6925,159.358,99.8378,98.8907,0.0157939,0.1108,20.8851,91.9964,0.0863342,0.0,0.0
1190,297.25,27.5946,28.9288,157.499,99.8634,98.8026,0.0158988,0.113016,20.8861,91.8363,0.0967404,0.0,0.0
1204,300.75,27.0962,28.2344,158.806,99.8655,98.7978,0.0161472,0.113849,20.8826,91.6561,0.0973589,0.0,0.0
1218,304.25,27.0078,28.6891,154.654,99.8626,98.6994,0.0162395,0.113061,20.8815,91.506,0.106131,0.0,0.0
1232,307.75,27.5284,27.7766,153.614,99.8537,98.7282,0.0164032,0.113303,20.8816,91.3258,0.102674,0.0,0.0
1246,311.25,27.5781,28.0926,158.194,99.8557,98.5592,0.0163805,0.111965,20.8814,91.1857,0.118375,0.0,0.0
1260,314.75,27.3745,28.5971,156.015,99.8549,98.7157,0.0162146,0.111585,20.8828,90.9855,0.103931,0.0,0.0
1274,318.25,27.1618,28.1865,156.247,99.8223,98.6491,0.0164069,0.111894,20.8833,90.7953,0.107086,0.0,0.0
1288,321.75,26.8152,27.7706,155.183,99.79,98.4956,0.0165262,0.111149,20.8834,90.6652,0.118266,0.0,0.0
1302,325.25,27.0653,28.1157,158.355,99.7754,98.5769,0.016594,0.110934,20.8834,90.485,0.109464,0.0,0.0
1316,328.75,27.0116,28.4206,155.395,99.7501,98.3959,0.0166799,0.111464,20.8834,90.3549,0.123816,0.0,0.0
1330,332.25,27.2492,27.941,154.257,99.7276,98.3301,0.0167279,0.111478,20.8829,90.1547,0.127836,0.0,0.0
1344,335.75,26.8984,27.6373,163.217,99.706,98.4208,0.0167032,0.111489,20.8828,90.0246,0.11752,0.0,0.0
1358,339.25,26.8094,27.8646,160.485,99.7028,98.214,0.0167654,0.111465,20.8828,89.8444,0.136276,0.0,0.0
1361,340,26.8446,27.4518,154.728,99.7126,98.3391,0.016781,0.111562,20.8828,89.8144,0.125633,0.0,0.0