File: 01_Data/Homasote/Cone/Homasote_Cone_HF25Scan_230608_R2.csv
Names,Time,Stack TC,Smoke TC,Exh Press,Smoke Comp,Smoke Meas,CO Meter,CO2 Meter,O2 Meter,Sample Mass,Ext Coeff,Start Test,Flame Verif
Chan Gain,,500,500,1,1,1,1,1,1,1,1,1.0,1.0
Offset,,0,0,0.143883,0,0,0,0,0,0,0,0.0,0.0
Gain,,1,1,25.011,13.2197,13.9034,1,1,1,1.00094,1.03262,1.0,1.0
Units,sec,C,C,Pa,%,%,%,%,%,g,/m,,
Baseline,,26.5542,26.8144,160.493,99.7215,99.6894,0.00123153,0.0556768,20.947,-445.375,0.00292005,,
34,8.25,23.1323,23.924,156.506,98.5962,98.4458,0.00124378,0.0612691,20.9415,102.787,0.0138303,0.0,0.0
68,16.75,23.9569,24.1547,159.171,98.5607,98.1713,0.00126846,0.059364,20.9413,102.676,0.0358626,0.0,0.0
102,25.25,24.2094,23.9477,161.376,98.5381,97.8331,0.00137113,0.0598132,20.9435,102.536,0.065041,0.0,0.0
136,33.75,24.1395,24.2004,156.837,98.5672,97.5811,0.00140394,0.0564144,20.9455,102.406,0.0910765,0.0,0.0
170,42.25,24.2266,24.3529,163.972,98.5643,97.4393,0.00138982,0.0564453,20.9481,102.276,0.103981,0.0,0.0
204,50.75,24.2658,24.6918,163.023,98.57,96.8721,0.00155357,0.0565265,20.9455,102.096,0.15739,0.0,0.0
238,59.25,26.589,24.8995,146.541,98.5571,98.4432,0.00223837,0.0575625,20.9473,101.285,0.0104691,0.0,0.0
272,67.75,31.8209,28.7063,147.77,98.551,97.9706,0.00290517,0.287692,20.8261,100.334,0.0535089,0.0,0.0
306,76.25,35.0909,31.9619,145.539,98.6478,97.5136,0.0032199,0.345604,20.6268,99.4134,0.104753,0.0,0.0
340,84.75,36.5406,33.8846,152.687,98.8262,97.8734,0.0033303,0.335877,20.6174,98.6126,0.0877502,0.0,0.0
374,93.25,37.3626,35.6672,150.378,99.0815,98.1309,0.00320029,0.303358,20.6465,97.8319,0.0873224,0.0,0.0
408,101.75,37.9642,36.7494,158.543,99.3192,98.6083,0.00374178,0.278642,20.6775,97.1012,0.0650657,0.0,0.0
442,110.25,37.8452,37.1275,153.076,99.493,99.165,0.00331508,0.264144,20.7017,96.4506,0.0299172,0.0,0.0
476,118.75,38.1358,38.1103,152.845,99.65,99.4369,0.00315506,0.249373,20.7176,95.77,0.0193854,0.0,0.0
510,127.25,38.0356,38.2502,157.444,99.7246,99.7339,0.00327624,0.240858,20.7324,95.0993,-0.000848224,0.0,0.0
544,135.75,37.7546,38.3024,151.932,99.748,99.7467,0.00338313,0.231459,20.7419,94.4988,0.000120937,0.0,0.0
578,144.25,37.6449,38.5363,154.231,99.7533,99.9936,0.00345729,0.224318,20.7537,93.8682,-0.0217999,0.0,0.0
612,152.75,37.5317,38.3812,150.096,99.7182,99.882,0.00376825,0.214472,20.7614,93.3077,-0.0148735,0.0,0.0
646,161.25,37.252,38.5759,150.017,99.6467,99.7467,0.00366993,0.204444,20.7743,92.7571,-0.0090792,0.0,0.0
680,169.75,37.1783,38.3733,149.028,99.5681,99.7348,0.00415006,0.193865,20.785,92.1666,-0.0151542,0.0,0.0
714,178.25,35.8851,38.0077,150.96,99.4801,99.5464,0.00462155,0.186288,20.795,91.6161,-0.00603324,0.0,0.0
748,186.75,36.1027,37.9789,156.75,99.4156,99.5944,0.00500774,0.180437,20.8031,91.0255,-0.0162737,0.0,0.0
782,195.25,35.7259,37.4103,154.419,99.3861,99.4811,0.00509756,0.174175,20.8095,90.495,-0.00864794,0.0,0.0
816,203.75,35.1378,36.8922,152.709,99.3809,99.4743,0.00562519,0.170224,20.8152,90.1046,-0.00850797,0.0,0.0
850,212.25,34.7154,36.7004,156.808,99.4386,99.546,0.00592783,0.168439,20.8186,89.6142,-0.00977856,0.0,0.0
884,220.75,34.5964,36.2915,153.019,99.439,99.5638,0.00592203,0.166859,20.8204,89.1237,-0.0113634,0.0,0.0
918,229.25,34.5646,35.9201,160.078,99.4539,99.5044,0.00688194,0.163057,20.8251,88.5432,-0.00459842,0.0,0.0
952,237.75,35.1067,35.8918,154.987,99.4583,99.5973,0.0077196,0.159041,20.8259,88.1028,-0.0126484,0.0,0.0
986,246.25,33.6377,34.9612,157.172,99.4152,99.4331,0.00852288,0.16097,20.8289,87.7124,-0.00163497,0.0,0.0
1020,254.75,33.6068,34.9831,157.554,99.3212,99.42,0.00795531,0.157693,20.8277,87.1919,-0.00900516,0.0,0.0
1054,263.25,33.2959,33.7118,154.959,99.2199,99.3466,0.00778582,0.156332,20.8338,86.7715,-0.0115553,0.0,0.0
1088,271.75,33.5124,33.208,154.29,99.157,99.3211,0.00792205,0.159917,20.8304,86.3011,-0.0149811,0.0,0.0
1122,280.25,33.7322,34.9941,157.433,99.132,99.1777,0.00705266,0.1611,20.8279,85.7706,-0.0041771,0.0,0.0
1156,288.75,33.7978,34.7344,159.445,99.0961,99.207,0.00789172,0.158085,20.8296,85.3402,-0.010132,0.0,0.0
1190,297.25,33.5973,34.8366,153.951,99.1005,99.3572,0.00835784,0.158304,20.8302,84.9098,-0.0234307,0.0,0.0
1224,305.75,33.6145,34.8569,150.204,99.0706,99.1836,0.00828286,0.16041,20.8293,84.4493,-0.010325,0.0,0.0
1258,314.25,33.869,34.6129,152.918,99.0767,99.2171,0.0078568,0.162275,20.8251,83.9489,-0.0128312,0.0,0.0
1292,322.75,33.4996,34.7209,149.13,99.0751,99.2859,0.00713906,0.164293,20.8224,83.5185,-0.0192528,0.0,0.0
1326,331.25,33.8225,34.5349,154.277,99.019,99.2036,0.00560307,0.165925,20.8206,83.068,-0.0168682,0.0,0.0
1360,339.75,33.4094,34.7738,152.666,99.1699,99.4055,0.00583455,0.166568,20.82,82.6877,-0.0214984,0.0,0.0
1394,348.25,34.1162,34.6719,154.57,99.3522,99.5893,0.00528488,0.168723,20.8177,82.2873,-0.0215839,0.0,0.0
1428,356.75,33.7544,34.9335,151.518,99.5971,99.8693,0.00449663,0.168164,20.8163,81.8869,-0.0247201,0.0,0.0
1462,365.25,34.1991,35.2618,154.7,99.7492,99.9707,0.00443741,0.170712,20.816,81.3464,-0.0200909,0.0,0.0
1496,373.75,34.2743,34.9021,155.013,99.7706,100.009,0.00447213,0.17394,20.8143,80.8259,-0.0216083,0.0,0.0
1530,382.25,34.5924,35.1688,153.16,99.767,99.9245,0.00445467,0.17849,20.8077,80.5557,-0.0142873,0.0,0.0
1564,390.75,34.8219,35.4569,150.239,99.7476,99.8451,0.00446637,0.186188,20.8007,80.1153,-0.0088506,0.0,0.0
1598,399.25,35.324,35.7827,150.499,99.7609,99.8146,0.00426208,0.190124,20.7921,79.6548,-0.00486906,0.0,0.0
1632,407.75,35.9502,36.0945,150.513,99.7682,99.8434,0.00398385,0.199842,20.7842,79.1844,-0.006828,0.0,0.0
1666,416.25,36.1418,36.2831,151.644,99.7234,99.6902,0.00316486,0.205733,20.776,78.6339,0.00301107,0.0,0.0
1700,424.75,36.5508,37.0841,150.117,99.5979,99.6075,0.00259314,0.209983,20.7703,78.1534,-0.000870902,0.0,0.0
1734,433.25,37.1636,37.8241,153.806,99.3276,99.3041,0.00259284,0.217196,20.7659,77.6429,0.00214315,0.0,0.0
1768,441.75,37.682,37.757,150.963,99.0331,98.7262,0.00253952,0.223383,20.7585,77.0224,0.0281132,0.0,0.0
1802,450.25,38.0007,37.4454,153.341,99.115,98.7267,0.00277991,0.231625,20.7538,76.4819,0.0355614,0.0,0.0
1836,458.75,39.0983,39.1312,153.525,99.3127,98.5816,0.0029717,0.240531,20.7432,75.8613,0.066933,0.0,0.0
1870,467.25,39.2336,39.746,150.313,99.4692,98.6388,0.00260841,0.247821,20.7355,75.2107,0.0759375,0.0,0.0
1904,475.75,39.9293,40.6001,148.946,99.6044,98.6919,0.00258687,0.256665,20.7218,74.56,0.0833668,0.0,0.0
1938,484.25,40.8758,40.9775,147.255,99.6714,98.5141,0.00285002,0.266821,20.709,73.8394,0.105787,0.0,0.0
1972,492.75,41.3805,41.4613,150.34,99.7274,98.6753,0.00293977,0.274693,20.7022,73.1587,0.0960684,0.0,0.0
2006,501.25,41.6577,42.196,149.647,99.7549,98.3253,0.0029994,0.279679,20.6947,72.4581,0.130751,0.0,0.0
2040,509.75,42.5751,43.0218,147.822,99.7387,98.0431,0.00302073,0.292193,20.6798,71.6973,0.155316,0.0,0.0
2074,518.25,42.8328,43.1376,148.639,99.7504,98.0766,0.00336552,0.299293,20.6689,70.9667,0.153281,0.0,0.0
2108,526.75,43.2432,44.0209,149.121,99.7343,97.884,0.00355334,0.296661,20.6675,70.226,0.169625,0.0,0.0
2142,535.25,43.2194,44.0883,151.571,99.7097,98.0465,0.00362049,0.293784,20.6703,69.4753,0.152364,0.0,0.0
2176,543.75,43.6727,44.9887,149.984,99.6556,97.9447,0.00351765,0.289828,20.6744,68.7446,0.156864,0.0,0.0
2210,552.25,43.2194,44.5255,150.049,99.5733,98.1993,0.00318184,0.284093,20.6808,68.114,0.125866,0.0,0.0
2244,560.75,43.5313,45.0696,146.831,99.5229,98.0444,0.00307639,0.276654,20.6894,67.4634,0.135574,0.0,0.0
2278,569.25,43.5425,44.8736,145.658,99.4571,98.0054,0.00307635,0.273471,20.6911,66.8328,0.133194,0.0,0.0
2312,577.75,42.9005,45.2421,147.541,99.3962,98.1547,0.00290694,0.271287,20.6971,66.1922,0.113852,0.0,0.0
2346,586.25,43.3478,45.0251,150.178,99.3506,97.9595,0.00310936,0.266723,20.7018,65.5916,0.127726,0.0,0.0
2380,594.75,43.3863,44.5132,153.315,99.2982,97.7457,0.00295395,0.264955,20.7059,64.981,0.142739,0.0,0.0
2414,603.25,43.1496,44.5216,153.608,99.2667,97.8424,0.00280352,0.262152,20.7122,64.3805,0.130906,0.0,0.0
2448,611.75,42.733,44.941,144.789,99.2304,97.6511,0.00290391,0.255185,20.7144,63.84,0.145326,0.0,0.0
2482,620.25,42.4294,43.7394,152.954,99.182,98.0469,0.0031929,0.241263,20.7266,63.3896,0.104259,0.0,0.0
2516,628.75,41.53,42.826,153.06,99.1848,98.1318,0.00354475,0.218437,20.7455,63.0392,0.0966806,0.0,0.0
2550,637.25,39.8196,42.604,152.606,99.1965,98.5217,0.00505734,0.190619,20.771,62.779,0.0618285,0.0,0.0
2584,645.75,38.7756,41.3624,154.531,99.1836,98.8862,0.00620651,0.167756,20.8027,62.5488,0.0272014,0.0,0.0
2618,654.25,37.7219,40.2304,153.802,99.163,98.9702,0.00820083,0.153608,20.8163,62.3686,0.0176311,0.0,0.0
2652,662.75,36.8254,38.892,153.209,99.1372,99.2736,0.00985858,0.139104,20.831,62.2184,-0.0124516,0.0,0.0
2686,671.25,34.9595,37.8722,158.617,99.1303,99.2774,0.0103355,0.12761,20.8451,62.0283,-0.0134265,0.0,0.0
2720,679.75,34.2743,36.9816,157.126,99.1247,99.229,0.0125174,0.118456,20.8582,61.8581,-0.00952886,0.0,0.0
2754,688.25,31.5574,33.7996,157.609,99.1017,99.2787,0.0135172,0.115508,20.8647,61.708,-0.0161601,0.0,0.0
2788,696.75,30.994,32.7363,162.594,99.0771,99.1531,0.014984,0.11531,20.868,61.5578,-0.00694471,0.0,0.0
2822,705.25,30.205,32.321,157.304,99.0424,99.1705,0.0154883,0.114477,20.8656,61.4377,-0.0117056,0.0,0.0
2856,713.75,29.9218,31.9028,157.633,99.0755,99.1874,0.0157777,0.111398,20.8697,61.2475,-0.0102304,0.0,0.0
2890,722.25,29.3855,31.0371,156.412,99.155,99.2863,0.0165628,0.109587,20.87,61.1775,-0.011991,0.0,0.0
2924,730.75,29.3129,30.625,158.627,99.2473,99.3512,0.0167818,0.109086,20.8707,61.0674,-0.0094759,0.0,0.0
2958,739.25,28.8539,30.2572,158.313,99.3708,99.4739,0.016866,0.107522,20.8735,60.8972,-0.00938942,0.0,0.0
2992,747.75,28.6195,29.4341,159.29,99.5249,99.6932,0.0174043,0.107598,20.8751,60.8171,-0.0153051,0.0,0.0
3026,756.25,28.1348,29.0647,160.282,99.6911,99.8523,0.0175012,0.10507,20.8772,60.677,-0.014635,0.0,0.0
3060,764.75,28.4474,29.3724,160.423,99.7835,99.9334,0.0157613,0.109692,20.8774,60.5669,-0.0135936,0.0,0.0
3094,773.25,28.3574,29.1526,158.381,99.7783,99.9194,0.0130311,0.111238,20.8726,60.4468,-0.0127998,0.0,0.0
3128,781.75,28.2345,29.1402,156.849,99.6649,99.7611,0.0124145,0.111322,20.8715,60.3567,-0.00873873,0.0,0.0
3162,790.25,28.576,29.0687,159.096,99.4099,99.5269,0.0128763,0.10946,20.8736,60.2466,-0.0106509,0.0,0.0
3196,798.75,28.479,28.9281,153.815,99.4882,99.6126,0.0126282,0.108767,20.8773,60.1465,-0.0113191,0.0,0.0
3212,802.75,28.2406,28.9376,153.161,99.5608,99.641,0.0123411,0.108404,20.8774,60.0864,-0.0072943,0.0,0.0