File: 01_Data/Homasote/Cone/Homasote_Cone_HF50Scan_230608_R3.csv
Names,Time,Stack TC,Smoke TC,Exh Press,Smoke Comp,Smoke Meas,CO Meter,CO2 Meter,O2 Meter,Sample Mass,Ext Coeff,Start Test,Flame Verif
Chan Gain,,500,500,1,1,1,1,1,1,1,1,1.0,1.0
Offset,,0,0,0.143883,0,0,0,0,0,0,0,0.0,0.0
Gain,,1,1,25.011,13.2368,13.8891,1,1,1,1.00094,1.03262,1.0,1.0
Units,sec,C,C,Pa,%,%,%,%,%,g,/m,,
Baseline,,39.6155,40.2136,153.415,99.0402,98.8045,0.000755739,0.0615723,20.9423,-446.002,0.0215925,,
33,8,36.5778,37.0466,153.889,99.6177,97.8188,0.000853739,0.0839934,20.9066,108.882,0.165072,0.0,0.0
66,16.25,40.2977,38.4387,134.191,99.7821,98.9984,0.0010553,0.0814292,20.9201,107.801,0.0714305,0.0,0.0
99,24.5,47.2188,44.0625,135.742,99.9142,97.1431,0.00223175,0.381583,20.7143,106.56,0.254773,0.0,0.0
132,32.75,50.9052,48.0203,137.115,100.034,96.476,0.0035441,0.461681,20.4783,105.419,0.328066,0.0,0.0
165,41,52.9518,50.5685,138.221,100.133,96.7773,0.00374858,0.432026,20.4935,104.338,0.308736,0.0,0.0
198,49.25,54.8322,52.1271,143.325,100.167,96.4242,0.00404699,0.39384,20.5406,103.427,0.344949,0.0,0.0
231,57.5,55.2124,54.1959,143.932,100.13,97.7208,0.00391857,0.363409,20.5793,102.496,0.220599,0.0,0.0
264,65.75,55.5266,55.0171,143.252,100.047,97.9497,0.00334021,0.342644,20.608,101.645,0.191876,0.0,0.0
297,74,55.8397,55.8279,142.584,99.8342,98.7818,0.00316192,0.320062,20.6301,100.885,0.0959989,0.0,0.0
330,82.25,55.2996,55.8282,139.404,99.5777,98.8699,0.002808,0.301567,20.6547,100.154,0.0646143,0.0,0.0
363,90.5,55.3983,56.3384,143.6875,99.3576,98.6639,0.00227755,0.289375,20.6729,99.3834,0.0634585,0.0,0.0
396,98.75,55.5457,56.6189,139.818,99.6327,99.1531,0.0021263,0.282638,20.6807,98.6727,0.0437084,0.0,0.0
429,107,54.5631,56.4422,148.662,99.8484,99.4773,0.00211631,0.269631,20.6923,98.0821,0.0337241,0.0,0.0
462,115.25,54.8085,56.2848,147.645,99.9688,99.6609,0.00221064,0.256463,20.7093,97.3615,0.0279421,0.0,0.0
495,123.5,54.6537,55.8667,144.467,99.9974,99.7872,0.00262919,0.247611,20.72,96.6308,0.0190676,0.0,0.0
528,131.75,54.0067,56.4934,143.078,100.016,99.8808,0.00220353,0.238669,20.7326,95.9902,0.0122874,0.0,0.0
561,140,53.7703,56.1582,145.246,100.008,99.8787,0.0023124,0.235308,20.7376,95.3596,0.0117115,0.0,0.0
594,148.25,53.5801,56.038,144.542,99.9987,99.952,0.00187809,0.231166,20.745,94.6889,0.0042232,0.0,0.0
627,156.5,53.4463,55.7474,145.802,100.014,99.8071,0.00234737,0.22614,20.7473,94.0684,0.0187228,0.0,0.0
660,164.75,53.0187,55.5102,151.453,99.9873,99.8787,0.00212168,0.224619,20.7543,93.4178,0.00984568,0.0,0.0
693,173,52.6765,55.0768,144.185,99.9663,99.794,0.00227727,0.226636,20.7531,92.8572,0.0156339,0.0,0.0
726,181.25,52.6962,54.8401,146.294,99.888,99.7435,0.00213798,0.22141,20.7582,92.2567,0.0131101,0.0,0.0
759,189.5,52.9532,55.1131,145.59,99.7458,99.5418,0.00191131,0.219328,20.7615,91.6461,0.0185471,0.0,0.0
792,197.75,52.4144,54.5544,144.207,99.6492,99.4972,0.00210467,0.219063,20.7634,91.0455,0.013826,0.0,0.0
825,206,52.3165,54.1144,149.077,99.5192,99.3756,0.00200344,0.216281,20.7641,90.485,0.0130767,0.0,0.0
858,214.25,51.9204,54.2183,145.041,99.318,99.2001,0.00150065,0.217255,20.7637,89.8744,0.0107571,0.0,0.0
891,222.5,52.1935,54.4539,143.535,99.3503,99.2357,0.00192883,0.220042,20.762,89.2939,0.0104529,0.0,0.0
924,230.75,52.2977,54.1386,141.721,99.3653,99.2849,0.0021835,0.2212,20.7592,88.7033,0.00732889,0.0,0.0
957,239,52.3021,54.3032,146.031,99.3786,99.1743,0.00175985,0.223718,20.7623,88.0327,0.018643,0.0,0.0
990,247.25,52.3136,54.2434,140.896,99.3879,99.1488,0.00186787,0.226677,20.7568,87.4722,0.0218127,0.0,0.0
1023,255.5,52.803,54.3039,142.713,99.3737,99.0552,0.00193869,0.230955,20.7528,86.8916,0.0290852,0.0,0.0
1056,263.75,52.81,54.7185,147.661,99.3689,99.0085,0.00184548,0.238228,20.7433,86.3311,0.0329076,0.0,0.0
1089,272,53.3097,54.4485,143.903,99.385,98.881,0.00188308,0.24314,20.735,85.7205,0.0460604,0.0,0.0
1122,280.25,53.3344,54.8984,141.646,99.3499,98.5876,0.00195323,0.249166,20.7265,85.0799,0.0697666,0.0,0.0
1155,288.5,53.9424,55.362,144.887,99.3725,98.5241,0.00184518,0.257412,20.722,84.4393,0.077672,0.0,0.0
1188,296.75,54.4759,55.1279,145.492,99.3725,98.2816,0.00194356,0.262232,20.715,83.8288,0.0999897,0.0,0.0
1221,305,54.5649,56.0609,141.99,99.3604,97.968,0.00212889,0.267508,20.7092,83.1281,0.127838,0.0,0.0
1254,313.25,54.55,56.4175,142.119,99.3604,97.7255,0.00221898,0.273338,20.7024,82.4675,0.150284,0.0,0.0
1287,321.5,55.577,57.0275,140.915,99.3677,97.2105,0.0018609,0.279302,20.6937,81.8169,0.198805,0.0,0.0
1320,329.75,56.0497,57.3312,143.046,99.3616,97.5068,0.00218362,0.286885,20.6856,81.1362,0.170689,0.0,0.0
1353,338,56.2945,57.975,144.045,99.3774,96.9863,0.00220999,0.292462,20.6789,80.3955,0.220607,0.0,0.0
1386,346.25,57.099,58.3293,142.378,99.3988,96.9062,0.00227078,0.301792,20.6711,79.6749,0.230043,0.0,0.0
1419,354.5,57.8857,59.0119,143.234,99.4056,96.8176,0.00228827,0.307081,20.6573,78.9241,0.238953,0.0,0.0
1452,362.75,57.5643,58.9803,140.979,99.4016,96.6311,0.00220524,0.306103,20.6547,78.1834,0.25605,0.0,0.0
1485,371,58.2596,58.8833,141.01,99.3919,96.6133,0.00278079,0.305189,20.6573,77.4728,0.256835,0.0,0.0
1518,379.25,58.2232,60.089,141.464,99.3988,96.7557,0.00257401,0.306039,20.6532,76.7921,0.244118,0.0,0.0
1551,387.5,58.3665,60.0845,138.82,99.3871,96.782,0.00238542,0.307878,20.6551,76.0214,0.240591,0.0,0.0
1584,395.75,59.0962,60.0931,144.073,99.3697,96.8485,0.00254161,0.308382,20.6463,75.3608,0.232782,0.0,0.0
1617,404,59.0694,60.1874,144.02,99.4125,97.408,0.0024936,0.310575,20.6448,74.6501,0.184506,0.0,0.0
1650,412.25,59.0756,60.8623,139.586,99.5434,96.9388,0.00251329,0.311356,20.6433,73.9495,0.240161,0.0,0.0
1683,420.5,59.1894,60.6408,142.265,99.629,97.1944,0.002297,0.308572,20.6454,73.2788,0.2241,0.0,0.0
1716,428.75,59.3217,61.2645,143.883,99.728,97.1168,0.00225562,0.300828,20.6518,72.5982,0.240325,0.0,0.0
1749,437,59.1039,61.3523,144.623,99.81,97.124,0.0026085,0.295798,20.6604,71.9876,0.247098,0.0,0.0
1782,445.25,59.216,60.9184,139.818,99.9344,97.4076,0.00233285,0.291225,20.6688,71.3671,0.231975,0.0,0.0
1815,453.5,58.8329,60.8411,138.982,100.025,97.6518,0.00221935,0.283172,20.6758,70.7765,0.217534,0.0,0.0
1848,461.75,58.4492,60.3576,146.454,100.033,97.8637,0.002152,0.271582,20.6904,70.226,0.198556,0.0,0.0
1881,470,57.476,59.9718,144.143,99.9809,98.1731,0.00213933,0.259715,20.705,69.7555,0.165279,0.0,0.0
1914,478.25,56.1935,58.7594,145.118,99.8496,98.249,0.0020234,0.243775,20.7242,69.2951,0.146379,0.0,0.0
1947,486.5,56.088,58.2357,150.67,99.6246,98.4647,0.0020674,0.229228,20.7412,68.9748,0.106076,0.0,0.0
1980,494.75,54.8195,57.6927,149.845,99.7329,99.106,0.00239617,0.210767,20.7558,68.7045,0.0571106,0.0,0.0
2013,503,53.6849,55.9207,148.475,99.8815,99.646,0.00280952,0.188562,20.7797,68.5044,0.0213807,0.0,0.0
2046,511.25,52.4927,55.0358,152.303,99.9914,99.699,0.00330779,0.171235,20.8,68.3542,0.0265253,0.0,0.0
2079,519.5,51.1143,54.1048,149.013,99.9837,99.8317,0.00425965,0.164344,20.8104,68.2441,0.013784,0.0,0.0
2112,527.75,49.8156,52.8135,153.304,99.9348,99.7219,0.00482355,0.156921,20.8157,68.114,0.0193208,0.0,0.0
2145,536,49.0471,52.2178,149.115,99.9494,99.7558,0.00558488,0.147069,20.8311,67.9438,0.0175589,0.0,0.0
2178,544.25,48.3679,51.0098,150.46,99.955,99.7677,0.00663939,0.142284,20.8361,67.7637,0.0169942,0.0,0.0
2211,552.5,47.7388,50.2855,154.405,99.8956,99.7177,0.00677614,0.13984,20.8429,67.6736,0.0161535,0.0,0.0
2244,560.75,47.5259,49.9154,148.337,99.8201,99.5918,0.00669318,0.140253,20.8433,67.4834,0.0207441,0.0,0.0
2277,569,47.5702,48.7084,151.586,99.7288,99.5142,0.00691057,0.138705,20.8448,67.3933,0.0195137,0.0,0.0
2310,577.25,47.204,48.347,150.568,99.6133,99.4201,0.00699594,0.137658,20.8472,67.2732,0.0175826,0.0,0.0
2343,585.5,46.7343,47.9671,149.453,99.7821,99.6257,0.00676889,0.136316,20.8491,67.1931,0.0142141,0.0,0.0
2376,593.75,46.1496,47.4277,149.409,99.9316,99.671,0.00682784,0.136497,20.8495,67.013,0.0236502,0.0,0.0
2409,602,46.1197,47.3411,150.984,99.9772,99.6621,0.00645985,0.134711,20.8504,66.8528,0.0285955,0.0,0.0
2442,610.25,45.7656,46.9458,150.414,99.9869,99.7723,0.00683456,0.134349,20.8517,66.7427,0.019463,0.0,0.0
2475,618.5,45.8234,47.2003,153.751,99.9433,99.9092,0.00640354,0.13248,20.8534,66.6326,0.00308879,0.0,0.0
2508,626.75,45.3332,46.0453,149.246,99.8872,99.7537,0.00669233,0.133325,20.8525,66.5826,0.0121116,0.0,0.0
2541,635,45.186,46.1624,148.54,99.8565,99.6914,0.00684927,0.131768,20.8564,66.3924,0.0149871,0.0,0.0
2574,643.25,45.189,45.6101,151.558,99.8431,99.6715,0.00674552,0.143172,20.8512,66.2923,0.0155886,0.0,0.0
2607,651.5,44.679,46.0096,148.491,99.8136,99.6829,0.00667739,0.136835,20.8459,66.1822,0.0118733,0.0,0.0
2640,659.75,44.1191,45.4385,150.102,99.8003,99.6214,0.00692012,0.133276,20.8521,66.0621,0.0162494,0.0,0.0
2673,668,44.4061,45.3623,152.403,99.7486,99.5562,0.00687384,0.131135,20.8567,65.952,0.0174921,0.0,0.0
2706,676.25,42.4253,43.1174,150.571,99.6993,99.5507,0.00698185,0.128698,20.8608,65.8719,0.0135177,0.0,0.0
2739,684.5,42.6249,43.2602,150.647,99.6504,99.5125,0.00694774,0.128489,20.8618,65.7718,0.0125472,0.0,0.0
2772,692.75,42.0072,43.3812,147.963,99.5482,99.4036,0.00709161,0.126901,20.8632,65.6517,0.0131737,0.0,0.0
2805,701,42.0549,42.9177,150.461,99.5054,99.3896,0.00695147,0.125989,20.866,65.5115,0.0105511,0.0,0.0
2838,709.25,42.065,42.5436,152.515,99.446,99.2612,0.00732589,0.126305,20.8636,65.4615,0.0168562,0.0,0.0
2871,717.5,42.1369,42.762,152.027,99.4081,99.2616,0.00715041,0.124677,20.8654,65.3614,0.0133581,0.0,0.0
2904,725.75,41.9944,42.4282,147.218,99.425,99.2484,0.00765002,0.124323,20.8661,65.2613,0.0161028,0.0,0.0
2937,734,41.4409,41.824,148.809,99.4323,99.3366,0.00786728,0.124021,20.8652,65.1812,0.00872276,0.0,0.0
2970,742.25,41.2389,42.1742,149.423,99.4469,99.2811,0.00754411,0.12295,20.8666,65.1012,0.0151122,0.0,0.0
3003,750.5,41.6455,42.7808,150.371,99.5184,99.2802,0.00770086,0.121043,20.8681,64.981,0.0217007,0.0,0.0
3036,758.75,42.0354,42.3735,147.5,99.5688,99.3548,0.00763071,0.120139,20.8702,64.901,0.019491,0.0,0.0
3069,767,41.8024,41.9355,150.796,99.6751,99.4748,0.00782022,0.119763,20.8702,64.8309,0.0182206,0.0,0.0
3102,775.25,41.1982,42.2502,153.306,99.7842,99.621,0.0077296,0.119011,20.8707,64.6908,0.0148211,0.0,0.0
3135,783.5,41.0527,42.2482,152.122,99.9223,99.7698,0.00821759,0.118737,20.8708,64.6107,0.0138368,0.0,0.0
3154,788.25,41.0277,42.0199,147.692,99.9954,99.8211,0.00852441,0.118895,20.8702,64.5707,0.0158064,0.0,0.0