File: 01_Data/Homasote/Cone/Homasote_Cone_HF75Scalar_230608_R1.csv
LABORATORY,FSRI
TEST IDENT,Homasote_HF75_R1
OPERATOR,Marino
MATERIAL,Homasote
ORIENTATION,Horizontal
HEAT FLUX,75
SURF AREA,0.01
C FACTOR,0.0405875
SPEC HOLDER DIFF,-566
SPECIMEN MASS,59.48
SCAN TIME,0.25
O2 DELAY TIME,11
CO DELAY TIME,11
CO2 DELAY TIME,8
FLOW FACTOR,1
SCAN COUNT,2676
TIME TO IGN,4.75
END OF TEST SCAN,2196
END OF TEST TIME,549
TEST STATUS,1
PRE TEST CMT,Dimensions: 102.15 x 102.40 x 12.52 mm
POST TEST CMT,"Sample swelled as it entered the decay stage, reference experiment photos. The sample shrank horizontally, reducing exposed surface area, see post test picture."