File: 01_Data/Homasote/Cone/Homasote_Cone_HF50Scan_230608_R2.csv
Names,Time,Stack TC,Smoke TC,Exh Press,Smoke Comp,Smoke Meas,CO Meter,CO2 Meter,O2 Meter,Sample Mass,Ext Coeff,Start Test,Flame Verif
Chan Gain,,500,500,1,1,1,1,1,1,1,1,1.0,1.0
Offset,,0,0,0.143883,0,0,0,0,0,0,0,0.0,0.0
Gain,,1,1,25.011,13.3119,13.9685,1,1,1,1.00094,1.03262,1.0,1.0
Units,sec,C,C,Pa,%,%,%,%,%,g,/m,,
Baseline,,39.1394,39.7372,153.534,100.53,100.323,0.000867863,0.0615899,20.9356,-445.918,0.0186609,,
34,8.25,36.8026,36.9773,150.165,100.525,97.0832,0.000945835,0.0777732,20.9146,109.583,0.315614,0.0,0.0
68,16.75,41.9919,39.3645,134.819,100.576,99.0406,0.000746116,0.0798918,20.9231,108.292,0.139331,0.0,0.0
102,25.25,48.4181,44.8777,133.523,100.59,96.6275,0.00264532,0.41044,20.6569,106.91,0.364013,0.0,0.0
136,33.75,51.3334,48.6323,141.256,100.558,97.0768,0.0041821,0.451618,20.4832,105.849,0.319175,0.0,0.0
170,42.25,53.2123,50.7146,142.282,100.527,97.2115,0.00403791,0.408988,20.5217,104.818,0.30376,0.0,0.0
204,50.75,53.7468,52.295,145.638,100.504,97.8679,0.00376193,0.369395,20.5632,103.898,0.240746,0.0,0.0
238,59.25,54.3836,53.3967,140.856,100.482,98.0981,0.00352677,0.335625,20.6115,103.007,0.217451,0.0,0.0
272,67.75,54.3352,53.7544,141.598,100.508,99.0394,0.00307867,0.30941,20.6458,102.246,0.133337,0.0,0.0
306,76.25,53.8304,54.5935,142.298,100.552,99.4081,0.00277433,0.29006,20.6725,101.495,0.103627,0.0,0.0
340,84.75,53.8033,54.2656,143.178,100.558,99.6131,0.00253891,0.276208,20.6884,100.705,0.0855127,0.0,0.0
374,93.25,53.5936,54.9359,142.987,100.498,99.8084,0.00234728,0.268288,20.6994,99.9739,0.0623583,0.0,0.0
408,101.75,53.2183,54.518,144.578,100.338,99.8872,0.0023194,0.259557,20.7099,99.2032,0.0407667,0.0,0.0
442,110.25,53.1649,55.3265,143.618,100.167,99.7734,0.0022493,0.250778,20.7223,98.5326,0.035641,0.0,0.0
476,118.75,53.2629,54.6233,145.468,100.06,99.8898,0.00212577,0.245766,20.7292,97.7919,0.0154151,0.0,0.0
510,127.25,53.0479,55.1327,147.938,100.005,99.9273,0.00198682,0.239207,20.7349,97.0412,0.00704836,0.0,0.0
544,135.75,52.8502,54.3812,145.451,100.048,100.057,0.00198124,0.234997,20.7412,96.4206,-0.000792069,0.0,0.0
578,144.25,52.6778,55.0667,143.887,100.129,99.9648,0.00211007,0.243653,20.7385,95.7299,0.0148265,0.0,0.0
612,152.75,52.1657,54.6578,148.147,100.209,100.095,0.00187421,0.23584,20.7355,95.1394,0.0102512,0.0,0.0
646,161.25,52.4181,54.0891,146.42,100.281,100.134,0.00182428,0.226843,20.7502,94.4687,0.0132395,0.0,0.0
680,169.75,52.9239,54.3055,145.067,100.363,100.344,0.00178856,0.223903,20.7546,93.8181,0.00173292,0.0,0.0
714,178.25,52.2477,54.2108,142.499,100.489,100.305,0.00178291,0.221387,20.7582,93.2076,0.0165921,0.0,0.0
748,186.75,52.1204,54.4717,145.969,100.556,100.463,0.00219308,0.223706,20.7558,92.577,0.0084002,0.0,0.0
782,195.25,51.9719,54.033,147.96,100.578,100.381,0.00199348,0.224397,20.7555,91.9464,0.0177971,0.0,0.0
816,203.75,51.8587,54.3129,140.674,100.573,100.64,0.00141242,0.224693,20.7567,91.3458,-0.00596085,0.0,0.0
850,212.25,52.2385,54.1928,144.851,100.547,100.463,0.00189248,0.224573,20.7559,90.7052,0.00756085,0.0,0.0
884,220.75,52.2471,54.3584,148.663,100.543,100.286,0.00167068,0.228573,20.7522,90.1147,0.0231947,0.0,0.0
918,229.25,52.3401,54.023,144.841,100.551,100.295,0.00182349,0.229045,20.7513,89.5141,0.0230449,0.0,0.0
952,237.75,52.8488,54.2793,142.754,100.545,100.377,0.00178776,0.233501,20.7471,88.8935,0.0151046,0.0,0.0
986,246.25,53.0385,54.331,140.36,100.566,100.183,0.00192682,0.238607,20.7406,88.2629,0.0345299,0.0,0.0
1020,254.75,53.8384,55.1242,146.609,100.566,100.151,0.00160571,0.243606,20.7314,87.6123,0.0374209,0.0,0.0
1054,263.25,53.7227,55.4973,146.048,100.543,99.9414,0.00179665,0.252039,20.7294,86.9717,0.0543601,0.0,0.0
1088,271.75,53.4368,54.9777,141.808,100.509,99.7662,0.00171494,0.268524,20.7146,86.241,0.0672149,0.0,0.0
1122,280.25,53.9125,55.5757,148.744,100.44,99.3459,0.00189165,0.272617,20.698,85.6004,0.0991951,0.0,0.0
1156,288.75,55.0495,56.4497,142.11,100.348,99.2141,0.00208548,0.27214,20.7002,84.9398,0.102892,0.0,0.0
1190,297.25,55.3219,56.2691,144.281,100.213,98.9635,0.00186664,0.27572,20.6968,84.1991,0.113622,0.0,0.0
1224,305.75,55.6411,56.7494,144.492,100.252,98.9076,0.00157841,0.277243,20.6956,83.5185,0.122259,0.0,0.0
1258,314.25,55.7277,56.9882,141.688,100.363,98.7772,0.0016326,0.279566,20.6933,82.8178,0.144228,0.0,0.0
1292,322.75,55.8715,57.4127,139.778,100.457,98.787,0.00190552,0.282573,20.6895,82.0971,0.151831,0.0,0.0
1326,331.25,56.1093,57.5586,141.982,100.677,98.7653,0.00162286,0.286511,20.6874,81.3764,0.17362,0.0,0.0
1360,339.75,56.1909,58.1457,146.633,100.853,98.9119,0.00173581,0.286474,20.6846,80.6658,0.176031,0.0,0.0
1394,348.25,57.1564,58.4748,139.261,101.006,99.2116,0.00220133,0.290019,20.6818,79.9551,0.162374,0.0,0.0
1428,356.75,57.1951,58.4499,140.989,101.101,99.0121,0.00213636,0.290712,20.678,79.2845,0.189092,0.0,0.0
1462,365.25,56.9646,58.7276,139.524,101.105,99.2137,0.00245624,0.292531,20.6782,78.5638,0.171064,0.0,0.0
1496,373.75,57.0808,58.6648,145.38,101.063,98.8058,0.001807,0.292235,20.6737,77.9132,0.204564,0.0,0.0
1530,382.25,57.3665,59.2,144.217,101.014,99.2086,0.0023349,0.290971,20.6739,77.1825,0.163375,0.0,0.0
1564,390.75,57.2837,58.7746,145.953,100.924,98.3974,0.00203955,0.288559,20.6761,76.4518,0.22962,0.0,0.0
1598,399.25,57.3852,59.2172,143.307,100.941,98.7555,0.00213038,0.289496,20.6762,75.7712,0.198283,0.0,0.0
1632,407.75,57.5799,59.5359,144.062,100.995,98.8544,0.00195392,0.290886,20.6726,75.0805,0.194064,0.0,0.0
1666,416.25,57.6978,59.5681,145.887,101,98.738,0.00214207,0.286836,20.6748,74.4199,0.205135,0.0,0.0
1700,424.75,57.6546,59.1983,146.727,101.032,99.0701,0.00217527,0.285922,20.6755,73.7893,0.177672,0.0,0.0
1734,433.25,57.6707,59.5466,140.883,101.043,98.5487,0.00232484,0.285429,20.6765,73.0686,0.226412,0.0,0.0
1768,441.75,58.1427,59.8662,144.494,101.087,99.397,0.00249739,0.282634,20.6824,72.4781,0.152743,0.0,0.0
1802,450.25,57.9135,59.5708,143.668,101.102,99.0927,0.00179849,0.281178,20.6827,71.8475,0.181833,0.0,0.0
1836,458.75,57.1357,59.8054,142.978,101.044,99.3727,0.00229213,0.27441,20.6903,71.2169,0.151098,0.0,0.0
1870,467.25,56.3833,58.8063,143.691,100.982,99.4102,0.00189162,0.264372,20.7048,70.6464,0.142069,0.0,0.0
1904,475.75,56.1731,58.6302,141.465,100.903,99.4443,0.00193593,0.254239,20.715,70.0858,0.131891,0.0,0.0
1938,484.25,55.8454,58.2901,144.067,100.894,99.6852,0.00199065,0.243191,20.7286,69.6554,0.109177,0.0,0.0
1972,492.75,54.9753,57.6832,148.389,100.916,100.01,0.00249909,0.230344,20.7423,69.145,0.0816387,0.0,0.0
2006,501.25,53.9317,56.443,146.772,100.951,100.381,0.00246455,0.209602,20.7651,69.0048,0.0512855,0.0,0.0
2040,509.75,52.3677,55.3039,146.059,101.014,100.897,0.00280619,0.187717,20.7884,68.7346,0.0105069,0.0,0.0
2074,518.25,50.9752,54.1396,156.402,101.036,100.927,0.00337482,0.166405,20.8068,68.5544,0.00975615,0.0,0.0
2108,526.75,50.1742,53.0709,148.275,101.051,100.996,0.004332,0.156243,20.8198,68.4043,0.00487184,0.0,0.0
2142,535.25,49.1227,52.1746,146.689,101.067,101.06,0.00514517,0.148283,20.829,68.2241,0.000633822,0.0,0.0
2176,543.75,48.5124,51.2497,147.663,101.06,100.929,0.00551264,0.143243,20.8377,68.104,0.0117525,0.0,0.0
2210,552.25,47.9018,50.4565,145.891,101.072,101.037,0.00643871,0.144622,20.8406,67.9739,0.00313196,0.0,0.0
2244,560.75,47.8171,49.7817,148.387,101.078,101.017,0.00672041,0.146986,20.8345,67.8337,0.00551287,0.0,0.0
2278,569.25,47.4123,49.2154,150.374,101.08,100.968,0.00691824,0.149487,20.8345,67.6636,0.00998159,0.0,0.0
2312,577.75,46.8008,49.0289,148.227,101.089,101.072,0.00691102,0.143458,20.8384,67.5435,0.00156666,0.0,0.0
2346,586.25,46.1068,48.4764,151.015,101.088,101.005,0.00688019,0.140246,20.8427,67.4333,0.00741952,0.0,0.0
2380,594.75,46.2464,47.8352,149.685,101.096,100.97,0.0068664,0.13988,20.8427,67.2832,0.0113589,0.0,0.0
2414,603.25,45.8772,47.8049,147.663,101.089,100.932,0.00671595,0.135963,20.8473,67.1731,0.0140309,0.0,0.0
2448,611.75,45.9372,47.2284,148.405,101.077,100.906,0.00669101,0.135064,20.8517,67.043,0.0153084,0.0,0.0
2482,620.25,45.3723,46.679,145.584,101.13,101.054,0.00657245,0.132815,20.8562,66.9129,0.00673546,0.0,0.0
2516,628.75,45.1075,46.3505,152.096,101.126,101.051,0.00702926,0.131807,20.8587,66.8028,0.00671172,0.0,0.0
2550,637.25,45.1649,46.3003,149.247,101.1,101.076,0.00660342,0.13045,20.8582,66.6826,0.0021302,0.0,0.0
2584,645.75,44.7338,46.0517,149.567,101.048,100.909,0.00668482,0.129647,20.8584,66.5525,0.0124567,0.0,0.0
2618,654.25,44.3595,45.8317,152.045,100.936,100.836,0.00679072,0.128552,20.8592,66.4424,0.00898489,0.0,0.0
2652,662.75,44.6476,45.6973,153.072,100.813,100.614,0.00675758,0.127852,20.8602,66.3423,0.0179048,0.0,0.0
2686,671.25,44.2953,45.49,151.025,100.624,100.463,0.00666904,0.126454,20.8632,66.2222,0.0145117,0.0,0.0
2720,679.75,43.9313,45.5042,151.699,100.376,100.383,0.00684156,0.126404,20.8631,66.1121,-0.000631166,0.0,0.0
2754,688.25,42.5198,43.6999,148.916,100.1,99.9026,0.00661297,0.125652,20.8649,66.022,0.0178951,0.0,0.0
2788,696.75,42.025,43.1518,151.239,99.8365,99.634,0.00698611,0.126191,20.8663,65.952,0.0183887,0.0,0.0
2822,705.25,42.3768,43.1178,154.238,99.6309,99.4725,0.00743311,0.125697,20.8656,65.8218,0.014419,0.0,0.0
2856,713.75,41.8594,43.0578,149.231,99.5777,99.4452,0.00713259,0.124909,20.8663,65.7217,0.0120641,0.0,0.0
2890,722.25,42.0566,42.8875,148.908,99.4847,99.2845,0.00748687,0.126079,20.8644,65.6116,0.0182475,0.0,0.0
2924,730.75,41.5017,42.6618,149,99.4892,99.2384,0.00720925,0.12731,20.8665,65.4915,0.0228565,0.0,0.0
2958,739.25,41.4581,42.4029,149.904,99.5424,99.316,0.00716551,0.122611,20.8694,65.4815,0.0206212,0.0,0.0
2992,747.75,41.9505,42.0283,148.897,99.5712,99.3301,0.00790514,0.124929,20.8683,65.4315,0.0219624,0.0,0.0
3026,756.25,41.1951,41.8023,144.185,99.6565,99.4452,0.0075991,0.121864,20.8706,65.2313,0.0192303,0.0,0.0
3060,764.75,41.1522,41.8088,148.953,99.7085,99.3454,0.00755279,0.120824,20.8712,65.1812,0.0330464,0.0,0.0
3094,773.25,40.5831,41.7021,150.914,99.7735,99.5454,0.00753117,0.120344,20.8736,65.0711,0.0207387,0.0,0.0
3128,781.75,40.823,41.9927,153.775,99.7337,99.4414,0.00756923,0.117851,20.8758,64.981,0.0265932,0.0,0.0
3162,790.25,40.8628,41.4418,150.791,99.6931,99.4507,0.00804889,0.118338,20.8758,64.891,0.0220486,0.0,0.0
3196,798.75,40.4786,41.5366,146.012,99.6338,99.3177,0.0079416,0.117817,20.875,64.8109,0.0287795,0.0,0.0
3226,806.25,40.7001,41.7039,150.913,99.583,99.2572,0.00758339,0.116926,20.8747,64.6607,0.0296837,0.0,0.0