File: 01_Data/Homasote/Cone/Homasote_Cone_HF75Scan_230608_R3.csv
Names,Time,Stack TC,Smoke TC,Exh Press,Smoke Comp,Smoke Meas,CO Meter,CO2 Meter,O2 Meter,Sample Mass,Ext Coeff,Start Test,Flame Verif
Chan Gain,,500,500,1,1,1,1,1,1,1,1,1.0,1.0
Offset,,0,0,0.143883,0,0,0,0,0,0,0,0.0,0.0
Gain,,1,1,25.011,13.2788,13.9535,1,1,1,1.00094,1.03262,1.0,1.0
Units,sec,C,C,Pa,%,%,%,%,%,g,/m,,
Baseline,,50.5388,51.3162,148.977,100.231,100.264,0.000968865,0.0592143,20.9453,-446.987,-0.00301248,,
29,7,49.1664,47.6427,129.939,99.5603,97.7854,0.00107221,0.0677364,20.9336,106.07,0.162943,0.0,1.0
58,14.25,55.7308,53.0207,130.796,99.5316,93.9176,0.00134787,0.195144,20.9318,104.568,0.525884,0.0,0.0
87,21.5,61.3307,57.9701,133.301,99.5417,94.2557,0.00411798,0.568777,20.4599,103.347,0.494255,0.0,0.0
116,28.75,64.5472,61.3295,134.698,99.5502,94.4311,0.00604047,0.549687,20.3366,102.156,0.478186,0.0,0.0
145,36,66.3562,63.8495,133.626,99.6017,95.8555,0.00611014,0.484574,20.4074,101.085,0.347256,0.0,0.0
174,43.25,67.5111,65.5732,136.769,99.6499,96.6067,0.00523061,0.421451,20.4829,100.194,0.280935,0.0,0.0
203,50.5,67.9789,66.9603,136.252,99.6827,97.119,0.00446954,0.390784,20.5406,99.3133,0.236014,0.0,0.0
232,57.75,67.9173,68.3426,133.54,99.7253,97.429,0.00348062,0.364408,20.5759,98.4825,0.211012,0.0,0.0
261,65,68.225,68.4501,137.903,99.722,97.5742,0.00346411,0.352952,20.5922,97.6918,0.197228,0.0,0.0
290,72.25,68.3106,68.9653,137.173,99.7006,98.5838,0.00313297,0.332948,20.6182,96.831,0.10203,0.0,0.0
319,79.5,68.2066,69.0187,138.458,99.6337,98.6047,0.00293968,0.327722,20.629,96.1103,0.0940371,0.0,0.0
348,86.75,68.4161,70.184,136.931,99.6118,98.7797,0.00240848,0.319002,20.638,95.3696,0.0759846,0.0,0.0
377,94,68.0762,69.7709,138.961,99.5753,99.0233,0.00281418,0.313866,20.6435,94.6289,0.0503599,0.0,0.0
406,101.25,68.021,70.1816,138.467,99.5502,98.7567,0.00253268,0.303258,20.6532,93.9182,0.072491,0.0,0.0
435,108.5,68.1158,70.3867,133.418,99.5587,99.2553,0.00251589,0.30146,20.6582,93.2276,0.027645,0.0,0.0
464,115.75,69.0538,71.0505,137.598,99.6098,99.2013,0.00266037,0.287641,20.6665,92.4869,0.0372252,0.0,0.0
493,123,68.9139,71.2297,131.857,99.6767,99.4768,0.00242293,0.289324,20.6793,91.7462,0.0181818,0.0,0.0
522,130.25,69.0771,71.1752,139.148,99.7739,99.3933,0.00246739,0.293434,20.671,91.0355,0.0346181,0.0,0.0
551,137.5,68.9922,71.4696,138.289,99.8817,99.6752,0.00252877,0.293211,20.669,90.3949,0.0187454,0.0,0.0
580,144.75,69.521,71.8436,135.249,99.9944,100.061,0.00237828,0.290992,20.6719,89.7243,-0.00599758,0.0,0.0
609,152,69.3854,72.1694,137.711,100.152,99.9767,0.00228018,0.291158,20.6754,88.9936,0.0159045,0.0,0.0
638,159.25,70.2493,72.3068,136.184,100.294,100.239,0.00192816,0.290165,20.6742,88.343,0.00499055,0.0,0.0
667,166.5,70.0907,72.6331,130.98,100.439,100.378,0.00225814,0.290895,20.6728,87.6323,0.00550855,0.0,0.0
696,173.75,70.0052,72.8826,135.879,100.62,100.448,0.00196423,0.290541,20.6721,87.0218,0.0155671,0.0,0.0
725,181,70.569,73.0743,134.435,100.728,100.566,0.00192122,0.291662,20.6742,86.3111,0.0145979,0.0,0.0
754,188.25,70.2836,72.5614,139.19,100.758,100.555,0.00209379,0.293084,20.6741,85.6004,0.0182906,0.0,0.0
783,195.5,70.3215,73.1398,139.216,100.749,100.345,0.00205191,0.295713,20.6728,84.9798,0.0364197,0.0,0.0
812,202.75,70.2836,72.8596,140.369,100.62,100.19,0.00214377,0.293873,20.6717,84.2992,0.0387542,0.0,0.0
841,210,69.8303,72.6035,134.995,100.457,99.8566,0.00197568,0.297703,20.6691,83.6186,0.0543107,0.0,0.0
870,217.25,70.4501,73.1332,136.37,100.298,99.6373,0.00224385,0.299563,20.6671,82.9279,0.0598904,0.0,0.0
899,224.5,70.4697,73.4465,138.544,100.154,99.148,0.00235142,0.301787,20.6638,82.3273,0.0914421,0.0,0.0
928,231.75,70.5026,73.3104,140.096,100.031,98.8551,0.00200138,0.302596,20.6638,81.6567,0.107135,0.0,0.0
957,239,70.5179,73.5783,138.289,100.049,98.8938,0.00231807,0.304559,20.6627,81.0361,0.105237,0.0,0.0
986,246.25,70.8005,73.2879,137.701,100.26,99.0808,0.00226403,0.304785,20.6602,80.3155,0.107151,0.0,0.0
1015,253.5,70.4176,73.6367,139.696,100.291,98.864,0.00241721,0.303215,20.6583,79.6448,0.129807,0.0,0.0
1044,260.75,70.7345,73.5804,138.008,100.372,99.0573,0.00226106,0.306655,20.6569,79.0042,0.119428,0.0,0.0
1073,268,70.6551,73.4305,140.816,100.455,99.048,0.00246747,0.310963,20.6502,78.3336,0.127743,0.0,0.0
1102,275.25,70.971,73.9209,135.398,100.496,98.9449,0.00277374,0.311675,20.6499,77.693,0.140898,0.0,0.0
1131,282.5,71.1831,74.1725,137.198,100.449,98.9445,0.00245856,0.311808,20.6485,77.0224,0.136736,0.0,0.0
1160,289.75,71.6636,73.6613,136.336,100.319,98.9824,0.00212496,0.311141,20.6504,76.4518,0.121456,0.0,0.0
1189,297,71.5554,74.5518,135.525,100.206,98.7793,0.00262676,0.317353,20.6439,75.8112,0.129922,0.0,0.0
1218,304.25,71.8979,74.5416,137.785,100.128,98.5395,0.00229657,0.31491,20.6408,75.1506,0.144823,0.0,0.0
1247,311.5,71.6004,74.2824,140.147,100.166,98.7652,0.00207625,0.31286,20.6435,74.51,0.127547,0.0,0.0
1276,318.75,71.4754,73.852,136.693,100.22,98.9019,0.00244246,0.315242,20.6423,73.8594,0.119891,0.0,0.0
1305,326,71.5329,74.2855,139.646,100.233,99.1561,0.00254045,0.313366,20.642,73.2188,0.0978471,0.0,0.0
1334,333.25,71.7645,74.2761,137.79,100.231,99.2111,0.00239892,0.312406,20.6431,72.5982,0.092683,0.0,0.0
1363,340.5,71.7017,74.6406,135.148,100.215,98.8312,0.00251011,0.311812,20.6448,71.9676,0.125928,0.0,0.0
1392,347.75,71.7999,74.52,139.435,100.164,99.1608,0.0027216,0.306924,20.6511,71.3771,0.0911909,0.0,0.0
1421,355,72.1657,74.5802,136.453,100.133,98.8104,0.00259055,0.310763,20.6471,70.7965,0.120475,0.0,0.0
1450,362.25,71.6451,74.4124,140.273,100.299,98.8495,0.00189092,0.302195,20.6532,70.216,0.131829,0.0,0.0
1479,369.5,71.34,74.3822,139.62,100.443,99.3925,0.00199373,0.295611,20.6624,69.6855,0.0952328,0.0,0.0
1508,376.75,71.4705,74.2615,143.014,100.447,99.1365,0.00236718,0.290513,20.6664,69.1349,0.118989,0.0,0.0
1537,384,71.097,73.5123,136.002,100.391,99.1945,0.0024608,0.283364,20.6775,68.6745,0.108618,0.0,0.0
1566,391.25,70.3853,73.1082,138.49,100.275,99.125,0.00236018,0.273209,20.685,68.124,0.104495,0.0,0.0
1595,398.5,69.45,72.4147,146.884,100.115,99.2358,0.00190133,0.259821,20.705,67.6535,0.0798761,0.0,0.0
1624,405.75,69.0051,71.6618,140.924,99.9547,98.8521,0.00182255,0.24407,20.7209,67.3333,0.100471,0.0,0.0
1653,413,67.6668,71.2509,144.097,100.026,99.556,0.00202102,0.22997,20.7407,67.043,0.0426241,0.0,0.0
1682,420.25,66.233,70.0297,143.189,100.112,100.113,0.00223026,0.20839,20.7545,66.8228,-9.88024e-05,0.0,0.0
1711,427.5,65.3189,68.8011,143.143,100.218,100.343,0.00188689,0.183089,20.7825,66.6626,-0.0112418,0.0,0.0
1740,434.75,64.1334,67.5587,144.957,100.247,100.55,0.00219476,0.165196,20.8088,66.5325,-0.0273424,0.0,0.0
1769,442,62.9763,66.9355,144.346,100.32,100.562,0.00257027,0.154893,20.8208,66.3924,-0.0217896,0.0,0.0
1798,449.25,62.1485,65.4403,144.731,100.36,100.649,0.00297153,0.149513,20.8323,66.2622,-0.0260645,0.0,0.0
1827,456.5,61.2716,64.761,144.801,100.336,100.665,0.00281999,0.146971,20.8392,66.2022,-0.0296789,0.0,0.0
1856,463.75,60.2938,64.2531,143.757,100.297,100.567,0.00302936,0.144511,20.8412,66.0821,-0.0243747,0.0,0.0
1885,471,60.2107,63.4816,143.926,100.218,100.626,0.00324897,0.143304,20.8426,65.8719,-0.0368036,0.0,0.0
1914,478.25,59.9105,62.7373,148.432,100.096,100.342,0.00361839,0.143696,20.845,65.7618,-0.0222328,0.0,0.0
1943,485.5,59.0921,61.8791,148.565,100.028,100.317,0.00377604,0.143527,20.844,65.6517,-0.0261646,0.0,0.0
1972,492.75,59.1336,61.2545,143.524,100.041,100.334,0.00389586,0.144284,20.842,65.5416,-0.0264549,0.0,0.0
2001,500,59.1344,60.7974,149.641,100.274,100.477,0.00364747,0.142931,20.8423,65.4515,-0.0182887,0.0,0.0
2030,507.25,58.7014,60.4402,143.777,100.41,100.521,0.00335072,0.141891,20.8448,65.3114,-0.0100629,0.0,0.0
2059,514.5,58.529,60.3537,144.02,100.491,100.674,0.00368896,0.141335,20.8495,65.2213,-0.016483,0.0,0.0
2088,521.75,58.1343,60.2299,144.005,100.519,100.761,0.00360937,0.140874,20.8492,65.1612,-0.0218118,0.0,0.0
2117,529,58.0553,59.7726,145.728,100.359,100.649,0.0038507,0.139857,20.8503,65.0511,-0.0260991,0.0,0.0
2146,536.25,57.9499,59.5787,147.434,100.245,100.504,0.00378447,0.141783,20.8498,64.921,-0.0233819,0.0,0.0
2175,543.5,58.1919,59.3902,148.445,100.498,100.714,0.00393972,0.140929,20.8476,64.8009,-0.0194611,0.0,0.0
2204,550.75,57.6661,59.3498,144.202,100.779,100.893,0.00403644,0.140566,20.8487,64.6808,-0.0102191,0.0,0.0
2233,558,56.0444,57.1308,146.734,100.971,101.185,0.00399948,0.140319,20.8502,64.6107,-0.0191587,0.0,0.0
2262,565.25,55.2459,57.2191,143.248,101.081,101.243,0.00376046,0.13916,20.8522,64.5506,-0.0144593,0.0,0.0
2291,572.5,55.2377,56.9891,148.544,101.132,101.321,0.00388366,0.137265,20.8527,64.4706,-0.0168898,0.0,0.0
2320,579.75,55.6046,56.6408,143.907,101.108,101.33,0.00429469,0.13722,20.854,64.3805,-0.0199059,0.0,0.0
2349,587,54.923,56.3477,142.33,101.039,101.215,0.00427718,0.136273,20.855,64.2904,-0.0156853,0.0,0.0
2378,594.25,54.7508,56.322,146.673,100.945,101.167,0.00429866,0.136405,20.8551,64.1603,-0.0198853,0.0,0.0
2407,601.5,54.6351,56.2066,145.032,100.914,101.115,0.00435794,0.136556,20.8549,64.0001,-0.0179576,0.0,0.0
2436,608.75,54.8088,55.7641,145.137,100.75,101.01,0.00429567,0.135126,20.8545,63.9301,-0.0233868,0.0,0.0
2465,616,54.6754,55.81,143.666,100.508,100.671,0.00426676,0.134575,20.8567,63.86,-0.0147167,0.0,0.0
2494,623.25,55.1701,56.0453,144.067,100.233,100.475,0.00441499,0.134774,20.859,63.7499,-0.0217955,0.0,0.0
2523,630.5,54.9702,55.6974,147.27,100.027,100.255,0.00445467,0.134026,20.8604,63.6598,-0.0206607,0.0,0.0
2552,637.75,54.6956,55.4215,152.248,99.8614,99.9435,0.00409563,0.132724,20.8607,63.5697,-0.00743911,0.0,0.0
2581,645,54.4443,55.9168,143.467,99.7464,99.9882,0.0042748,0.131562,20.8621,63.4997,-0.0219363,0.0,0.0
2610,652.25,54.2529,55.4367,149.743,99.6977,99.7919,0.00473648,0.132335,20.8601,63.4496,-0.00855121,0.0,0.0
2639,659.5,53.9271,55.5571,148.263,99.6722,99.8298,0.00472467,0.130526,20.8598,63.3896,-0.0143111,0.0,0.0
2668,666.75,54.0416,55.4005,146.902,99.6791,99.7553,0.00447313,0.131823,20.8621,63.2394,-0.00692039,0.0,0.0
2697,674,54.0517,55.3439,144.988,99.7423,99.9759,0.00454868,0.129987,20.8626,63.1693,-0.0211851,0.0,0.0
2711,677.5,53.6263,54.9619,145.292,99.7727,99.9052,0.00484296,0.129729,20.8641,63.0692,-0.0120186,0.0,0.0