File: 01_Data/HIPS/STA/N2/30K_min/HIPS_STA_N2_30KData_211022_R1.csv
##Temp./Â°C,Time/min,Mass loss(subtr.2)/mg,DSC(subtr.2)/(mW/mg),Sensit./(uV/mW)
49.529,10.00667,0.03324,-0.01948809,1.05401
52.029,11.53975,0.03786025,0.08519645,1.05405
54.529,11.88449,0.03635271,0.15101,1.05406
57.029,12.13899,0.04105513,0.20586,1.05404
59.529,12.35158,0.03840951,0.24561,1.05399
62.029,12.5405,0.04113466,0.283,1.05391
64.529,12.715,0.04038803,0.31285,1.0538
67.029,12.87843,0.04120627,0.34165,1.05365
69.529,13.0341,0.04007873,0.36647,1.05348
72.029,13.1835,0.04292491,0.38994,1.05328
74.529,13.32807,0.040657,0.40935,1.05305
77.029,13.4676,0.04219603,0.42898,1.05279
79.529,13.60278,0.0419958,0.4501,1.0525
82.029,13.73366,0.04227761,0.47051,1.05218
84.529,13.86077,0.04054968,0.47604,1.05184
87.029,13.98405,0.04210656,0.47295,1.05146
89.529,14.10355,0.04283354,0.48136,1.05106
92.029,14.21965,0.04040416,0.49768,1.05062
94.529,14.333,0.04087587,0.51888,1.05016
97.029,14.44394,0.04274149,0.54716,1.04967
99.529,14.55194,0.04209284,0.57979,1.04915
102.029,14.65807,0.04381445,0.61767,1.04861
104.529,14.76171,0.04481709,0.6537,1.04804
107.029,14.8636,0.04296971,0.66998,1.04744
109.529,14.9639,0.04147141,0.66391,1.04681
112.029,15.0625,0.04279975,0.64729,1.04616
114.529,15.15957,0.04229129,0.63117,1.04548
117.029,15.25501,0.0428839,0.652,1.04477
119.529,15.3493,0.04172481,0.67309,1.04404
122.029,15.44251,0.04240977,0.69254,1.04328
124.529,15.53411,0.04259739,0.70552,1.04249
127.029,15.62454,0.05163342,0.72933,1.04168
129.529,15.7141,0.03777333,0.73863,1.04084
132.029,15.8024,0.04374911,0.7531,1.03998
134.529,15.88975,0.04645196,0.76072,1.0391
137.029,15.9763,0.04515884,0.77375,1.03818
139.529,16.06189,0.04225297,0.78635,1.03725
142.029,16.14637,0.04223299,0.79587,1.03628
144.529,16.23043,0.04534855,0.80507,1.0353
147.029,16.31345,0.04562002,0.81635,1.03429
149.529,16.39563,0.04600894,0.82739,1.03325
152.029,16.47757,0.04586608,0.83782,1.0322
154.529,16.55866,0.04563146,0.84924,1.03111
157.029,16.6395,0.04792805,0.85916,1.03001
159.529,16.71937,0.04793939,0.86912,1.02888
162.029,16.7991,0.04637253,0.87942,1.02773
164.529,16.87794,0.04461157,0.89194,1.02656
167.029,16.9565,0.04488142,0.90432,1.02536
169.529,17.03448,0.04322045,0.91165,1.02415
172.029,17.11202,0.04520605,0.92419,1.02291
174.529,17.18921,0.04256007,0.93112,1.02165
177.029,17.26577,0.04386147,0.94342,1.02036
179.529,17.342,0.04530986,0.95594,1.01906
182.029,17.41763,0.04696845,0.96618,1.01773
184.529,17.49271,0.04434357,0.97513,1.01639
187.029,17.56766,0.04563012,0.98514,1.01502
189.529,17.64188,0.04696079,0.99578,1.01363
192.029,17.71583,0.04562044,1.00405,1.01223
194.529,17.78935,0.04353898,1.0128,1.0108
197.029,17.86269,0.04400336,1.02288,1.00935
199.529,17.93534,0.04387998,1.033,1.00789
202.029,18.00812,0.04388,1.04144,1.0064
204.529,18.0805,0.04388,1.05329,1.0049
207.029,18.1526,0.04520966,1.06375,1.00337
209.529,18.22439,0.04496271,1.07101,1.00183
212.029,18.2962,0.043651,1.08097,1.00027
214.529,18.36776,0.0423341,1.08931,0.9987
217.029,18.43885,0.04496542,1.0967,0.9971
219.529,18.50989,0.04497,1.10667,0.99549
222.029,18.58077,0.04497002,1.11352,0.99386
224.529,18.65145,0.04369322,1.12341,0.99221
227.029,18.722,0.04212,1.13144,0.99054
229.529,18.79223,0.04083375,1.13946,0.98886
232.029,18.86259,0.04211987,1.14533,0.98717
234.529,18.93255,0.04222944,1.15342,0.98545
237.029,19.00253,0.0422302,1.16097,0.98372
239.529,19.07222,0.04092022,1.16801,0.98198
242.029,19.14173,0.04385992,1.17486,0.98022
244.529,19.21112,0.04387748,1.17976,0.97845
247.029,19.28051,0.04388001,1.18856,0.97666
249.529,19.34972,0.04491741,1.19274,0.97485
252.029,19.4189,0.04355,1.19594,0.97303
254.529,19.48789,0.041378,1.20368,0.9712
257.029,19.55677,0.0409087,1.20999,0.96935
259.529,19.6256,0.04198489,1.21571,0.96749
262.029,19.69426,0.03958405,1.21958,0.96562
264.529,19.7628,0.0369664,1.22614,0.96373
267.029,19.83137,0.03697001,1.2295,0.96183
269.529,19.89968,0.03564844,1.23617,0.95992
272.029,19.9682,0.03697555,1.23843,0.95799
274.529,20.03642,0.03550692,1.24149,0.95605
277.029,20.10462,0.03466,1.2447,0.95411
279.529,20.17295,0.03564186,1.25063,0.95214
282.029,20.24083,0.03302402,1.25166,0.95017
284.529,20.30892,0.03028053,1.25417,0.94819
287.029,20.37754,0.03037419,1.25518,0.94619
289.529,20.44559,0.03038155,1.25686,0.94419
292.029,20.51369,0.02906404,1.25869,0.94217
294.529,20.58181,0.02905712,1.25916,0.94015
297.029,20.64994,0.02764004,1.26053,0.93811
299.529,20.7179,0.02685782,1.25895,0.93607
302.029,20.78586,0.02633443,1.26086,0.93401
304.529,20.85398,0.02388105,1.25916,0.93195
307.029,20.922,0.02174189,1.25739,0.92987
309.529,20.98994,0.02129636,1.25904,0.92779
312.029,21.058,0.01812405,1.25951,0.9257
314.529,21.12595,0.01436976,1.25974,0.9236
317.029,21.1939,0.01363502,1.2634,0.92149
319.529,21.26192,0.01020005,1.26319,0.91938
322.029,21.33004,0.01152863,1.25996,0.91725
324.529,21.39798,0.009689468,1.25841,0.91512
327.029,21.46622,0.00551372,1.25808,0.91299
329.529,21.53424,0.005479229,1.25325,0.91084
332.029,21.6022,0.002704749,1.24491,0.90869
334.529,21.67012,-0.0001386641,1.2406,0.90653
337.029,21.73859,0.0009305058,1.23464,0.90437
339.529,21.8068,-0.00767101,1.23071,0.9022
342.029,21.87518,-0.007971043,1.22162,0.90002
344.529,21.9436,-0.01198112,1.21239,0.89784
347.029,22.0118,-0.01334536,1.20141,0.89566
349.529,22.08022,-0.01666865,1.18751,0.89347
352.029,22.1489,-0.01169723,1.17497,0.89127
354.529,22.2173,-0.02900058,1.16781,0.88907
357.029,22.28585,-0.02215032,1.15079,0.88686
359.529,22.35453,-0.02410616,1.13236,0.88465
362.029,22.42334,-0.02753328,1.12015,0.88244
364.529,22.49212,-0.02923205,1.10048,0.88022
367.029,22.56105,-0.03468096,1.08492,0.878
369.529,22.63014,-0.03748226,1.06497,0.87578
372.029,22.69912,-0.04211878,1.04462,0.87355
374.529,22.76815,-0.04396311,1.02721,0.87132
377.029,22.8375,-0.04677308,1.00845,0.86909
379.529,22.90686,-0.0503489,0.99062,0.86685
382.029,22.97628,-0.05109977,0.97699,0.86462
384.529,23.04574,-0.05634299,0.97058,0.86238
387.029,23.115,-0.06060247,0.9649,0.86014
389.529,23.1852,-0.06467064,0.96373,0.85789
392.029,23.255,-0.07042859,0.97052,0.85565
394.529,23.3249,-0.07584263,0.98509,0.8534
397.029,23.39493,-0.08522756,1.00399,0.85116
399.529,23.46511,-0.09102112,1.03611,0.84891
402.029,23.53529,-0.10337,1.08274,0.84666
404.529,23.60559,-0.11059,1.14275,0.84441
407.029,23.6761,-0.12015,1.21935,0.84217
409.529,23.74654,-0.12811,1.31138,0.83992
412.029,23.8171,-0.14122,1.42363,0.83767
414.529,23.88788,-0.15112,1.56152,0.83542
417.029,23.9588,-0.16777,1.72611,0.83317
419.529,24.02964,-0.18712,1.93256,0.83093
422.029,24.10079,-0.20788,2.17729,0.82868
424.529,24.17209,-0.23616,2.47908,0.82644
427.029,24.24354,-0.26346,2.84384,0.82419
429.529,24.31513,-0.29963,3.28922,0.82195
432.029,24.38691,-0.34688,3.82958,0.81971
434.529,24.45879,-0.4035,4.46468,0.81748
437.029,24.53112,-0.47165,5.23649,0.81524
439.529,24.60376,-0.55939,6.08753,0.81301
442.029,24.67655,-0.66214,7.06236,0.81077
444.529,24.74973,-0.78696,8.0928,0.80854
447.029,24.8231,-0.93831,9.14196,0.80632
449.529,24.89684,-1.12042,10.15483,0.8041
452.029,24.97048,-1.33525,10.97059,0.80187
454.529,25.04449,-1.55842,11.58438,0.79966
457.029,25.11854,-1.78595,11.8857,0.79744
459.529,25.19241,-2.03292,11.82364,0.79523
462.029,25.26613,-2.27401,11.36842,0.79303
464.529,25.3395,-2.47631,10.5493,0.79083
467.029,25.4126,-2.67189,9.50354,0.78863
469.529,25.4854,-2.84898,8.34126,0.78643
472.029,25.55786,-2.98911,7.15358,0.78424
474.529,25.6304,-3.11456,6.02193,0.78206
477.029,25.70269,-3.22013,4.9936,0.77988
479.529,25.77515,-3.30802,4.09191,0.7777
482.029,25.8475,-3.38007,3.33087,0.77553
484.529,25.92024,-3.43808,2.70068,0.77336
487.029,25.99306,-3.4905,2.19285,0.7712
489.529,26.06624,-3.53045,1.7806,0.76905
492.029,26.1396,-3.5666,1.43939,0.7669
494.529,26.21312,-3.59587,1.15092,0.76475
497.029,26.2869,-3.62125,0.89721,0.76261
499.529,26.36095,-3.64039,0.67214,0.76048
502.029,26.435,-3.65537,0.47294,0.75835
504.529,26.5093,-3.66699,0.29689,0.75623
507.029,26.5837,-3.67592,0.14532,0.75412
509.529,26.658,-3.68204,0.02352312,0.75201
512.029,26.7325,-3.6837,-0.06169903,0.74991
514.529,26.80735,-3.68775,-0.12725,0.74781
517.029,26.8822,-3.68874,-0.16643,0.74573
519.529,26.95703,-3.68872,-0.19631,0.74364
522.029,27.03207,-3.69075,-0.21305,0.74157
524.529,27.10705,-3.69074,-0.2232,0.7395
527.029,27.18245,-3.69138,-0.23102,0.73744
529.529,27.2578,-3.68873,-0.24565,0.73539
532.029,27.33339,-3.68885,-0.25478,0.73334
534.529,27.40875,-3.68885,-0.27734,0.73131
537.029,27.48413,-3.68754,-0.28637,0.72928
539.529,27.55988,-3.68754,-0.29613,0.72725
542.029,27.6358,-3.68853,-0.307,0.72524
544.529,27.71162,-3.68718,-0.31639,0.72323
547.029,27.78758,-3.68798,-0.3211,0.72123
549.529,27.86366,-3.68689,-0.32788,0.71924
552.029,27.9398,-3.68666,-0.33322,0.71726
554.529,28.0159,-3.68407,-0.34507,0.71528
557.029,28.0922,-3.68194,-0.34825,0.71332
559.529,28.1687,-3.68665,-0.34727,0.71136
562.029,28.24488,-3.68533,-0.35051,0.70941
564.529,28.322,-3.68524,-0.34762,0.70747
567.029,28.3987,-3.68458,-0.34955,0.70554
569.529,28.4756,-3.68458,-0.3478,0.70361
572.029,28.5527,-3.6859,-0.35076,0.7017
574.529,28.62965,-3.6845,-0.35112,0.69979
577.029,28.70685,-3.68083,-0.35381,0.6979
579.529,28.784,-3.6802,-0.35597,0.69601
582.029,28.86137,-3.68438,-0.35908,0.69413
584.529,28.93893,-3.68469,-0.36203,0.69226
587.029,29.01633,-3.68336,-0.36268,0.6904
589.529,29.0941,-3.68317,-0.36487,0.68855
592.029,29.1718,-3.68073,-0.3649,0.68671
594.529,29.2496,-3.68135,-0.3685,0.68487
597.029,29.3277,-3.68338,-0.37347,0.68305
599.529,29.4056,-3.68338,-0.37938,0.68124
602.029,29.4837,-3.67898,-0.38402,0.67943
604.529,29.5615,-3.68008,-0.38786,0.67764
607.029,29.63992,-3.68094,-0.39308,0.67585
609.529,29.71823,-3.67996,-0.39796,0.67408
612.029,29.79648,-3.67866,-0.39883,0.67231
614.529,29.87515,-3.68128,-0.40518,0.67055
617.029,29.9538,-3.68107,-0.40286,0.66881
618.429,29.9978,-3.67975,-0.40536,0.66783