File: 01_Data/HIPS/STA/N2/30K_min/HIPS_STA_N2_30KData_211022_R2.csv
##Temp./Â°C,Time/min,Mass loss(subtr.2)/mg,DSC(subtr.2)/(mW/mg),Sensit./(uV/mW)
49.495,10.00667,-0.0092,0.03474449,1.05401
51.995,11.53894,-0.01175228,0.45488,1.05405
54.495,11.88785,-0.01100068,0.72473,1.05406
56.995,12.1406,-0.01245583,0.93694,1.05404
59.495,12.35341,-0.0105249,1.1068,1.05399
61.995,12.5425,-0.01411379,1.24441,1.05391
64.495,12.71652,-0.01780076,1.3792,1.0538
66.995,12.88028,-0.01272886,1.4934,1.05366
69.495,13.036,-0.01452168,1.60409,1.05349
71.995,13.18554,-0.01352872,1.70502,1.05328
74.495,13.3298,-0.01426114,1.78786,1.05305
76.995,13.46975,-0.01382755,1.87677,1.05279
79.495,13.6048,-0.01327622,1.96443,1.05251
81.995,13.7359,-0.01418743,2.05751,1.05219
84.495,13.8629,-0.01390963,2.09903,1.05184
86.995,13.98625,-0.01470893,2.0916,1.05147
89.495,14.1063,-0.01451717,2.12407,1.05106
91.995,14.22238,-0.01540312,2.18953,1.05063
94.495,14.3358,-0.0158939,2.27448,1.05017
96.995,14.44669,-0.01567009,2.39933,1.04968
99.495,14.55439,-0.01601274,2.53225,1.04916
101.995,14.6603,-0.0159984,2.68377,1.04862
104.495,14.76411,-0.01521584,2.82009,1.04805
106.995,14.8659,-0.01627081,2.91785,1.04745
109.495,14.96623,-0.01766034,3.00665,1.04682
111.995,15.0647,-0.01476504,3.07431,1.04617
114.495,15.16195,-0.01746922,3.13402,1.04549
116.995,15.25772,-0.01678736,3.20268,1.04478
119.495,15.35193,-0.01721235,3.26529,1.04405
121.995,15.44476,-0.01688947,3.32973,1.04329
124.495,15.5366,-0.01846035,3.38716,1.0425
126.995,15.62735,-0.01754936,3.45919,1.04169
129.495,15.71649,-0.01621925,3.52506,1.04086
131.995,15.8052,-0.01746325,3.603,1.03999
134.495,15.8924,-0.01623075,3.68103,1.03911
136.995,15.9785,-0.01630375,3.74591,1.0382
139.495,16.0642,-0.01787058,3.81472,1.03726
141.995,16.1489,-0.01798999,3.88255,1.0363
144.495,16.2328,-0.01850573,3.93976,1.03531
146.995,16.31604,-0.02104005,3.99212,1.0343
149.495,16.39842,-0.01554697,4.06208,1.03327
151.995,16.47994,-0.01699011,4.12723,1.03221
154.495,16.56077,-0.01738876,4.18261,1.03113
156.995,16.64191,-0.01696237,4.23301,1.03003
159.495,16.72205,-0.01830213,4.29823,1.0289
161.995,16.80161,-0.01693324,4.3445,1.02775
164.495,16.88026,-0.01698889,4.41052,1.02658
166.995,16.95874,-0.01696207,4.46123,1.02538
169.495,17.03716,-0.0186397,4.51944,1.02416
171.995,17.1146,-0.01865374,4.57302,1.02292
174.495,17.19179,-0.01865186,4.62545,1.02166
176.995,17.2686,-0.01863894,4.6816,1.02038
179.495,17.3447,-0.01795513,4.72287,1.01908
181.995,17.42024,-0.01893939,4.78664,1.01775
184.495,17.49532,-0.01831,4.82537,1.01641
186.995,17.57038,-0.01707705,4.87966,1.01504
189.495,17.64483,-0.01864074,4.93849,1.01365
191.995,17.71871,-0.01864,4.98701,1.01225
194.495,17.7923,-0.01864983,5.03209,1.01082
196.995,17.86555,-0.01732721,5.08738,1.00937
199.495,17.93864,-0.02029055,5.12795,1.00791
201.995,18.01135,-0.02029,5.17786,1.00642
204.495,18.0837,-0.02028629,5.2333,1.00492
206.995,18.15607,-0.02137872,5.27735,1.00339
209.495,18.228,-0.02062,5.31373,1.00185
211.995,18.2998,-0.02062,5.36824,1.00029
214.495,18.37134,-0.02207877,5.40902,0.99872
216.995,18.4426,-0.02171882,5.46348,0.99712
219.495,18.51383,-0.02039016,5.50648,0.99551
221.995,18.5848,-0.02128382,5.55257,0.99388
224.495,18.6554,-0.02039999,5.6012,0.99223
226.995,18.72588,-0.02138643,5.63104,0.99057
229.495,18.7962,-0.0227001,5.68021,0.98889
231.995,18.86659,-0.0217089,5.72354,0.98719
234.495,18.93683,-0.02071595,5.76899,0.98548
236.995,19.00674,-0.02204116,5.80028,0.98375
239.495,19.07636,-0.02322574,5.84234,0.982
241.995,19.14607,-0.02466775,5.86549,0.98024
244.495,19.21565,-0.02550699,5.91805,0.97847
246.995,19.285,-0.02566,5.95182,0.97668
249.495,19.35416,-0.02565884,5.98116,0.97488
251.995,19.42333,-0.02499905,6.02161,0.97306
254.495,19.49212,-0.02567067,6.04482,0.97122
256.995,19.5613,-0.02780587,6.06906,0.96938
259.495,19.6302,-0.02830033,6.10172,0.96752
261.995,19.69874,-0.02959912,6.1284,0.96564
264.495,19.7671,-0.02829,6.15141,0.96376
266.995,19.83609,-0.0282903,6.18091,0.96186
269.495,19.90446,-0.02960979,6.20291,0.95994
271.995,19.97285,-0.03223009,6.20773,0.95802
274.495,20.04102,-0.03224,6.24168,0.95608
276.995,20.1094,-0.03105938,6.25395,0.95413
279.495,20.1778,-0.03224009,6.26401,0.95217
281.995,20.24597,-0.03384522,6.27323,0.9502
284.495,20.3141,-0.03557975,6.28511,0.94822
286.995,20.38212,-0.03619,6.29236,0.94622
289.495,20.45025,-0.03755613,6.29953,0.94422
291.995,20.51833,-0.0377126,6.30185,0.9422
294.495,20.58643,-0.03883,6.30762,0.94017
296.995,20.65448,-0.03991611,6.28962,0.93814
299.495,20.72243,-0.04153033,6.29068,0.93609
301.995,20.79045,-0.04450398,6.29331,0.93404
304.495,20.85853,-0.04420081,6.28972,0.93197
306.995,20.92642,-0.04552002,6.28652,0.9299
309.495,20.99442,-0.04593867,6.28845,0.92782
311.995,21.06239,-0.0479922,6.28873,0.92573
314.495,21.1303,-0.05089182,6.28427,0.92363
316.995,21.19823,-0.05228671,6.28443,0.92152
319.495,21.2663,-0.0546946,6.28627,0.9194
321.995,21.33436,-0.05763783,6.28042,0.91728
324.495,21.40235,-0.05893425,6.26873,0.91515
326.995,21.47048,-0.05889499,6.25855,0.91301
329.495,21.53849,-0.06042465,6.25276,0.91087
331.995,21.60667,-0.06284002,6.22126,0.90872
334.495,21.67478,-0.06567498,6.20807,0.90656
336.995,21.7429,-0.06789826,6.16833,0.9044
339.495,21.81115,-0.07032162,6.13239,0.90223
341.995,21.87945,-0.07376809,6.09395,0.90005
344.495,21.9478,-0.07513004,6.04776,0.89787
346.995,22.01633,-0.0764454,6.01457,0.89569
349.495,22.08476,-0.07986757,5.95906,0.8935
351.995,22.15331,-0.08159785,5.89088,0.8913
354.495,22.22169,-0.08414112,5.82985,0.8891
356.995,22.2904,-0.08867607,5.77398,0.88689
359.495,22.35905,-0.09019628,5.70037,0.88468
361.995,22.428,-0.09266243,5.63278,0.88247
364.495,22.49694,-0.09554206,5.56492,0.88025
366.995,22.5659,-0.0991383,5.48432,0.87803
369.495,22.63486,-0.10192,5.39984,0.87581
371.995,22.704,-0.10521,5.3105,0.87358
374.495,22.7731,-0.10922,5.23742,0.87135
376.995,22.8424,-0.11253,5.13507,0.86912
379.495,22.91176,-0.11602,5.07257,0.86688
381.995,22.98105,-0.12064,5.00426,0.86465
384.495,23.05059,-0.12295,4.96386,0.86241
386.995,23.12024,-0.12999,4.92958,0.86017
389.495,23.18995,-0.13489,4.92606,0.85792
391.995,23.25979,-0.13545,4.93595,0.85568
394.495,23.32987,-0.14368,4.99041,0.85343
396.995,23.3998,-0.14991,5.12911,0.85119
399.495,23.46999,-0.15837,5.23538,0.84894
401.995,23.54009,-0.16563,5.41661,0.84669
404.495,23.61047,-0.17347,5.63797,0.84445
406.995,23.6808,-0.18347,5.94523,0.8422
409.495,23.75149,-0.19467,6.3378,0.83995
411.995,23.8221,-0.20729,6.77762,0.8377
414.495,23.89285,-0.22132,7.32752,0.83545
416.995,23.9638,-0.23801,8.05576,0.83321
419.495,24.03491,-0.25922,8.82277,0.83096
421.995,24.10599,-0.27945,9.8352,0.82871
424.495,24.17735,-0.30482,11.0116,0.82647
426.995,24.24881,-0.33474,12.45283,0.82423
429.495,24.3203,-0.37145,14.2572,0.82198
431.995,24.39225,-0.41753,16.52422,0.81974
434.495,24.46431,-0.47824,19.1319,0.81751
436.995,24.5366,-0.55182,22.30715,0.81527
439.495,24.60915,-0.64718,25.68318,0.81304
441.995,24.68206,-0.75872,29.36239,0.8108
444.495,24.75546,-0.88881,33.39894,0.80857
446.995,24.8289,-1.04661,37.3005,0.80635
449.495,24.9026,-1.21165,41.18741,0.80413
451.995,24.97635,-1.43785,44.6593,0.80191
454.495,25.05056,-1.65592,47.30189,0.79969
456.995,25.1246,-1.89224,48.9296,0.79747
459.495,25.19845,-2.13491,49.02811,0.79526
461.995,25.2722,-2.37634,47.66729,0.79306
464.495,25.34544,-2.60349,44.87415,0.79086
466.995,25.4189,-2.81559,40.89179,0.78866
469.495,25.49188,-3.00428,36.25138,0.78646
471.995,25.56455,-3.16272,31.4549,0.78427
474.495,25.63701,-3.29459,26.73885,0.78209
476.995,25.70935,-3.41043,22.3816,0.77991
479.495,25.78161,-3.51091,18.48325,0.77773
481.995,25.85399,-3.58725,15.1535,0.77556
484.495,25.92655,-3.65486,12.44748,0.77339
486.995,25.9991,-3.70669,10.26248,0.77123
489.495,26.07232,-3.75349,8.50158,0.76908
491.995,26.1457,-3.79232,7.01851,0.76693
494.495,26.2191,-3.82731,5.77446,0.76478
496.995,26.29275,-3.85254,4.67558,0.76264
499.495,26.3666,-3.87618,3.69219,0.76051
501.995,26.4406,-3.89204,2.83452,0.75838
504.495,26.5147,-3.90309,2.10503,0.75626
506.995,26.589,-3.91299,1.51363,0.75415
509.495,26.6633,-3.91782,1.04939,0.75204
511.995,26.73785,-3.92239,0.7341,0.74994
514.495,26.81242,-3.92467,0.51449,0.74784
516.995,26.887,-3.92505,0.38313,0.74575
519.495,26.962,-3.92741,0.28132,0.74367
521.995,27.0371,-3.92741,0.2268,0.7416
524.495,27.11225,-3.92873,0.1745,0.73953
526.995,27.1875,-3.92741,0.14739,0.73747
529.495,27.26284,-3.92741,0.12472,0.73542
531.995,27.33827,-3.92793,0.11029,0.73337
534.495,27.41382,-3.92825,0.05757348,0.73133
536.995,27.4895,-3.92796,0.03046133,0.7293
539.495,27.5651,-3.92791,-0.03219905,0.72728
541.995,27.6409,-3.92928,-0.05509221,0.72527
544.495,27.7169,-3.92895,-0.09860924,0.72326
546.995,27.79294,-3.93028,-0.12088,0.72126
549.495,27.869,-3.93027,-0.14538,0.71927
551.995,27.9453,-3.93027,-0.16497,0.71729
554.495,28.02164,-3.9289,-0.18498,0.71531
556.995,28.098,-3.92895,-0.20273,0.71334
559.495,28.1744,-3.92895,-0.21508,0.71139
561.995,28.25098,-3.92989,-0.23528,0.70944
564.495,28.32762,-3.92631,-0.24289,0.7075
566.995,28.4043,-3.92669,-0.24033,0.70556
569.495,28.48123,-3.92764,-0.22942,0.70364
571.995,28.5582,-3.92759,-0.25675,0.70173
574.495,28.63537,-3.92762,-0.27958,0.69982
576.995,28.7126,-3.92731,-0.28584,0.69792
579.495,28.78993,-3.92763,-0.27714,0.69603
581.995,28.8672,-3.92617,-0.28634,0.69416
584.495,28.9446,-3.92621,-0.29707,0.69229
586.995,29.0221,-3.92752,-0.31266,0.69043
589.495,29.09965,-3.92752,-0.32366,0.68857
591.995,29.17734,-3.92752,-0.32926,0.68673
594.495,29.2551,-3.92752,-0.36363,0.6849
596.995,29.33278,-3.92752,-0.3624,0.68308
599.495,29.41065,-3.92752,-0.38331,0.68126
601.995,29.4887,-3.92752,-0.39149,0.67946
604.495,29.5668,-3.92685,-0.4073,0.67766
606.995,29.6451,-3.92725,-0.42237,0.67588
609.495,29.72318,-3.92709,-0.4369,0.6741
611.995,29.8016,-3.92698,-0.43611,0.67233
614.495,29.87995,-3.92587,-0.438,0.67058
616.995,29.95838,-3.92587,-0.44897,0.66883
618.295,29.99942,-3.92587,-0.44832,0.66793