File: 01_Data/PETG/Cone/PETG_HRRPUA_75.csv
Time after Ignition,PETG_R1,PETG_R2,PETG_R3,Mean,Std. Dev.
0.0,13.7,13.2,13.2,13.4,0.3
0.5,19.8,19.1,14.3,17.8,3.0
1.0,38.4,24.1,19.1,27.2,10.0
1.5,52.0,32.8,23.1,35.9,14.7
2.0,69.9,45.6,33.3,49.6,18.6
2.5,88.6,59.4,46.3,64.8,21.7
3.0,104.5,75.6,62.5,80.9,21.5
3.5,127.1,95.5,81.5,101.4,23.4
4.0,144.1,112.4,100.4,119.0,22.6
4.5,160.9,126.0,119.5,135.5,22.2
5.0,178.1,142.7,137.9,152.9,21.9
5.5,194.2,158.2,154.9,169.1,21.8
6.0,214.4,172.5,163.5,183.5,27.1
6.5,231.8,187.3,179.0,199.4,28.4
7.0,254.0,205.6,192.7,217.4,32.3
7.5,272.8,222.7,209.3,234.9,33.5
8.0,297.3,237.3,226.3,253.6,38.2
8.5,320.1,256.4,229.3,268.6,46.6
9.0,324.6,280.5,247.8,284.3,38.6
9.5,351.1,304.8,253.0,302.9,49.1
10.0,376.9,316.1,273.8,322.2,51.9
10.5,396.5,341.0,293.8,343.8,51.4
11.0,425.6,359.3,313.0,366.0,56.6
11.5,416.6,362.8,330.9,370.1,43.3
12.0,447.9,380.9,345.0,391.3,52.2
12.5,486.6,374.6,372.6,411.3,65.2
13.0,527.8,414.7,372.6,438.4,80.2
13.5,524.5,429.3,394.5,449.4,67.3
14.0,558.8,439.4,390.3,462.8,86.7
14.5,586.7,453.3,421.5,487.2,87.6
15.0,647.1,498.7,432.2,526.0,110.0
15.5,645.8,508.2,459.9,537.9,96.5
16.0,652.3,561.4,484.9,566.2,83.8
16.5,703.5,579.0,498.8,593.8,103.2
17.0,713.5,592.2,524.4,610.1,95.8
17.5,746.0,585.6,548.8,626.8,104.9
18.0,753.6,618.2,572.8,648.2,94.1
18.5,774.4,645.9,596.5,672.3,91.8
19.0,792.9,666.4,618.1,692.5,90.3
19.5,809.5,667.5,615.6,697.5,100.4
20.0,795.7,706.8,662.3,721.6,67.9
20.5,842.1,725.2,674.5,747.3,85.9
21.0,865.7,732.3,672.9,757.0,98.7
21.5,877.1,753.3,695.4,775.3,92.8
22.0,910.2,751.5,711.1,790.9,105.2
22.5,938.1,781.9,742.6,820.8,103.4
23.0,1011.6,868.9,730.3,870.3,140.7
23.5,1029.4,867.2,791.3,896.0,121.6
24.0,1059.6,900.1,804.8,921.5,128.7
24.5,1159.6,975.3,816.1,983.7,171.9
25.0,1131.4,883.9,867.5,960.9,147.9
25.5,1147.0,910.3,886.3,981.2,144.1
26.0,1133.1,1029.5,902.2,1021.6,115.6
26.5,1184.4,1063.5,924.7,1057.5,130.0
27.0,1206.1,1011.5,934.5,1050.7,140.0
27.5,1214.6,1057.1,988.6,1086.8,115.9
28.0,1531.6,1062.3,996.7,1196.9,291.7
28.5,1382.1,1161.4,1022.6,1188.7,181.3
29.0,1332.7,1105.1,984.3,1140.7,176.9
29.5,1380.2,1243.8,946.6,1190.2,221.7
30.0,1482.8,1296.0,1088.3,1289.1,197.4
30.5,1383.6,1305.1,1087.4,1258.7,153.4
31.0,1530.9,1371.3,1162.6,1355.0,184.7
31.5,1581.3,1421.6,1167.2,1390.0,208.9
32.0,1502.1,1365.1,1212.7,1359.9,144.8
32.5,1861.3,1347.9,1313.1,1507.4,306.9
33.0,1886.6,1416.3,1401.8,1568.2,275.8
33.5,1933.5,1393.2,1264.5,1530.4,355.0
34.0,1769.1,1633.5,1314.2,1572.2,233.5
34.5,2086.6,1918.0,1373.3,1792.6,372.8
35.0,1836.2,1801.6,1483.9,1707.2,194.2
35.5,2167.1,1737.1,1537.6,1813.9,321.7
36.0,2356.3,1682.7,1554.0,1864.3,430.9
36.5,2004.2,2063.7,1661.0,1909.7,217.4
37.0,2042.3,1987.5,1611.5,1880.4,234.5
37.5,2180.0,1969.3,1590.7,1913.3,298.6
38.0,2009.5,1773.3,2003.4,1928.7,134.6
38.5,2172.9,2031.5,1704.6,1969.7,240.2
39.0,2265.4,1867.9,1887.4,2006.9,224.1
39.5,1869.7,2151.7,1856.9,1959.4,166.6
40.0,2395.1,2575.2,2235.1,2401.8,170.2
40.5,2290.3,2325.5,2135.7,2250.5,101.0
41.0,2169.5,2186.8,2079.6,2145.3,57.5
41.5,2606.6,1820.2,2152.1,2193.0,394.7
42.0,2015.4,2202.3,2305.5,2174.4,147.0
42.5,2041.5,1941.2,2099.6,2027.4,80.1
43.0,1979.3,2360.7,1985.6,2108.5,218.4
43.5,1981.7,2540.0,2127.1,2216.3,289.6
44.0,2214.4,1826.3,2135.7,2058.8,205.1
44.5,2320.1,2237.3,2112.6,2223.3,104.5
45.0,2158.6,2158.8,1974.0,2097.1,106.6
45.5,2309.4,2322.2,1872.7,2168.1,255.9
46.0,2187.7,1928.8,2020.0,2045.5,131.3
46.5,2258.6,2047.0,1946.7,2084.1,159.2
47.0,2169.6,1976.3,2231.9,2125.9,133.3
47.5,1933.4,1905.8,1980.6,1939.9,37.8
48.0,2107.9,2000.7,2062.6,2057.1,53.8
48.5,2172.3,2286.2,2041.9,2166.8,122.2
49.0,1947.8,2227.2,1756.2,1977.0,236.9
49.5,1899.0,2085.8,2171.8,2052.2,139.5
50.0,1944.8,1837.4,1836.4,1872.9,62.3
50.5,1905.4,2167.6,2136.9,2070.0,143.4
51.0,1861.7,2028.1,1754.0,1881.2,138.1
51.5,1847.1,1949.5,2029.6,1942.1,91.5
52.0,1757.7,1895.4,1976.5,1876.5,110.6
52.5,1832.4,1963.5,1901.8,1899.2,65.6
53.0,1661.2,1797.9,1765.6,1741.6,71.4
53.5,1713.9,1766.3,1880.4,1786.8,85.1
54.0,1645.2,1856.1,1802.2,1767.8,109.6
54.5,1489.0,1827.2,1845.4,1720.5,200.7
55.0,1446.0,1723.0,1716.5,1628.5,158.1
55.5,1379.9,1682.3,1741.9,1601.4,194.1
56.0,1301.8,1660.1,1590.9,1517.6,190.1
56.5,1279.8,1555.8,1821.3,1552.3,270.8
57.0,1184.7,1573.0,1632.2,1463.3,243.1
57.5,1124.6,1525.3,1580.5,1410.1,248.8
58.0,1111.8,1437.8,1516.5,1355.4,214.6
58.5,1047.6,1431.4,1490.6,1323.2,240.5
59.0,962.9,1269.2,1462.9,1231.7,252.1
59.5,951.4,1341.8,1350.1,1214.4,227.9
60.0,945.2,1209.7,1355.4,1170.1,207.9
60.5,888.7,1177.6,1390.5,1152.3,251.9
61.0,841.3,1149.2,1290.8,1093.8,229.8
61.5,825.3,1090.7,1303.9,1073.3,239.8
62.0,780.5,1041.9,1249.5,1024.0,235.0
62.5,757.9,1012.1,1211.4,993.8,227.3
63.0,717.5,960.1,1155.4,944.3,219.4
63.5,695.7,914.9,1132.8,914.5,218.6
64.0,661.3,854.5,1075.7,863.8,207.3
64.5,631.8,803.9,1023.2,819.7,196.2
65.0,610.9,740.3,983.4,778.2,189.1
65.5,566.2,699.3,937.6,734.4,188.2
66.0,536.4,643.1,893.8,691.1,183.5
66.5,504.7,601.6,854.5,653.6,180.6
67.0,475.7,567.5,795.0,612.7,164.4
67.5,452.7,526.5,767.7,582.3,164.8
68.0,424.6,488.6,716.8,543.3,153.6
68.5,391.4,453.9,672.2,505.8,147.4
69.0,350.6,417.1,635.3,467.7,148.9
69.5,321.0,384.6,593.6,433.1,142.6
70.0,286.3,361.0,555.0,400.8,138.7
70.5,259.7,331.1,512.3,367.7,130.2
71.0,234.6,297.9,474.9,335.8,124.5
71.5,216.2,272.8,425.9,305.0,108.5
72.0,194.8,248.2,381.8,274.9,96.3
72.5,178.5,226.7,345.4,250.2,85.9
73.0,163.5,201.2,313.9,226.2,78.3
73.5,154.1,187.4,279.5,207.0,64.9
74.0,142.3,170.2,256.9,189.8,59.7
74.5,132.6,154.8,235.6,174.4,54.2
75.0,126.0,142.0,216.6,161.5,48.4
75.5,117.3,131.6,,124.4,10.1
76.0,108.5,120.9,,114.7,8.8
76.5,102.5,,,102.5,
77.0,97.2,,,97.2,
77.5,89.7,,,89.7,
78.0,86.3,,,86.3,
78.5,80.5,,,80.5,
79.0,75.8,,,75.8,
79.5,71.6,,,71.6,
80.0,67.1,,,67.1,
80.5,63.4,,,63.4,
81.0,60.4,,,60.4,