File: 01_Data/PETG/Cone/PETG_HRRPUA_25.csv
Time after Ignition,PETG_R1,PETG_R2,PETG_R3,Mean,Std. Dev.
0.0,3.2,-1.2,4.6,2.2,3.0
0.5,4.6,0.0,5.8,3.5,3.0
1.0,7.1,1.0,9.0,5.7,4.2
1.5,9.9,4.1,12.8,8.9,4.4
2.0,13.7,6.5,19.7,13.3,6.6
2.5,18.1,8.5,25.5,17.4,8.5
3.0,24.0,13.1,32.4,23.2,9.7
3.5,31.8,16.6,39.7,29.3,11.7
4.0,37.7,23.1,45.0,35.3,11.1
4.5,48.1,28.5,50.7,42.4,12.2
5.0,56.7,35.9,56.8,49.8,12.0
5.5,65.4,44.6,63.5,57.8,11.5
6.0,75.9,55.2,72.5,67.9,11.1
6.5,82.7,67.5,79.4,76.5,8.0
7.0,93.1,80.0,93.7,88.9,7.8
7.5,103.1,92.9,104.2,100.0,6.2
8.0,116.3,103.7,114.2,111.4,6.8
8.5,126.1,117.2,130.4,124.6,6.7
9.0,134.2,125.9,142.6,134.2,8.3
9.5,144.9,139.5,161.6,148.7,11.5
10.0,150.7,152.2,169.8,157.6,10.6
10.5,160.7,160.6,184.9,168.7,14.0
11.0,169.9,169.3,198.1,179.1,16.4
11.5,180.6,178.0,210.2,189.6,17.9
12.0,191.0,190.8,224.7,202.2,19.5
12.5,209.7,202.1,235.0,215.6,17.2
13.0,210.4,218.9,237.3,222.2,13.7
13.5,219.1,225.5,257.4,234.0,20.6
14.0,237.1,244.6,261.4,247.7,12.4
14.5,243.5,257.6,275.1,258.7,15.9
15.0,255.4,257.9,283.3,265.5,15.4
15.5,259.7,277.4,295.1,277.4,17.7
16.0,268.1,281.9,301.5,283.8,16.8
16.5,272.1,286.2,306.6,288.3,17.3
17.0,281.2,300.4,311.6,297.8,15.4
17.5,285.5,314.5,325.4,308.5,20.6
18.0,292.2,318.9,329.1,313.4,19.1
18.5,301.8,319.9,332.4,318.0,15.4
19.0,303.3,342.8,335.7,327.2,21.0
19.5,311.5,335.3,343.0,329.9,16.5
20.0,318.4,352.6,354.1,341.7,20.2
20.5,327.0,350.4,354.5,343.9,14.8
21.0,327.7,356.2,362.9,348.9,18.7
21.5,339.0,374.8,367.1,360.3,18.8
22.0,337.0,376.2,378.3,363.8,23.3
22.5,346.7,376.4,395.5,372.9,24.6
23.0,345.2,372.7,380.4,366.1,18.5
23.5,351.6,390.7,389.4,377.2,22.2
24.0,352.2,398.4,409.2,386.6,30.3
24.5,363.5,396.0,413.0,390.8,25.1
25.0,367.2,403.6,420.5,397.1,27.2
25.5,368.5,402.7,420.1,397.1,26.3
26.0,377.2,408.3,426.0,403.8,24.7
26.5,378.1,419.2,430.8,409.4,27.7
27.0,387.5,406.9,437.9,410.8,25.5
27.5,390.8,415.2,436.2,414.1,22.7
28.0,388.0,438.1,438.6,421.6,29.1
28.5,402.1,436.0,430.7,422.9,18.2
29.0,395.8,443.8,443.3,427.6,27.6
29.5,410.7,449.2,436.9,432.2,19.7
30.0,419.9,453.2,448.3,440.5,18.0
30.5,410.4,456.3,453.1,439.9,25.6
31.0,422.4,457.2,465.5,448.4,22.8
31.5,434.0,472.3,463.1,456.5,20.0
32.0,439.4,491.6,472.3,467.8,26.4
32.5,434.2,480.7,471.4,462.1,24.6
33.0,462.4,494.4,475.1,477.3,16.1
33.5,453.5,488.2,494.2,478.6,22.0
34.0,472.5,511.3,502.8,495.5,20.4
34.5,460.4,518.1,496.7,491.7,29.2
35.0,473.5,506.9,506.3,495.6,19.1
35.5,479.8,534.9,527.3,514.0,29.9
36.0,464.5,525.5,544.9,511.6,42.0
36.5,472.7,516.4,517.4,502.2,25.5
37.0,479.0,549.3,539.2,522.5,38.0
37.5,501.0,545.6,555.5,534.0,29.1
38.0,496.1,540.3,557.7,531.4,31.7
38.5,486.1,560.1,549.3,531.8,39.9
39.0,518.6,567.5,554.4,546.8,25.3
39.5,520.7,587.0,598.3,568.7,41.9
40.0,524.4,581.1,606.9,570.8,42.2
40.5,531.8,593.4,614.8,580.0,43.1
41.0,554.2,610.4,613.4,592.7,33.4
41.5,545.6,613.2,634.8,597.8,46.5
42.0,536.2,628.8,645.8,603.6,59.0
42.5,564.7,600.3,649.8,604.9,42.8
43.0,569.6,651.5,670.5,630.5,53.6
43.5,571.8,629.9,678.6,626.8,53.5
44.0,581.4,660.6,689.1,643.7,55.8
44.5,599.7,664.7,703.7,656.0,52.5
45.0,562.7,689.1,698.1,650.0,75.7
45.5,597.1,674.9,708.4,660.1,57.1
46.0,598.8,692.3,749.4,680.2,76.0
46.5,605.0,719.9,725.2,683.4,67.9
47.0,628.4,704.6,764.0,699.0,68.0
47.5,634.4,726.9,777.7,713.0,72.7
48.0,662.2,721.0,778.6,720.6,58.2
48.5,666.7,743.1,806.0,738.6,69.7
49.0,669.9,749.6,768.7,729.4,52.4
49.5,674.4,751.3,777.2,734.3,53.5
50.0,690.0,787.9,793.6,757.2,58.2
50.5,677.0,779.3,812.9,756.4,70.8
51.0,680.4,770.5,833.3,761.4,76.8
51.5,717.1,802.3,852.3,790.6,68.4
52.0,721.8,787.0,871.0,793.3,74.8
52.5,722.9,820.3,839.8,794.3,62.6
53.0,752.1,837.3,891.5,827.0,70.3
53.5,757.6,830.6,902.4,830.2,72.4
54.0,770.1,913.2,884.4,855.9,75.7
54.5,777.4,883.0,907.4,855.9,69.1
55.0,793.2,910.6,917.0,873.6,69.7
55.5,814.0,910.9,918.7,881.2,58.3
56.0,821.7,934.8,900.0,885.5,57.9
56.5,811.7,978.2,914.2,901.4,84.0
57.0,797.7,905.0,907.3,870.0,62.6
57.5,833.7,957.5,934.0,908.4,65.7
58.0,858.3,984.2,979.6,940.7,71.4
58.5,819.6,1022.7,976.3,939.5,106.4
59.0,843.3,974.4,982.7,933.5,78.2
59.5,834.9,984.7,1020.3,946.6,98.4
60.0,858.4,1010.6,1017.6,962.2,90.0
60.5,865.2,957.9,1025.3,949.5,80.4
61.0,894.9,1001.4,1040.5,978.9,75.3
61.5,931.5,1017.7,1071.6,1007.0,70.7
62.0,897.6,1072.1,1085.8,1018.5,104.9
62.5,910.3,1035.4,1126.9,1024.2,108.7
63.0,939.7,1104.3,1089.4,1044.5,91.0
63.5,920.3,1097.2,1194.8,1070.7,139.1
64.0,950.6,1030.9,1102.9,1028.1,76.2
64.5,969.8,1072.2,1129.1,1057.0,80.7
65.0,1019.9,1097.2,1095.6,1070.9,44.2
65.5,1038.1,1057.9,1178.3,1091.4,75.9
66.0,1066.9,1159.9,1113.5,1113.4,46.5
66.5,1027.5,1133.3,1142.6,1101.1,63.9
67.0,1041.5,1158.3,1157.1,1119.0,67.1
67.5,1044.0,1182.7,1174.8,1133.9,77.9
68.0,1133.2,1167.1,1222.9,1174.4,45.3
68.5,1151.9,1225.2,1157.3,1178.1,40.8
69.0,1152.2,1224.0,1308.6,1228.2,78.3
69.5,1095.7,1173.4,1318.3,1195.8,113.0
70.0,1100.2,1208.7,1207.3,1172.1,62.2
70.5,1127.0,1261.4,1269.5,1219.3,80.0
71.0,1163.0,1218.6,1400.8,1260.8,124.4
71.5,1129.5,1260.3,1366.0,1251.9,118.5
72.0,1205.7,1298.4,1362.3,1288.8,78.7
72.5,1146.4,1311.8,1348.1,1268.7,107.5
73.0,1111.5,1354.4,1353.4,1273.1,140.0
73.5,1258.2,1358.3,1373.1,1329.9,62.5
74.0,1172.6,1421.3,1433.5,1342.5,147.2
74.5,1236.7,1349.4,1426.2,1337.4,95.3
75.0,1287.2,1450.9,1506.6,1414.9,114.0
75.5,1254.7,1422.3,1527.1,1401.4,137.4
76.0,1316.1,1456.7,1393.4,1388.7,70.4
76.5,1254.3,1506.7,1376.5,1379.2,126.2
77.0,1354.3,1404.4,1559.0,1439.2,106.7
77.5,1312.5,1459.4,1456.1,1409.4,83.9
78.0,1273.1,1523.3,1415.0,1403.8,125.5
78.5,1303.2,1448.8,1450.9,1401.0,84.7
79.0,1390.3,1446.1,1486.8,1441.1,48.4
79.5,1293.2,1528.1,1491.2,1437.5,126.3
80.0,1275.1,1515.2,1557.0,1449.1,152.1
80.5,1236.0,1464.1,1481.6,1393.9,137.0
81.0,1262.3,1553.4,1452.9,1422.9,147.9
81.5,1221.1,1467.6,1373.9,1354.2,124.4
82.0,1405.8,1399.6,1404.4,1403.2,3.3
82.5,1364.9,1481.4,1353.8,1400.1,70.7
83.0,1320.8,1454.0,1357.8,1377.5,68.8
83.5,1305.3,1398.9,1374.0,1359.4,48.5
84.0,1430.9,1414.2,1264.4,1369.9,91.7
84.5,1379.3,1301.2,1346.3,1342.3,39.2
85.0,1411.4,1259.8,1243.1,1304.7,92.7
85.5,1392.5,1312.7,1298.8,1334.7,50.5
86.0,1312.1,1292.6,1224.6,1276.4,45.9
86.5,1363.3,1218.9,1178.5,1253.6,97.2
87.0,1351.6,1253.0,1132.1,1245.6,109.9
87.5,1374.7,1185.9,1060.2,1207.0,158.3
88.0,1313.8,1152.4,1081.8,1182.7,119.0
88.5,1291.1,1181.1,1046.4,1172.9,122.5
89.0,1240.3,1093.3,1029.2,1120.9,108.2
89.5,1209.4,1093.6,1011.3,1104.8,99.5
90.0,1211.0,1034.3,987.4,1077.6,117.9
90.5,1200.9,1006.7,985.2,1064.3,118.8
91.0,1127.6,975.1,940.3,1014.3,99.7
91.5,1103.6,947.6,924.5,991.9,97.4
92.0,1097.7,955.1,891.9,981.6,105.4
92.5,1034.0,902.6,864.0,933.6,89.1
93.0,1048.5,875.5,821.9,915.3,118.5
93.5,964.9,884.2,785.0,878.0,90.1
94.0,925.6,839.8,749.2,838.2,88.2
94.5,910.5,826.7,726.8,821.3,92.0
95.0,882.6,796.5,703.6,794.2,89.5
95.5,825.3,763.3,658.1,748.9,84.6
96.0,816.9,745.3,638.2,733.4,89.9
96.5,789.6,705.7,598.4,697.9,95.8
97.0,763.8,708.6,560.7,677.7,105.0
97.5,736.2,658.2,556.9,650.4,89.9
98.0,710.4,621.1,517.8,616.4,96.4
98.5,682.8,589.5,496.5,589.6,93.2
99.0,673.2,562.0,475.3,570.2,99.2
99.5,635.9,535.6,459.5,543.7,88.5
100.0,616.7,503.6,434.8,518.4,91.8
100.5,591.9,493.2,414.8,500.0,88.8
101.0,570.7,463.5,396.2,476.8,88.0
101.5,561.2,438.5,372.4,457.4,95.8
102.0,534.7,407.6,369.1,437.1,86.7
102.5,524.6,385.4,348.2,419.4,93.0
103.0,494.8,367.2,341.8,401.2,82.0
103.5,482.1,339.9,321.3,381.1,88.0
104.0,469.5,316.2,308.9,364.9,90.7
104.5,450.8,298.0,302.8,350.5,86.9
105.0,439.9,283.8,294.7,339.4,87.1
105.5,426.1,271.4,284.6,327.4,85.8
106.0,408.2,259.4,269.6,312.4,83.2
106.5,395.3,247.1,262.2,301.5,81.6
107.0,383.3,234.8,253.0,290.4,81.0
107.5,374.4,225.2,243.0,280.9,81.4
108.0,357.7,213.3,231.1,267.4,78.7
108.5,346.6,207.2,222.4,258.7,76.5
109.0,328.0,195.7,215.7,246.5,71.3
109.5,320.9,186.4,207.2,238.2,72.4
110.0,306.3,175.9,204.1,228.8,68.6
110.5,297.0,165.0,195.5,219.1,69.1
111.0,287.2,158.2,193.4,212.9,66.7
111.5,277.6,146.8,183.4,202.6,67.5
112.0,271.3,138.7,176.2,195.4,68.4
112.5,262.8,129.7,175.3,189.3,67.7
113.0,257.0,124.6,165.3,182.3,67.8
113.5,245.7,116.4,158.0,173.4,66.0
114.0,240.9,111.1,153.0,168.3,66.2
114.5,230.7,103.2,143.7,159.2,65.1
115.0,221.0,98.4,136.6,152.0,62.7
115.5,214.6,92.8,131.6,146.3,62.2
116.0,209.3,88.8,127.0,141.7,61.6
116.5,202.0,83.7,120.6,135.5,60.5
117.0,195.6,77.9,112.6,128.7,60.5
117.5,190.0,72.8,107.6,123.5,60.2
118.0,185.1,68.1,101.5,118.3,60.3
118.5,180.4,62.1,95.1,112.5,61.0
119.0,174.4,57.4,88.0,106.6,60.7
119.5,169.6,53.3,83.6,102.2,60.3
120.0,164.4,48.2,78.6,97.1,60.3
120.5,161.5,43.8,73.4,92.9,61.3
121.0,157.7,39.9,68.2,88.6,61.5
121.5,150.3,35.7,63.6,83.2,59.8
122.0,147.4,31.2,59.8,79.4,60.6
122.5,142.2,27.4,54.5,74.7,60.0
123.0,138.8,24.2,51.4,71.5,59.9
123.5,134.7,,47.6,91.2,61.6
124.0,129.1,,44.4,86.8,59.9
124.5,126.6,,40.3,83.4,61.0
125.0,125.2,,37.5,81.3,62.0
125.5,121.2,,34.2,77.7,61.5
126.0,118.9,,31.3,75.1,61.9
126.5,114.1,,28.8,71.5,60.3
127.0,113.7,,26.0,69.8,62.0
127.5,110.0,,23.6,66.8,61.1
128.0,108.2,,20.9,64.5,61.7
128.5,102.8,,18.7,60.7,59.4
129.0,101.8,,17.1,59.4,60.0
129.5,96.6,,,96.6,
130.0,94.1,,,94.1,
130.5,90.7,,,90.7,
131.0,87.9,,,87.9,
131.5,84.1,,,84.1,
132.0,81.6,,,81.6,
132.5,80.0,,,80.0,
133.0,76.6,,,76.6,
133.5,73.8,,,73.8,
134.0,71.0,,,71.0,
134.5,68.8,,,68.8,
135.0,65.7,,,65.7,
135.5,62.3,,,62.3,
136.0,59.3,,,59.3,
136.5,56.1,,,56.1,
137.0,55.1,,,55.1,
137.5,51.6,,,51.6,
138.0,49.8,,,49.8,
138.5,47.4,,,47.4,
139.0,44.9,,,44.9,
139.5,42.7,,,42.7,
140.0,40.2,,,40.2,
140.5,38.9,,,38.9,
141.0,36.7,,,36.7,
141.5,33.6,,,33.6,
142.0,32.0,,,32.0,
142.5,29.2,,,29.2,
142.75,28.3,,,28.3,