File: 01_Data/PETG/Cone/PETG_HRRPUA_50.csv
Time after Ignition,PETG_R1,PETG_R2,PETG_R3,Mean,Std. Dev.
0.0,5.0,2.9,1.0,3.0,2.0
0.5,7.2,7.7,2.9,5.9,2.6
1.0,10.9,11.7,9.3,10.6,1.3
1.5,15.5,22.0,14.3,17.3,4.1
2.0,26.2,31.0,25.0,27.4,3.2
2.5,35.0,44.9,32.9,37.6,6.4
3.0,48.0,55.6,40.4,48.0,7.6
3.5,58.3,71.7,51.1,60.3,10.4
4.0,70.0,85.8,63.9,73.2,11.3
4.5,84.5,95.2,79.0,86.2,8.2
5.0,94.8,104.3,89.0,96.0,7.7
5.5,109.8,117.2,92.9,106.6,12.5
6.0,124.2,128.8,108.0,120.3,11.0
6.5,134.9,145.3,121.0,133.7,12.2
7.0,149.8,149.4,138.7,146.0,6.3
7.5,161.5,167.0,147.4,158.6,10.2
8.0,180.1,177.9,162.9,173.6,9.4
8.5,186.3,200.6,176.1,187.7,12.3
9.0,206.1,216.2,187.1,203.1,14.8
9.5,220.5,231.8,201.7,218.0,15.2
10.0,234.2,246.1,217.1,232.5,14.6
10.5,253.1,269.1,226.0,249.4,21.8
11.0,265.4,281.6,239.2,262.0,21.4
11.5,280.4,295.0,250.1,275.2,22.9
12.0,293.3,307.8,274.9,292.0,16.5
12.5,295.6,322.8,288.4,302.2,18.1
13.0,326.8,323.2,306.8,319.0,10.7
13.5,322.2,324.4,310.2,318.9,7.7
14.0,343.4,344.2,331.2,339.6,7.3
14.5,350.3,351.1,342.7,348.0,4.6
15.0,376.3,358.3,365.5,366.7,9.1
15.5,381.7,371.9,374.7,376.1,5.1
16.0,395.1,384.9,388.6,389.5,5.2
16.5,414.6,395.0,398.6,402.8,10.4
17.0,422.6,420.1,404.8,415.8,9.6
17.5,426.4,419.7,425.1,423.7,3.5
18.0,439.5,425.1,432.1,432.2,7.2
18.5,460.8,441.3,431.0,444.4,15.1
19.0,465.9,461.3,457.2,461.4,4.4
19.5,493.7,471.7,442.3,469.2,25.8
20.0,475.5,482.3,462.0,473.3,10.3
20.5,489.3,479.5,472.3,480.3,8.5
21.0,491.5,496.2,486.8,491.5,4.7
21.5,511.8,508.0,493.3,504.3,9.8
22.0,513.0,528.6,509.8,517.2,10.1
22.5,517.2,546.0,535.9,533.1,14.6
23.0,542.6,547.9,570.1,553.6,14.6
23.5,544.7,563.1,566.8,558.2,11.8
24.0,562.1,552.7,556.5,557.1,4.7
24.5,573.8,599.7,630.3,601.3,28.3
25.0,608.4,598.2,641.6,616.1,22.7
25.5,574.2,654.4,646.8,625.2,44.3
26.0,642.6,666.8,670.4,659.9,15.1
26.5,638.3,658.2,710.0,668.8,37.0
27.0,640.1,667.1,706.0,671.1,33.1
27.5,658.1,723.3,727.6,703.0,38.9
28.0,680.3,711.8,762.2,718.1,41.3
28.5,707.4,706.3,813.6,742.4,61.6
29.0,761.1,765.3,838.2,788.2,43.3
29.5,776.9,827.1,849.9,817.9,37.4
30.0,801.8,826.6,860.2,829.5,29.3
30.5,851.2,884.3,932.3,889.3,40.8
31.0,842.3,845.7,917.4,868.5,42.4
31.5,897.4,865.1,920.9,894.4,28.0
32.0,923.9,965.2,967.3,952.1,24.5
32.5,946.9,954.4,982.9,961.4,19.0
33.0,961.0,953.4,1044.3,986.2,50.4
33.5,950.3,1026.5,1014.9,997.2,41.0
34.0,990.8,1022.7,1059.2,1024.3,34.3
34.5,994.8,1121.0,1179.0,1098.3,94.2
35.0,1074.6,1101.8,1135.6,1104.0,30.6
35.5,1105.1,1095.7,1265.9,1155.6,95.6
36.0,1076.4,1234.3,1324.3,1211.7,125.5
36.5,1157.9,1223.5,1302.6,1228.0,72.5
37.0,1174.5,1237.2,1393.6,1268.5,112.8
37.5,1188.1,1335.3,1351.4,1291.6,90.0
38.0,1269.6,1328.7,1426.5,1341.6,79.3
38.5,1302.3,1254.6,1439.2,1332.0,95.9
39.0,1341.1,1442.8,1415.5,1399.8,52.6
39.5,1466.8,1352.6,1525.2,1448.2,87.8
40.0,1432.0,1368.8,1553.9,1451.6,94.1
40.5,1453.2,1392.6,1549.6,1465.1,79.2
41.0,1537.3,1418.5,1531.9,1495.9,67.1
41.5,1486.6,1423.4,1651.2,1520.4,117.6
42.0,1531.2,1525.9,1571.7,1542.9,25.1
42.5,1447.1,1467.8,1545.0,1486.7,51.6
43.0,1598.2,1544.3,1660.8,1601.1,58.3
43.5,1597.4,1380.1,1619.0,1532.2,132.1
44.0,1574.3,1514.8,1580.5,1556.6,36.3
44.5,1922.3,1578.3,1885.4,1795.4,188.8
45.0,1763.9,1660.5,1659.5,1694.6,60.0
45.5,1784.9,1600.9,1594.4,1660.0,108.2
46.0,1771.6,1686.1,1843.8,1767.2,79.0
46.5,1929.9,1768.7,1971.3,1889.9,107.0
47.0,1720.2,1673.3,1835.7,1743.1,83.6
47.5,1983.8,1578.8,1836.1,1799.6,204.9
48.0,1782.7,1614.8,2205.2,1867.6,304.2
48.5,1622.5,1901.8,1701.3,1741.8,144.0
49.0,1778.0,1587.4,1976.6,1780.7,194.6
49.5,1790.7,1875.6,1802.7,1823.0,45.9
50.0,1793.7,1805.7,1817.8,1805.7,12.1
50.5,1937.7,1826.2,1850.4,1871.5,58.6
51.0,1963.7,1969.0,1743.9,1892.2,128.5
51.5,1848.5,1804.9,1820.0,1824.5,22.1
52.0,1963.1,1676.5,1816.4,1818.7,143.3
52.5,1909.1,1866.3,1926.5,1900.6,31.0
53.0,2037.8,1978.7,1811.7,1942.7,117.3
53.5,1830.6,2016.0,1729.2,1858.6,145.5
54.0,1897.3,1982.5,1880.3,1920.0,54.8
54.5,2025.5,2051.4,1762.1,1946.3,160.1
55.0,2105.8,1964.5,1776.5,1948.9,165.2
55.5,1966.3,2042.5,1783.3,1930.7,133.2
56.0,1900.2,1907.3,1829.7,1879.1,42.9
56.5,1808.4,2003.5,1876.5,1896.1,99.0
57.0,1978.3,1921.1,1781.2,1893.5,101.4
57.5,1870.2,1868.6,1625.4,1788.0,140.9
58.0,1842.6,1931.2,1553.7,1775.8,197.4
58.5,2071.9,1878.4,1598.2,1849.5,238.2
59.0,1846.7,1842.0,1545.0,1744.6,172.8
59.5,1741.3,1812.6,1558.0,1704.0,131.4
60.0,1890.2,1701.8,1458.8,1683.6,216.3
60.5,1649.1,1672.6,1479.2,1600.3,105.6
61.0,1707.8,1685.3,1428.4,1607.2,155.3
61.5,1620.6,1599.6,1401.2,1540.5,121.1
62.0,1565.1,1605.9,1379.9,1517.0,120.4
62.5,1494.7,1556.6,1391.7,1481.0,83.3
63.0,1564.2,1571.3,1318.2,1484.5,144.1
63.5,1481.2,1568.7,1265.3,1438.4,156.1
64.0,1539.7,1500.2,1249.5,1429.8,157.4
64.5,1496.4,1513.9,1190.9,1400.4,181.7
65.0,1447.1,1393.6,1182.8,1341.1,139.7
65.5,1331.6,1319.4,1199.3,1283.4,73.1
66.0,1394.6,1331.8,1169.8,1298.7,116.0
66.5,1339.7,1264.2,1142.4,1248.8,99.5
67.0,1351.1,1237.3,1073.3,1220.6,139.6
67.5,1276.0,1242.2,1124.4,1214.2,79.6
68.0,1178.4,1161.4,1070.3,1136.7,58.1
68.5,1209.1,1158.3,1022.1,1129.8,96.7
69.0,1141.2,1115.8,1007.2,1088.1,71.2
69.5,1058.9,1047.9,996.6,1034.5,33.2
70.0,1076.4,1031.3,928.9,1012.2,75.6
70.5,1067.7,958.1,910.3,978.7,80.7
71.0,970.9,928.1,882.4,927.1,44.3
71.5,950.9,863.5,835.5,883.3,60.2
72.0,909.2,850.8,818.0,859.3,46.2
72.5,877.2,771.6,777.8,808.9,59.3
73.0,823.5,723.4,751.9,766.3,51.6
73.5,761.1,690.9,737.5,729.8,35.7
74.0,718.1,669.8,713.5,700.4,26.7
74.5,675.3,639.5,690.1,668.3,26.0
75.0,651.6,615.3,663.6,643.5,25.2
75.5,604.5,583.0,625.1,604.2,21.1
76.0,572.4,562.7,617.4,584.2,29.2
76.5,545.9,528.2,588.5,554.2,31.0
77.0,506.2,497.2,568.2,523.9,38.7
77.5,479.7,486.3,540.5,502.2,33.4
78.0,455.3,453.1,515.1,474.5,35.2
78.5,428.2,435.8,477.6,447.2,26.6
79.0,399.5,394.1,449.6,414.4,30.6
79.5,372.7,375.5,432.2,393.5,33.6
80.0,353.2,362.1,410.3,375.2,30.7
80.5,328.1,345.0,380.4,351.2,26.7
81.0,309.1,322.8,355.7,329.2,23.9
81.5,294.9,302.7,343.0,313.6,25.8
82.0,270.1,290.0,324.0,294.7,27.3
82.5,259.8,274.2,304.2,279.4,22.7
83.0,233.7,263.5,288.5,261.9,27.4
83.5,217.0,250.7,274.3,247.3,28.8
84.0,196.7,237.7,256.1,230.2,30.4
84.5,183.2,226.6,242.4,217.4,30.6
85.0,166.9,214.9,228.8,203.5,32.4
85.5,150.4,204.4,216.0,190.3,35.0
86.0,135.9,188.9,201.2,175.3,34.7
86.5,124.0,180.5,190.8,165.1,36.0
87.0,112.9,170.0,177.7,153.5,35.4
87.5,100.8,160.5,167.0,142.8,36.5
88.0,93.5,150.4,157.4,133.8,35.0
88.5,83.9,141.4,147.2,124.2,35.0
89.0,76.1,135.0,135.8,115.6,34.2
89.5,70.6,123.2,127.6,107.1,31.7
90.0,65.7,115.1,115.8,98.9,28.7
90.5,59.9,107.1,106.1,91.0,27.0
91.0,54.5,99.6,96.4,83.5,25.2
91.5,49.6,88.5,87.3,75.1,22.1
92.0,45.5,82.4,80.7,69.5,20.8
92.5,43.5,77.2,73.8,64.9,18.6