File: 01_Data/Excelsior/Cone/Excelsior_Cone_HF35Scalar_181018_R1.csv
LABORATORY,FSRI
TEST IDENT,BC_E1
OPERATOR,Dow
MATERIAL,Boot Camp Excelsior
ORIENTATION,Horizontal
HEAT FLUX,35
SURF AREA,0.01
C FACTOR,0.0399942
SPEC HOLDER DIFF,365.82
SPECIMEN MASS,12
SCAN TIME,0.25
O2 DELAY TIME,11
CO DELAY TIME,11
CO2 DELAY TIME,8
FLOW FACTOR,1
SCAN COUNT,1142
TIME TO IGN,18.75
END OF TEST SCAN,662
END OF TEST TIME,165.5
TEST STATUS,1