File: 01_Data/Excelsior/Cone/Excelsior_Cone_HF35Scalar_181018_R2.csv
LABORATORY,FSRI
TEST IDENT,BC_E2
OPERATOR,Dow
MATERIAL,Boot Camp Excelsior
ORIENTATION,Horizontal
HEAT FLUX,35
SURF AREA,0.01
C FACTOR,0.039478
SPEC HOLDER DIFF,364.69
SPECIMEN MASS,14.17
SCAN TIME,0.25
O2 DELAY TIME,11
CO DELAY TIME,11
CO2 DELAY TIME,8
FLOW FACTOR,1
SCAN COUNT,1147
TIME TO IGN,20.25
END OF TEST SCAN,667
END OF TEST TIME,166.75
TEST STATUS,1