File: 01_Data/Excelsior/Cone/Excelsior_HRRPUA_35.csv
Time after Ignition,Excelsior_R1,Excelsior_R2,Excelsior_R3,Mean,Std. Dev.
0.0,26.6,35.1,22.1,27.9,6.6
0.5,36.8,44.3,32.5,37.9,6.0
1.0,50.0,52.7,46.3,49.7,3.2
1.5,63.4,64.2,59.8,62.5,2.4
2.0,78.2,73.7,75.8,75.9,2.2
2.5,90.4,86.0,89.1,88.5,2.2
3.0,102.2,95.8,100.7,99.6,3.3
3.5,112.9,104.6,107.4,108.3,4.2
4.0,121.6,112.9,118.5,117.7,4.4
4.5,127.7,122.7,124.7,125.1,2.5
5.0,137.7,130.3,129.7,132.6,4.5
5.5,138.3,136.2,134.8,136.4,1.7
6.0,144.1,139.6,139.4,141.0,2.7
6.5,150.1,145.0,143.3,146.1,3.5
7.0,150.6,149.0,148.6,149.4,1.1
7.5,156.9,155.0,151.3,154.4,2.8
8.0,159.5,161.3,152.8,157.8,4.5
8.5,164.4,162.1,158.0,161.5,3.2
9.0,165.0,162.0,157.7,161.6,3.7
9.5,169.2,164.1,156.9,163.4,6.1
10.0,176.3,168.8,160.4,168.5,7.9
10.5,176.7,171.3,161.2,169.8,7.9
11.0,176.9,170.2,164.1,170.4,6.4
11.5,178.3,176.3,164.8,173.1,7.3
12.0,183.5,180.3,167.8,177.2,8.3
12.5,184.3,182.9,169.1,178.7,8.4
13.0,187.4,188.1,171.2,182.2,9.6
13.5,190.4,184.8,175.6,183.6,7.4
14.0,192.6,190.2,171.8,184.9,11.4
14.5,194.2,193.1,171.9,186.4,12.6
15.0,195.4,190.4,172.8,186.2,11.9
15.5,197.2,192.1,175.1,188.1,11.6
16.0,199.5,195.5,173.4,189.5,14.1
16.5,204.2,193.6,175.9,191.2,14.3
17.0,202.7,201.5,176.6,193.6,14.7
17.5,205.4,196.6,179.1,193.7,13.4
18.0,209.8,201.8,177.1,196.2,17.0
18.5,206.8,201.8,172.5,193.7,18.6
19.0,210.0,199.6,172.1,193.9,19.6
19.5,214.3,198.1,175.6,196.0,19.4
20.0,213.6,200.1,175.1,196.3,19.6
20.5,214.5,194.7,170.4,193.2,22.1
21.0,212.1,198.1,171.2,193.8,20.8
21.5,217.5,199.9,172.1,196.5,22.9
22.0,215.1,195.5,169.5,193.4,22.9
22.5,217.9,196.2,171.5,195.2,23.2
23.0,219.7,195.4,172.4,195.8,23.6
23.5,216.7,193.4,168.2,192.8,24.3
24.0,216.5,194.6,164.4,191.9,26.2
24.5,219.1,193.9,165.1,192.7,27.0
25.0,215.2,197.1,167.3,193.2,24.2
25.5,211.9,193.7,163.4,189.7,24.5
26.0,211.6,188.5,163.2,187.7,24.2
26.5,213.5,191.2,163.2,189.3,25.2
27.0,208.0,184.7,162.9,185.2,22.6
27.5,210.5,187.0,161.3,186.3,24.6
28.0,207.6,186.6,163.2,185.8,22.2
28.5,202.2,183.6,161.9,182.5,20.2
29.0,203.0,186.8,162.7,184.2,20.3
29.5,202.4,179.5,164.6,182.2,19.0
30.0,199.2,177.3,163.9,180.1,17.8
30.5,199.5,180.2,159.4,179.7,20.1
31.0,196.4,175.9,163.5,178.6,16.6
31.5,190.7,173.6,161.7,175.3,14.6
32.0,193.5,173.0,160.8,175.8,16.5
32.5,186.8,174.6,163.5,175.0,11.7
33.0,183.4,169.5,161.3,171.4,11.2
33.5,184.8,171.3,163.8,173.3,10.6
34.0,184.3,167.3,160.9,170.8,12.1
34.5,179.7,168.1,163.2,170.3,8.5
35.0,178.4,162.6,162.2,167.7,9.2
35.5,177.1,164.9,164.4,168.8,7.2
36.0,177.0,163.3,164.9,168.4,7.5
36.5,172.9,163.4,163.9,166.8,5.4
37.0,171.5,162.3,163.5,165.7,5.0
37.5,170.3,161.7,159.4,163.8,5.7
38.0,169.0,159.3,158.9,162.4,5.7
38.5,165.3,160.2,162.1,162.5,2.6
39.0,165.4,159.3,162.0,162.3,3.1
39.5,164.6,157.8,164.4,162.3,3.8
40.0,161.9,155.2,164.3,160.5,4.7
40.5,163.4,158.7,161.1,161.1,2.3
41.0,158.9,155.5,163.1,159.2,3.8
41.5,160.1,155.1,163.7,159.6,4.3
42.0,157.1,156.7,165.3,159.7,4.9
42.5,156.4,158.0,167.3,160.6,5.9
43.0,157.8,153.7,167.2,159.6,6.9
43.5,157.9,152.6,165.6,158.7,6.5
44.0,157.2,152.8,164.0,158.0,5.7
44.5,155.5,152.7,166.7,158.3,7.4
45.0,151.5,151.5,167.4,156.8,9.2
45.5,152.8,153.3,165.5,157.2,7.2
46.0,151.1,153.0,164.3,156.2,7.1
46.5,150.1,151.4,165.1,155.6,8.3
47.0,150.8,151.4,166.2,156.1,8.7
47.5,148.5,150.9,166.5,155.3,9.8
48.0,148.3,150.8,165.7,154.9,9.4
48.5,146.9,151.1,167.3,155.1,10.8
49.0,146.1,150.8,167.2,154.7,11.1
49.5,144.5,149.8,166.5,153.6,11.5
50.0,145.2,150.3,167.3,154.2,11.6
50.5,143.9,156.0,165.2,155.0,10.7
51.0,141.1,151.5,164.4,152.3,11.7
51.5,145.2,149.5,167.4,154.0,11.7
52.0,140.8,149.1,165.6,151.8,12.6
52.5,139.8,148.3,165.3,151.1,13.0
53.0,139.9,147.2,166.6,151.2,13.8
53.5,139.7,148.6,166.1,151.5,13.4
54.0,141.0,145.8,166.3,151.0,13.5
54.5,137.2,147.9,167.1,150.7,15.1
55.0,140.8,143.9,166.2,150.3,13.9
55.5,140.6,146.9,167.5,151.7,14.1
56.0,138.9,145.1,165.5,149.8,13.9
56.5,137.7,147.5,163.8,149.7,13.2
57.0,137.8,146.2,168.2,150.7,15.7
57.5,137.6,146.4,169.5,151.2,16.5
58.0,137.0,146.3,167.5,150.3,15.6
58.5,139.0,144.2,166.5,149.9,14.6
59.0,135.9,146.0,166.3,149.4,15.5
59.5,138.4,145.0,167.3,150.2,15.2
60.0,136.1,144.1,166.7,149.0,15.9
60.5,137.1,144.2,164.2,148.5,14.1
61.0,136.7,144.0,168.8,149.8,16.8
61.5,136.9,145.9,166.8,149.9,15.3
62.0,137.6,144.6,165.9,149.3,14.8
62.5,135.7,144.0,168.4,149.4,17.0
63.0,134.4,145.9,168.7,149.7,17.4
63.5,135.5,144.2,162.6,147.4,13.8
64.0,137.3,144.4,166.7,149.5,15.3
64.5,136.7,144.4,164.2,148.4,14.2
65.0,137.6,143.1,165.5,148.7,14.8
65.5,133.3,145.1,164.6,147.6,15.8
66.0,135.7,144.1,164.4,148.1,14.7
66.5,135.1,145.6,162.2,147.6,13.7
67.0,134.1,144.6,162.5,147.1,14.4
67.5,135.7,144.4,165.4,148.5,15.3
68.0,132.8,142.6,163.8,146.4,15.9
68.5,133.1,141.9,161.8,145.6,14.7
69.0,134.0,144.2,161.6,146.6,14.0
69.5,131.5,140.5,158.7,143.6,13.8
70.0,134.5,143.1,157.0,144.8,11.4
70.5,133.0,142.4,159.0,144.8,13.2
71.0,134.5,141.5,158.3,144.7,12.2
71.5,134.3,142.3,154.3,143.6,10.1
72.0,132.4,138.4,154.4,141.7,11.4
72.5,130.1,138.3,153.6,140.7,11.9
73.0,127.9,140.3,156.5,141.6,14.3
73.5,129.2,137.4,149.0,138.5,9.9
74.0,129.1,139.6,147.7,138.8,9.3
74.5,127.5,139.8,144.3,137.2,8.7
75.0,125.6,134.6,144.3,134.8,9.4
75.5,127.9,136.3,143.9,136.0,8.0
76.0,124.7,137.0,138.4,133.4,7.5
76.5,124.6,136.7,138.4,133.2,7.5
77.0,126.7,135.6,137.3,133.2,5.7
77.5,124.6,138.6,135.1,132.8,7.3
78.0,122.5,133.1,134.0,129.9,6.4
78.5,122.6,136.0,131.7,130.1,6.8
79.0,122.9,134.9,130.7,129.5,6.1
79.5,121.9,133.1,126.2,127.1,5.6
80.0,122.2,131.9,125.4,126.5,5.0
80.5,119.6,131.2,122.3,124.4,6.1
81.0,118.2,130.5,119.9,122.9,6.7
81.5,119.0,131.1,117.7,122.6,7.4
82.0,118.2,129.6,115.4,121.1,7.5
82.5,117.3,128.9,111.0,119.1,9.1
83.0,115.7,128.4,111.3,118.5,8.9
83.5,115.1,128.9,107.0,117.0,11.0
84.0,115.2,127.1,107.2,116.5,10.0
84.5,111.9,126.3,103.5,113.9,11.5
85.0,112.6,127.4,104.2,114.7,11.8
85.5,112.2,124.9,100.3,112.5,12.3
86.0,110.1,124.0,99.1,111.1,12.5
86.5,107.9,123.3,95.4,108.9,13.9
87.0,109.6,121.5,94.3,108.5,13.6
87.5,106.8,121.6,91.1,106.5,15.3
88.0,107.2,121.5,88.6,105.8,16.5
88.5,106.0,119.4,86.0,103.8,16.8
89.0,103.6,121.4,85.1,103.3,18.1
89.5,102.1,118.4,81.4,100.6,18.5
90.0,101.1,119.1,80.5,100.3,19.3
90.5,101.2,118.8,77.9,99.3,20.5
91.0,99.8,115.5,76.1,97.1,19.8
91.5,98.3,115.1,73.8,95.7,20.7
92.0,99.1,115.4,72.4,95.6,21.7
92.5,96.4,113.0,71.5,93.7,20.9
93.0,96.2,113.4,67.4,92.3,23.2
93.5,94.2,112.0,66.2,90.8,23.1
94.0,93.3,112.5,64.9,90.2,24.0
94.5,91.6,112.2,63.4,89.1,24.5
95.0,90.3,113.1,61.1,88.2,26.1
95.5,87.1,108.3,58.7,84.7,24.9
96.0,85.7,106.5,57.7,83.3,24.5
96.5,84.5,107.6,56.4,82.8,25.6
97.0,83.6,104.6,55.8,81.3,24.5
97.5,83.3,102.1,53.9,79.8,24.3
98.0,80.7,98.7,54.2,77.8,22.4
98.5,78.5,98.6,51.9,76.3,23.4
99.0,77.4,95.6,51.8,75.0,22.0
99.5,77.6,93.6,50.2,73.8,22.0
100.0,75.4,91.8,50.4,72.5,20.9
100.5,74.6,90.6,49.1,71.4,20.9
101.0,73.2,89.0,49.2,70.5,20.0
101.5,71.1,86.8,47.6,68.5,19.7
102.0,70.1,83.9,47.2,67.1,18.5
102.5,69.8,85.0,46.4,67.1,19.4
103.0,68.4,82.1,45.4,65.3,18.6
103.5,68.5,81.1,44.4,64.7,18.6
104.0,67.5,78.8,44.4,63.6,17.6
104.5,66.7,77.8,43.9,62.8,17.3
105.0,66.3,76.5,42.8,61.9,17.3
105.5,66.5,74.1,42.8,61.1,16.3
106.0,64.9,73.1,41.9,60.0,16.2
106.5,64.7,70.8,42.2,59.3,15.1
107.0,62.7,70.3,41.3,58.1,15.0
107.5,61.2,67.9,40.6,56.6,14.2
108.0,60.7,68.6,40.2,56.5,14.7
108.5,58.8,66.5,40.5,55.3,13.3
109.0,57.8,65.0,40.2,54.3,12.8
109.5,56.4,63.6,40.3,53.4,12.0
110.0,55.1,62.9,40.2,52.7,11.6
110.5,54.7,62.6,40.0,52.4,11.5
111.0,54.3,60.5,39.7,51.5,10.6
111.5,54.1,60.1,38.4,50.8,11.2
112.0,53.3,59.2,38.1,50.2,10.9
112.5,52.5,57.8,37.4,49.2,10.6
113.0,51.2,57.3,37.0,48.5,10.4
113.5,51.2,56.1,36.8,48.0,10.0
114.0,49.6,54.7,36.3,46.8,9.5
114.5,48.8,55.0,36.0,46.6,9.7
115.0,47.8,53.4,35.7,45.7,9.0
115.5,47.7,52.4,35.3,45.1,8.8
116.0,46.6,51.9,35.3,44.6,8.5
116.5,45.7,50.9,33.9,43.5,8.7
117.0,45.5,50.4,,48.0,3.4
117.5,44.9,49.3,,47.1,3.1
118.0,44.7,49.0,,46.8,3.0
118.5,45.2,49.4,,47.3,3.0
119.0,44.0,47.8,,45.9,2.7
119.5,43.9,47.7,,45.8,2.6
120.0,43.3,47.3,,45.3,2.8
120.5,43.2,46.3,,44.8,2.2
121.0,41.8,46.3,,44.1,3.2
121.5,42.2,46.6,,44.4,3.1
122.0,41.5,46.1,,43.8,3.2
122.5,40.7,45.2,,42.9,3.2
123.0,40.2,44.6,,42.4,3.1
123.5,40.1,44.0,,42.0,2.8
124.0,39.5,44.2,,41.9,3.3
124.5,38.7,43.7,,41.2,3.5
125.0,38.6,42.5,,40.5,2.7
125.5,38.5,42.9,,40.7,3.1
126.0,37.9,42.1,,40.0,3.0
126.5,37.7,42.2,,39.9,3.2
127.0,38.0,42.0,,40.0,2.9
127.5,37.4,41.8,,39.6,3.1
128.0,37.7,40.4,,39.1,1.9
128.5,37.5,40.7,,39.1,2.3
129.0,37.5,41.2,,39.3,2.6
129.5,36.4,40.6,,38.5,3.0
130.0,37.5,40.0,,38.7,1.8
130.5,36.8,39.1,,38.0,1.7
131.0,36.0,38.9,,37.4,2.1
131.5,36.5,38.4,,37.5,1.3
132.0,36.0,38.2,,37.1,1.5
132.5,35.6,38.4,,37.0,2.0
133.0,35.6,37.4,,36.5,1.3
133.5,35.4,36.7,,36.0,0.9
134.0,35.1,36.6,,35.9,1.1
134.5,34.9,36.5,,35.7,1.1
135.0,34.3,36.1,,35.2,1.3
135.5,34.5,35.7,,35.1,0.9
136.0,34.0,35.9,,35.0,1.3
136.5,33.5,35.1,,34.3,1.1
137.0,33.3,34.6,,33.9,0.9
137.5,33.0,34.3,,33.6,0.9
138.0,32.3,34.2,,33.3,1.3
138.5,32.2,34.4,,33.3,1.5
139.0,32.2,34.3,,33.2,1.5
139.5,31.5,34.2,,32.9,1.9
140.0,31.3,33.5,,32.4,1.5
140.5,30.9,33.4,,32.2,1.8
141.0,31.5,33.4,,32.4,1.3
141.5,31.0,32.8,,31.9,1.3
142.0,30.7,33.2,,32.0,1.8
142.5,31.1,33.0,,32.1,1.3
143.0,30.8,32.8,,31.8,1.4
143.5,30.6,32.4,,31.5,1.3
144.0,30.3,32.8,,31.5,1.8
144.5,30.4,32.3,,31.3,1.3
145.0,29.5,32.1,,30.8,1.8
145.5,30.0,32.0,,31.0,1.4
146.0,29.5,31.3,,30.4,1.3
146.5,29.8,31.4,,30.6,1.2
146.75,29.2,,,29.2,