File: 01_Data/Excelsior/Cone/Excelsior_Cone_HF35Scalar_181019_R3.csv
LABORATORY,FSRI
TEST IDENT,BC-E3
OPERATOR,Dow
MATERIAL,Boot Camp Excelsior
ORIENTATION,Horizontal
HEAT FLUX,35
SURF AREA,0.01
C FACTOR,0.03822
SPEC HOLDER DIFF,352.52
SPECIMEN MASS,17.55
SCAN TIME,0.25
O2 DELAY TIME,11
CO DELAY TIME,11
CO2 DELAY TIME,8
FLOW FACTOR,1
SCAN COUNT,1028
TIME TO IGN,20.5
END OF TEST SCAN,548
END OF TEST TIME,137
TEST STATUS,1