File: 01_Data/Excelsior/Cone/Excelsior_Cone_HF35Scan_181019_R3.csv
Names,Time,Stack TC,Smoke TC,Exh Press,Smoke Comp,Smoke Meas,CO Meter,CO2 Meter,O2 Meter,Sample Mass,Ext Coeff,Start Test,Flame Verif
Chan Gain,,500,500,1,1,1,1,1,1,1,1,1,1
Offset,,0,0,0.126212,0,0,0,0,0,0,0,0,0
Gain,,1,1,25.011,13.7876,15.8843,1,1,1,1.00085,1.0195,1,1
Units,sec,C,C,Pa,%,%,%,%,%,g,/m,,
Baseline,,31.662,33.3637,171.486,97.8321,99.5861,0.002922045,0.0623583,20.9127,-0.0225608,-0.158872,,
11,2.5,31.2795,31.9733,170.056,97.8901,99.248,0.002862173,0.06233,20.9109,920.693,-0.123201,0,0
22,5.25,31.6045,32.923,169.956,97.909,99.1937,0.00296431,0.0626196,20.9107,920.523,-0.116578,0,0
33,8,31.7142,33.0587,171.203,97.9296,99.6978,0.00294224,0.0626029,20.9116,920.513,-0.160031,0,0
44,10.75,31.7021,33.4695,172.349,97.9511,99.3507,0.002902244,0.0627114,20.9125,920.443,-0.126884,0,0
55,13.5,32.0662,33.4516,171.396,97.9742,98.6997,0.002728759,0.0629296,20.9123,920.403,-0.0659774,0,0
66,16.25,31.9895,33.9795,173.087,98.01,98.7026,0.002880195,0.0634734,20.9122,920.352,-0.0629772,0,0
77,19,32.55,33.7595,169.392,98.0512,97.673,0.003370708,0.0691115,20.9065,920.272,0.0345627,0,0
88,21.75,32.9933,35.7447,153.671,98.0798,100.887,0.004049984,0.14066,20.8042,919.962,-0.252399,0,1
99,24.5,36.2048,41.433,157.834,98.0992,101.103,0.004475948,0.2499,20.6734,919.622,-0.269693,0,1
110,27.25,38.6777,44.7996,161.275,98.1333,100.366,0.004680648,0.307918,20.6183,919.262,-0.201216,0,0
121,30,40.5007,47.8936,155,98.1552,100.483,0.004973745,0.335249,20.59,919.031,-0.209626,0,0
132,32.75,41.9606,50.5411,154.631,98.2103,100.946,0.005646344,0.357564,20.5677,918.711,-0.245668,0,0
143,35.5,44.3129,51.9116,153.628,98.2368,99.3982,0.006199609,0.377368,20.5534,918.361,-0.105113,0,0
154,38.25,45.269,54.857,155.158,98.2856,100.101,0.006319881,0.385217,20.5496,918.051,-0.163688,0,0
165,41,46.204,56.525,152.656,98.3462,101.92,0.006334128,0.383162,20.5562,917.73,-0.319207,0,0
176,43.75,47.8465,56.9162,156.379,98.3878,101.17,0.006329734,0.375856,20.5672,917.45,-0.249332,0,0
187,46.5,47.9986,57.7208,155.997,98.4329,101.543,0.006157123,0.369035,20.5742,917.14,-0.278175,0,0
198,49.25,49.0013,58.2033,159.766,98.4867,100.784,0.006134735,0.366771,20.5767,916.87,-0.206176,0,0
209,52,49.0942,59.1231,156.76,98.5212,101.288,0.006177518,0.366425,20.5776,916.559,-0.24771,0,0
220,54.75,49.0116,60.0131,152.342,98.5591,100.11,0.006075785,0.366919,20.5771,916.249,-0.13966,0,0
231,57.5,50.4719,59.5599,158.707,98.6037,102.063,0.005974633,0.367898,20.5752,915.909,-0.30836,0,0
242,60.25,50.1006,60.247,155.938,98.65,100.602,0.005828034,0.369829,20.5739,915.659,-0.175262,0,0
253,63,50.8303,60.8179,161.819,98.6849,101.206,0.005704324,0.373333,20.5705,915.318,-0.225628,0,0
264,65.75,50.885,61.704,158.667,98.719,102.323,0.005825871,0.376597,20.5673,915.038,-0.320647,0,0
275,68.5,50.7531,62.339,155.03,98.7463,100.137,0.006147325,0.377239,20.5663,914.718,-0.125111,0,0
286,71.25,52.1946,61.2936,154.85,98.7749,101.292,0.006496618,0.3766,20.566,914.457,-0.225051,0,0
297,74,51.282,62.8014,155.634,98.804,99.0342,0.006589698,0.37576,20.5659,914.167,-0.02081388,0,0
308,76.75,52.6759,61.4401,154.07,98.8233,98.9678,0.006453948,0.374833,20.5658,913.877,-0.0130627,0,0
319,79.5,52.0501,62.2514,156.262,98.878,98.8306,0.006321164,0.375356,20.5658,913.597,0.004291019,0,0
330,82.25,53.3248,61.7204,153.815,98.9306,98.0865,0.006212071,0.375998,20.566,913.336,0.0766323,0,0
341,85,52.704,62.8072,153.396,98.979,99.0245,0.006089104,0.377076,20.5667,913.046,-0.004109093,0,0
352,87.75,53.358,62.7736,153.371,99.0261,97.2091,0.006075496,0.372065,20.5717,912.796,0.165619,0,0
363,90.5,52.2104,63.4732,153.768,99.0707,99.5466,0.006048611,0.362427,20.5826,912.516,-0.0428503,0,0
374,93.25,52.418,61.5808,157.14,99.1393,100.203,0.0059664,0.352323,20.5972,912.276,-0.0954325,0,0
385,96,51.4679,62.0117,161.483,99.1869,100.507,0.005878079,0.335081,20.6179,912.045,-0.118229,0,0
396,98.75,51.775,60.7449,161.042,99.2441,100.888,0.005662871,0.314541,20.6398,911.865,-0.146952,0,0
407,101.5,52.2848,58.6449,160.976,99.3278,102.829,0.005795049,0.294405,20.6667,911.685,-0.309784,0,0
418,104.25,50.1428,59.4401,163.48,99.3985,102.809,0.006291938,0.267775,20.6939,911.555,-0.301693,0,0
429,107,51.3129,56.2002,159.818,99.465,102.484,0.006902955,0.242853,20.7167,911.445,-0.267375,0,0
440,109.75,49.1549,55.3343,162.976,99.5319,100.789,0.007652218,0.218284,20.7467,911.355,-0.112243,0,0
451,112.5,47.4372,55.0143,166.525,99.574,101.659,0.008498469,0.196631,20.768,911.265,-0.185338,0,0
462,115.25,46.8192,52.3933,168.261,99.6106,102.659,0.009698776,0.179691,20.7875,911.235,-0.269594,0,0
473,118,46.2399,51.2815,162.4,99.6632,102.072,0.0106413,0.164755,20.8039,911.195,-0.213546,0,0
484,120.75,45.2172,49.4018,167.915,99.7099,102.202,0.0113851,0.154226,20.814,911.135,-0.220774,0,0
495,123.5,46.105,47.1265,166.297,99.733,101.744,0.0117602,0.144727,20.8222,911.075,-0.178566,0,0
506,126.25,44.48,47.1009,167.747,99.7671,102.808,0.0119623,0.137019,20.8284,911.005,-0.26855,0,0
517,129,43.7786,45.9022,167.628,99.7667,102.374,0.0121643,0.131605,20.8325,910.985,-0.230726,0,0
528,131.75,43.7168,44.5604,161.889,99.7684,102.866,0.0122392,0.128331,20.8359,910.934,-0.273411,0,0
539,134.5,43.018,43.9698,165.996,99.7827,101.679,0.0122152,0.124117,20.8407,910.904,-0.16832,0,0
550,137.25,42.2318,43.7615,170.848,99.7915,101.993,0.01228921,0.119995,20.8452,910.884,-0.195112,0,0
561,140,42.9598,42.8536,167.685,99.7772,101.724,0.012172,0.117119,20.8492,910.834,-0.172774,0,0
572,142.75,40.277,44.0972,170.071,99.7709,101.603,0.0120609,0.114953,20.8523,910.794,-0.162722,0,0
583,145.5,41.2676,42.7032,168.104,99.7452,101.619,0.0117018,0.113585,20.8546,910.834,-0.166473,0,0
594,148.25,41.8657,41.7564,171.995,99.7339,101.471,0.009932429,0.106595,20.8655,910.844,-0.154386,0,0
605,151,40.4217,40.5038,169.482,99.7074,100.963,0.00842237,0.0944618,20.876,-0.0100085,-0.11192,0,0
616,153.75,39.936,38.6402,170.61,99.6998,101.881,0.007729223,0.0928916,20.8784,-0.0500425,-0.193512,0,0
627,156.5,37.5507,38.6893,164.935,99.6733,102.221,0.006426525,0.0890887,20.8852,-0.0300255,-0.225755,0,0
638,159.25,37.4781,38.4479,169.732,99.6169,102.97,0.00515399,0.0790091,20.8992,-0.0300255,-0.296098,0,0
649,162,39.2071,37.4964,167.68,99.5841,101.197,0.004199268,0.07251,20.9066,-0.040034,-0.143656,0,0
660,164.75,37.9499,38.3076,165.54,99.5466,101.881,0.003564526,0.0686941,20.9102,-0.0300255,-0.207304,0,0
671,167.5,36.9341,38.3517,168.837,99.4974,100.739,0.003461567,0.0663384,20.9123,-0.0300255,-0.110869,0,0
682,170.25,37.5634,37.9958,168.923,99.4633,101.553,0.003373381,0.0648039,20.9125,-0.040034,-0.185938,0,0
693,173,37.0072,37.9499,171.542,99.4158,101.629,0.003065184,0.0642322,20.9138,-0.0500425,-0.196914,0,0
704,175.75,38.2133,36.7467,173.093,99.3644,101.282,0.003004672,0.063829,20.9138,-0.040034,-0.170939,0,0
715,178.5,36.2669,38.4586,169.031,99.3169,101.307,0.003227893,0.063425,20.9109,-0.0600511,-0.177402,0,0
726,181.25,38.0214,36.4982,169.563,99.3939,100.819,0.003310914,0.0631475,20.9105,-0.0700596,-0.127275,0,0
737,184,37.9497,36.428,170.886,99.5462,101.169,0.003168759,0.0630262,20.9113,-0.0500425,-0.144615,0,0
748,186.75,36.2202,37.7438,171.333,99.6556,101.078,0.003170123,0.0628045,20.9116,-0.0300255,-0.126733,0,0
759,189.5,36.7155,36.592,165.717,99.7679,102.285,0.003302082,0.06253954,20.9117,-0.0700596,-0.222818,0,0
770,192.25,37.206,36.3832,167.965,99.8374,101.712,0.003405869,0.0625057,20.9123,-0.0500425,-0.166402,0,0
781,195,36.716,36.4173,171.526,99.911,101.676,0.003425418,0.0625521,20.9125,-0.0900766,-0.156569,0,0
792,197.75,36.5588,36.7889,173.08,99.9594,102.48,0.003401212,0.0624834,20.9125,-0.0900766,-0.222737,0,0
803,200.5,35.6723,37.3335,170.269,99.9981,102.405,0.003314482,0.0624218,20.9115,-0.110094,-0.212715,0,0
814,203.25,35.6839,37.3847,167.968,100.018,102.612,0.003289691,0.0623815,20.9109,-0.140119,-0.228967,0,0
825,206,35.6959,36.734,169.618,100.02,101.85,0.003061463,0.06231581,20.9115,-0.0900766,-0.162119,0,0
836,208.75,36.3865,36.2356,166.963,100.035,102.362,0.002952023,0.0623935,20.9116,-0.0700596,-0.205674,0,0
847,211.5,35.8698,37.2871,170.782,100.026,102.369,0.003213978,0.0623588,20.9115,-0.0600511,-0.207019,0,0
858,214.25,36.2607,36.9998,166.777,99.9973,102.242,0.003432333,0.0622153,20.9111,-0.0500425,-0.198556,0,0
869,217,36.7707,36.5239,168.275,99.9712,101.484,0.003474772,0.0622365,20.9109,-0.040034,-0.134285,0,0
880,219.75,35.5168,37.1767,165.993,99.9464,101.499,0.003191187,0.0623049,20.9109,-0.0800681,-0.137873,0,0
891,222.5,36.5294,36.0416,167.941,99.9123,102.207,0.002952851,0.06223898,20.9109,-0.0700596,-0.203106,0,0
902,225.25,35.9939,36.7529,171.982,99.8731,101.947,0.002910023,0.0623308,20.9118,-0.0600511,-0.183804,0,0
913,228,35.5648,36.8773,171.39,99.8117,101.178,0.003128152,0.062383,20.9122,-0.0900766,-0.12161,0,0
924,230.75,36.001,35.9415,168.717,99.7507,101.822,0.003249142,0.062388,20.9123,-0.110094,-0.18384,0,0
935,233.5,35.4374,36.9192,172.506,99.6707,101.541,0.003282836,0.0623806,20.912,-0.0900766,-0.166239,0,0
946,236.25,36.2122,36.203,171.206,99.5853,102.008,0.003404703,0.06232224,20.9117,-0.120102,-0.214968,0,0
957,239,35.223,36.7933,167.58,99.4759,101.566,0.003472612,0.0623106,20.9116,-0.100085,-0.185956,0,0
968,241.75,35.4694,36.3309,168.002,99.3935,101.477,0.003462751,0.06231815,20.9115,-0.0900766,-0.185517,0,0
979,244.5,34.9426,36.7922,169.837,99.2866,101.659,0.003497862,0.0623152,20.9115,-0.0900766,-0.211186,0,0
990,247.25,35.1032,36.6265,168.895,99.1923,101.083,,0.0622726,,-0.0800681,-0.168832,0,0
1001,250,35.8364,36.2526,169.114,99.1641,101.138,,,,-0.0600511,-0.176219,0,0
1012,252.75,34.8813,36.8285,168.679,99.1843,100.852,,,,-0.0600511,-0.149115,0,0
1023,255.5,35.259,36.4453,169.27,99.213,100.701,,,,-0.0800681,-0.133157,0,0
1028,256.75,35.7791,36.2121,169.165,99.2172,100.546,,,,-0.0800681,-0.118948,0,0