File: 01_Data/Excelsior/Cone/Excelsior_Cone_HF35Scan_181018_R1.csv
Names,Time,Stack TC,Smoke TC,Exh Press,Smoke Comp,Smoke Meas,CO Meter,CO2 Meter,O2 Meter,Sample Mass,Ext Coeff,Start Test,Flame Verif
Chan Gain,,500,500,1,1,1,1,1,1,1,1,1,1
Offset,,0,0,0.14301,0,0,0,0,0,0,0,0,0
Gain,,1,1,25.011,13.5312,14.6783,1,1,1,1.00099,1.04424,1,1
Units,sec,C,C,Pa,%,%,%,%,%,g,/m,,
Baseline,,39.9588,41.8313,180.306,100.201,98.9739,0.003443114,0.0522564,20.9604,-0.737692,0.112955,,
12,2.75,38.4941,40.6419,184.184,100.394,99.3443,0.003574805,0.0577858,20.9538,943.947,0.096277,0,0
24,5.75,39.0241,40.3999,176.765,100.391,99.3497,0.003542739,0.0578437,20.9541,943.837,0.0954795,0,0
36,8.75,39.0279,40.6705,182.876,100.384,98.62,0.00360143,0.05758274,20.9571,943.827,0.162365,0,0
48,11.75,39.0621,41.4254,177.12,100.399,97.5243,0.003601781,0.0565584,20.9595,943.717,0.26606,0,0
60,14.75,39.5878,41.9092,179.226,100.389,98.5963,0.003548043,0.0556127,20.9582,943.667,0.165023,0,0
72,17.75,39.7211,41.3568,177.112,100.384,97.0316,0.003724897,0.0582885,20.9388,943.627,0.311178,0,0
84,20.75,41.7507,45.5105,170.335,100.372,100.608,0.004002225,0.09843488,20.8141,943.297,-0.0215418,0,1
96,23.75,45.1133,50.3427,169.194,100.372,99.6588,0.004231298,0.175839,20.6999,942.836,0.06532988,0,0
108,26.75,47.9475,54.6872,161.119,100.357,98.6505,0.004669464,0.238509,20.6497,942.496,0.157125,0,0
120,29.75,50.5529,59.3372,163.965,100.334,100.571,0.005220893,0.285802,20.6171,942.086,-0.0216239,0,0
132,32.75,53.4977,62.352,163.687,100.32,99.1239,0.005751596,0.326904,20.5845,941.615,0.109873,0,0
144,35.75,55.3842,65.5238,156.585,100.309,98.6684,0.006104364,0.364328,20.5546,941.205,0.151012,0,0
156,38.75,57.4242,68.0287,161.698,100.297,99.6937,0.006155851,0.395154,20.5379,940.754,0.0552955,0,0
168,41.75,58.2759,69.9199,164.514,100.303,99.0603,0.006070819,0.41459,20.5291,940.344,0.114169,0,0
180,44.75,59.5756,71.9275,160.217,100.28,98.7893,0.006074306,0.427252,20.5388,939.933,0.137226,0,0
192,47.75,60.4283,72.2137,164.341,100.283,99.6023,0.006510973,0.425481,20.5607,939.563,0.0623761,0,0
204,50.75,60.3003,72.3701,170.632,100.283,99.1692,0.006781609,0.415637,20.5866,939.233,0.102299,0,0
216,53.75,60.1151,71.7375,162.726,100.284,98.2164,0.006710429,0.400313,20.6078,938.942,0.190844,0,0
228,56.75,59.8591,71.0167,166.32,100.285,99.1692,0.006554124,0.385148,20.6303,938.622,0.102488,0,0
240,59.75,59.8296,70.9221,161.936,100.264,98.1689,0.006528451,0.368457,20.6459,938.362,0.193463,0,0
252,62.75,59.4149,69.6767,170.794,100.242,99.274,0.006633774,0.355811,20.6578,938.071,0.0888506,0,0
264,65.75,59.0986,69.6501,169.402,100.223,99.5378,0.006785328,0.344172,20.6691,937.801,0.06280227,0,0
276,68.75,59.1759,68.8765,168.057,100.212,97.8921,0.006906174,0.333918,20.6788,937.491,0.214537,0,0
288,71.75,58.7017,68.5745,165.173,100.211,98.4287,0.006851246,0.324809,20.687,937.241,0.164347,0,0
300,74.75,59.1858,67.677,168.83,100.2,98.3696,0.006912488,0.316897,20.6917,936.95,0.16887,0,0
312,77.75,59.1891,67.4942,164.164,100.199,97.7922,0.007171918,0.311713,20.6937,936.74,0.222719,0,0
324,80.75,58.9545,66.9308,171.057,100.173,97.6551,0.007260126,0.307269,20.6961,936.45,0.23319,0,0
336,83.75,58.7873,66.7707,173.014,100.157,97.3227,0.007135339,0.304142,20.6977,936.25,0.262946,0,0
348,86.75,59.0084,66.463,164.478,100.131,96.5948,0.00687845,0.300939,20.7002,935.939,0.329298,0,0
360,89.75,58.7871,66.1373,173.627,100.119,97.3832,0.006471608,0.297567,20.704,935.719,0.253782,0,0
372,92.75,58.2003,66.0359,169.246,100.097,98.1653,0.006377852,0.29292,20.7114,935.519,0.178506,0,0
384,95.75,58.0354,66.0585,173.479,100.092,97.2426,0.006647898,0.287009,20.7191,935.309,0.264565,0,0
396,98.75,57.9863,64.8482,172.979,100.081,97.6041,0.006901859,0.280816,20.7275,935.119,0.229518,0,0
408,101.75,57.8772,64.4622,169.28,100.069,98.1738,0.006841653,0.273415,20.7375,934.898,0.17518,0,0
420,104.75,57.7798,63.7668,169.289,100.093,97.1418,0.006857416,0.26519,20.7483,934.758,0.274102,0,0
432,107.75,56.594,63.4931,167.665,100.079,99.0572,0.00702603,0.256251,20.7604,934.568,0.0940346,0,0
444,110.75,56.6276,62.7346,175.771,100.079,98.0368,0.007125943,0.245887,20.7735,934.428,0.188809,0,0
456,113.75,55.4838,61.8052,174.269,100.091,99.5249,0.006978277,0.234147,20.7898,934.278,0.0519498,0,0
468,116.75,55.5873,60.6554,172.144,100.114,99.347,0.007103284,0.22046,20.807,934.188,0.0704101,0,0
480,119.75,54.8573,59.2197,175.188,100.095,100.439,0.007558556,0.207123,20.8227,934.068,-0.0313563,0,0
492,122.75,53.7035,58.6095,170.948,100.089,99.4245,0.008206243,0.194287,20.832,933.967,0.0610387,0,0
504,125.75,53.0244,57.6888,170.923,100.091,99.2843,0.009055394,0.183111,20.8413,933.877,0.0741532,0,0
516,128.75,52.6591,55.7916,170.88,100.081,100.599,0.009329473,0.170432,20.8557,933.817,-0.0472545,0,0
528,131.75,51.8296,55.5802,172.06,100.065,98.4444,0.009593101,0.159951,20.8637,933.757,0.149591,0,0
540,134.75,51.4228,54.1115,174.164,100.034,99.3291,0.0101512,0.150631,20.873,933.717,0.0647292,0,0
552,137.75,50.7766,53.9025,173.106,100.016,98.6464,0.0107127,0.142234,20.8777,933.637,0.126275,0,0
564,140.75,50.16,53.1219,178.774,100.003,98.3373,0.0111979,0.135453,20.8837,933.597,0.153887,0,0
576,143.75,50.1447,51.6924,174.988,100.007,98.6406,0.011365,0.128839,20.8883,933.557,0.12606,0,0
588,146.75,49.3326,51.1308,177.527,99.9819,98.7728,0.0114743,0.123723,20.8905,933.517,0.111451,0,0
600,149.75,49.5351,51.002,172.782,99.9695,98.491,0.0118695,0.119162,20.8928,933.467,0.136484,0,0
612,152.75,48.6432,51.1182,177.391,99.9654,99.5974,0.012257,0.115301,20.8954,933.417,0.03377746,0,0
624,155.75,48.1225,50.455,176.565,99.9447,98.8946,0.0121434,0.111649,20.8987,933.357,0.0967545,0,0
636,158.75,48.3864,49.6053,175.913,99.9162,98.0453,0.0119577,0.10796,20.9022,933.327,0.173147,0,0
648,161.75,47.9671,48.8669,177.023,99.8762,98.2643,0.0120347,0.104966,20.9034,933.317,0.149033,0,0
660,164.75,46.9857,48.9255,175.654,99.8617,98.8565,0.012346,0.102624,20.9057,933.277,0.0926716,0,0
672,167.75,47.098,48.5227,174.124,99.8204,98.491,0.0113907,0.100214,20.9092,933.747,0.122814,0,0
684,170.75,46.0981,47.4634,179.689,99.7919,98.2164,0.009112938,0.0940989,20.926,98.2776,0.145773,0,0
696,173.75,45.3361,46.2562,179.345,99.7663,97.3044,0.007730096,0.0868227,20.9333,-0.750745,0.228878,0,0
708,176.75,44.7213,44.7213,179.655,99.7498,98.4162,0.006888884,0.0837369,20.9282,-0.670666,0.123293,0,0
720,179.75,45.3276,44.8262,183.945,99.7329,98.1877,0.005975071,0.0810454,20.9341,-0.740736,0.143026,0,0
732,182.75,43.8451,44.4852,177.369,99.7106,98.4413,0.005070705,0.0762161,20.9446,-0.780775,0.117355,0,0
744,185.75,44.3252,44.6672,179.387,99.6961,98.0193,0.004501645,0.0710319,20.95,-0.740736,0.155376,0,0
756,188.75,43.9956,44.7389,176.028,99.6747,97.7174,0.004074863,0.0667747,20.9544,-0.750745,0.181661,0,0
768,191.75,44.5693,44.1574,183,99.6263,98.5712,0.003823726,0.063227,20.9569,-0.740736,0.0975335,0,0
780,194.75,43.6674,43.6173,176.188,99.6111,98.4852,0.00347926,0.0607429,20.9584,-0.740736,0.104124,0,0
792,197.75,44.0809,43.7083,177.701,99.5685,98.1483,0.003343973,0.0588826,20.9589,-0.730726,0.131597,0,0
804,200.75,43.4296,43.8585,179.383,99.5442,97.7528,0.003425737,0.057216,20.959,-0.720716,0.166344,0,0
816,203.75,43.1828,43.992,183.436,99.4946,97.5454,0.003614131,0.0560118,20.9601,-0.730726,0.181239,0,0
828,206.75,43.1517,43.6963,177.631,99.4802,97.5736,0.003476802,0.0552516,20.961,-0.740736,0.177259,0,0
840,209.75,43.6756,43.5904,175.094,99.4888,98.4708,0.003285351,0.0545123,20.9612,-0.740736,0.0942107,0,0
852,212.75,42.8989,43.1804,181.124,99.4905,97.51,0.003302954,0.0541841,20.9598,-0.720716,0.184183,0,0
864,215.75,42.9246,42.8926,177.561,99.4897,98.0435,0.003412571,0.0545352,20.9595,-0.720716,0.134126,0,0
876,218.75,42.8813,43.4671,179.456,99.4843,98.4959,0.00370396,0.0547658,20.9597,-0.740736,0.0914597,0,0
888,221.75,42.1386,43.4155,180.066,99.4942,97.9638,0.003611657,0.0546439,20.9597,-0.740736,0.141996,0,0
900,224.75,42.5372,43.7195,184.87,99.4917,98.2652,0.003497586,0.0542724,20.9597,-0.760755,0.113623,0,0
912,227.75,42.0025,42.6191,180.26,99.4897,97.8867,0.003525593,0.0538262,20.9597,-0.750745,0.148785,0,0
924,230.75,42.4816,42.7495,178.765,99.4901,97.8334,0.003757386,0.05360087,20.9612,-0.780775,0.153813,0,0
936,233.75,42.3666,42.6665,179.412,99.488,97.8916,0.003836325,0.0532323,20.9615,-0.780775,0.148172,0,0
948,236.75,42.1961,42.7259,177.141,99.4938,97.6672,0.003665509,0.0529023,20.9602,-0.750745,0.169728,0,0
960,239.75,42.7064,42.6866,177.062,99.4946,97.5982,0.003617074,0.0527939,20.9603,-0.760755,0.176276,0,0
972,242.75,42.2534,42.3494,186.05,99.5082,97.9552,0.003482796,0.0527375,20.961,-0.760755,0.144085,0,0
984,245.75,42.1327,42.7782,185.462,99.5033,98.3154,0.00360514,0.0527407,20.9613,-0.770765,0.110012,0,0
996,248.75,41.6714,42.7357,179.999,99.4983,97.523,0.003746039,0.0525132,20.9609,-0.760755,0.183684,0,0
1008,251.75,41.5805,43.1532,178.419,99.5029,97.828,0.003819467,0.0525179,20.9602,-0.790785,0.155494,0,0
1020,254.75,42.1969,42.6293,180.91,99.5107,97.3151,0.003783236,0.0525216,20.9616,-0.780775,0.204368,0,0
1032,257.75,42.1708,42.83,175.507,99.4987,97.6506,0.00366799,0.0527258,20.962,-0.780775,0.171739,0,0
1044,260.75,41.7554,42.7253,180.633,99.5091,98.1931,0.003418438,0.0527761,20.9616,-0.820815,0.121945,0,0
1056,263.75,41.8595,42.5644,178.766,99.5107,98.5577,0.003161728,0.0527024,20.9619,-0.810805,0.0881455,0,0
1068,266.75,42.1249,42.4964,176.984,99.5243,97.8518,0.003166669,0.052531,20.9626,-0.790785,0.155249,0,0
1080,269.75,42.0652,42.4945,176.237,99.5334,98.3024,0.003431218,0.0525368,20.9623,-0.800795,0.113997,0,0
1092,272.75,41.799,42.2467,179.479,99.5413,97.8164,0.003637305,0.0529137,20.9609,-0.800795,0.16012,0,0
1104,275.75,41.8824,42.2859,175.577,99.5363,99.0079,,0.0534509,,-0.780775,0.048757,0,0
1116,278.75,41.2812,42.2484,185.909,99.5491,97.6076,,,,-0.730726,0.18041,0,0
1128,281.75,40.7654,42.4563,182.245,99.5541,97.8262,,,,-0.810805,0.160375,0,0
1140,284.75,40.9299,41.1874,179.326,99.5491,98.0717,,,,-0.760755,0.136963,0,0
1142,285.25,40.6035,41.146,177.868,99.557,98.1125,,,,-0.760755,0.133878,0,0