File: 01_Data/Excelsior/Cone/Excelsior_Cone_HF35Scan_181018_R2.csv
Names,Time,Stack TC,Smoke TC,Exh Press,Smoke Comp,Smoke Meas,CO Meter,CO2 Meter,O2 Meter,Sample Mass,Ext Coeff,Start Test,Flame Verif
Chan Gain,,500,500,1,1,1,1,1,1,1,1,1,1
Offset,,0,0,0.14301,0,0,0,0,0,0,0,0,0
Gain,,1,1,25.011,14.3065,15.6922,1,1,1,1.00094,1.047,1,1
Units,sec,C,C,Pa,%,%,%,%,%,g,/m,,
Baseline,,39.6114,41.5643,167.614,103.512,104.658,0.00221593,0.0504185,20.9581,-0.0975498,-0.101115,,
12,2.75,38.5403,40.3428,164.809,103.481,104.186,0.002732332,0.0514063,20.9587,945.577,-0.062341,0,0
24,5.75,38.9231,39.6948,169.602,103.501,104.658,0.002737814,0.0516081,20.9571,945.156,-0.102091,0,0
36,8.75,38.8689,40.8843,165.316,103.535,104.286,0.002483074,0.0533617,20.9526,945.256,-0.0663978,0,0
48,11.75,38.5773,41.3152,165.211,103.562,104.291,0.002214539,0.0567115,20.946,945.126,-0.0644576,0,0
60,14.75,39.686,41.0043,166.758,103.609,102.692,0.002272826,0.0607254,20.9409,945.126,0.08162751,0,0
72,17.75,39.1058,41.5869,164.83,103.648,101.689,0.002518583,0.0635416,20.9361,945.046,0.175238,0,0
84,20.75,39.3832,42.4407,151.979,103.692,103.741,0.003065469,0.0964435,20.8697,944.886,-0.004384778,0,1
96,23.75,43.1589,47.0172,152.266,103.733,103.758,0.003765722,0.177528,20.7478,944.316,-0.00219158,0,1
108,26.75,46.2151,51.8865,152.241,103.79,104.454,0.004107457,0.248517,20.6647,944.185,-0.0585576,0,0
120,29.75,48.1857,55.9674,148.677,103.833,105.116,0.004294144,0.300931,20.6207,943.675,-0.112741,0,0
132,32.75,50.9332,59.3036,153.42,103.881,103.084,0.004599836,0.339351,20.5861,943.305,0.0707348,0,0
144,35.75,52.6529,62.5425,148.115,103.938,105.091,0.005092913,0.371343,20.5593,942.884,-0.101343,0,0
156,38.75,54.6099,64.4591,155.921,103.969,104.697,0.005383817,0.393201,20.5483,942.464,-0.0640927,0,0
168,41.75,55.6388,67.3432,155.143,104.021,104.271,0.005465873,0.403778,20.5506,942.174,-0.0221248,0,0
180,44.75,57.0643,67.7069,153.337,104.074,105.22,0.005310035,0.402839,20.5597,941.753,-0.100566,0,0
192,47.75,57.5568,68.4773,154.53,104.123,102.903,0.005217712,0.396438,20.5751,941.433,0.108236,0,0
204,50.75,57.2384,69.2649,157.551,104.168,105.118,0.005144292,0.385788,20.593,941.083,-0.0833748,0,0
216,53.75,58.6771,68.6358,158.993,104.198,104.041,0.005125235,0.373353,20.6119,940.772,0.0138655,0,0
228,56.75,58.3438,68.8778,154.553,104.23,103.625,0.005293087,0.362228,20.6235,940.462,0.0534812,0,0
240,59.75,58.4492,68.4531,154.782,104.256,104.195,0.005528544,0.353509,20.6351,940.142,0.005418945,0,0
252,62.75,57.9839,68.157,160.914,104.275,102.797,0.005870672,0.345575,20.6412,939.921,0.131121,0,0
264,65.75,58.0769,68.1243,155.301,104.313,102.921,0.006027122,0.340331,20.6451,939.611,0.123392,0,0
276,68.75,57.9409,68.2854,154.668,104.343,103.799,0.006124184,0.33595,20.6491,939.301,0.0480023,0,0
288,71.75,58.4115,67.7243,154.649,104.378,104.948,0.005945782,0.33145,20.6522,938.92,-0.0499738,0,0
300,74.75,58.1369,67.4684,156.512,104.418,103.863,0.005584307,0.327636,20.6575,938.74,0.04889537,0,0
312,77.75,58.6744,67.5582,157.286,104.466,104.895,0.005455562,0.323906,20.6609,938.47,-0.0376865,0,0
324,80.75,57.9995,67.463,153.285,104.498,104.707,0.005316671,0.321487,20.662,938.2,-0.01835358,0,0
336,83.75,58.7668,67.1603,153.23,104.5056,105.121,0.00546225,0.3206833,20.6615,937.93,-0.0539222,0,0
348,86.75,57.9913,67.5351,158.47,104.534,103.706,0.005435068,0.319758,20.6639,937.649,0.0730095,0,0
360,89.75,58.7245,66.645,151.454,104.548,104.647,0.005147495,0.317013,20.6675,937.419,-0.008727816,0,0
372,92.75,58.7168,66.4705,150.628,104.55,105.331,0.005080547,0.314182,20.6713,937.169,-0.06835486,0,0
384,95.75,58.4184,66.8428,152.711,104.575,104.17,0.005197364,0.310229,20.6776,936.959,0.0356062,0,0
396,98.75,58.1436,66.0205,159.767,104.577,103.992,0.005439992,0.304924,20.6846,936.728,0.0515598,0,0
408,101.75,58.3076,65.641,157.619,104.589,105.324,0.005662592,0.298101,20.6925,936.508,-0.064316,0,0
420,104.75,57.8015,65.6882,156.545,104.597,104.924,0.005335076,0.290216,20.7016,936.308,-0.0286945,0,0
432,107.75,57.5911,65.2156,152.971,104.608,105.215,0.005229982,0.283936,20.7084,936.098,-0.0531866,0,0
444,110.75,57.5058,64.5374,161.407,104.592,106.005,0.005455606,0.276004,20.7207,935.938,-0.123244,0,0
456,113.75,56.6108,63.6258,156.441,104.607,105.656,0.005756873,0.265965,20.7312,935.737,-0.0916404,0,0
468,116.75,56.7163,62.4252,162.871,104.595,107.019,0.005777284,0.254877,20.7444,935.567,-0.21039,0,0
480,119.75,55.9569,62.0691,160.306,104.61,105.777,0.005794046,0.237441,20.771,935.467,-0.10186,0,0
492,122.75,55.1564,60.5952,165.23,104.614,106.876,0.00629889,0.218939,20.7911,935.347,-0.196448,0,0
504,125.75,53.9118,59.5518,159.698,104.609,105.801,0.00725705,0.202104,20.8103,935.327,-0.10405,0,0
516,128.75,53.5026,58.185,162.011,104.611,105.856,0.008410447,0.184593,20.8266,935.287,-0.108641,0,0
528,131.75,52.3019,56.8485,163.072,104.607,106.711,0.009773851,0.170798,20.8399,935.217,-0.182891,0,0
540,134.75,52.1109,55.609,168.37,104.606,105.978,0.0105172,0.158195,20.8518,935.147,-0.119728,0,0
552,137.75,51.4378,54.3133,161.077,104.612,106.085,0.0107211,0.148234,20.8607,935.067,-0.128483,0,0
564,140.75,50.5371,53.8038,159.708,104.616,106.384,0.01092747,0.140013,20.8663,935.027,-0.153972,0,0
576,143.75,50.1713,52.8663,159.258,104.627,106.327,0.0112351,0.133548,20.8708,934.977,-0.148052,0,0
588,146.75,49.944,51.6301,164.867,104.648,106.405,0.0117042,0.12777,20.8758,934.947,-0.152917,0,0
600,149.75,49.2949,51.1949,167.502,104.668,105.797,0.0119052,0.122942,20.8797,934.877,-0.0985444,0,0
612,152.75,48.5742,51.1614,168.651,104.7,105.921,0.0117944,0.118004,20.8843,934.897,-0.106474,0,0
624,155.75,48.3311,50.2964,162.153,104.727,106.065,0.0118399,0.113894,20.8881,934.817,-0.116586,0,0
636,158.75,47.8732,50.2475,166.377,104.761,104.782,0.0121298,0.110291,20.8917,934.767,-0.001871269,0,0
648,161.75,47.4324,49.6595,157.891,104.763,105.631,0.0121408,0.107238,20.893,934.707,-0.07576295,0,0
660,164.75,47.5634,48.7008,164.917,104.818,105.474,0.011948,0.104724,20.8955,934.727,-0.05731203,0,0
672,167.75,46.7822,48.8183,161.533,104.84,105.67,0.01186007,0.102858,20.8968,934.596,-0.0724397,0,0
684,170.75,47.1052,47.8978,165.702,104.87,105.794,0.0113639,0.101725,20.8973,934.556,-0.0806159,0,0
696,173.75,46.415,48.5229,166.512,104.887,105.882,0.0105688,0.101597,20.8974,87.8023,-0.0867302,0,0
708,176.75,45.8725,47.8194,166.435,104.92,106.272,0.008872118,0.099013,20.9044,-0.110103,-0.117616,0,0
720,179.75,46.1203,46.6133,165.695,104.939,105.684,0.006577587,0.0897878,20.923,-0.0800751,-0.0649714,0,0
732,182.75,45.9317,46.1047,167.769,104.954,105.755,0.004889813,0.0783655,20.9367,-0.0900845,-0.0697503,0,0
744,185.75,44.8164,46.1689,165.976,104.95,105.891,0.003721245,0.0703767,20.9439,-0.110103,-0.0819392,0,0
756,188.75,45.1599,45.2647,163.43,104.962,106.069,0.002948957,0.06509956,20.9499,-0.120113,-0.096343,0,0
768,191.75,44.0468,45.1148,166.689,104.98,106.836,0.002522956,0.0610164,20.9533,-0.140131,-0.160965,0,0
780,194.75,43.4856,44.9809,164.57,104.992,106.921,0.002539988,0.0580309,20.9549,-0.120113,-0.167179,0,0
792,197.75,43.6832,44.4249,163.534,105.011,107.315,0.002626854,0.0561182,20.9563,-0.0900845,-0.199332,0,0
804,200.75,43.5259,44.6035,165.355,105.019,106.562,0.002497333,0.0547441,20.9579,-0.110103,-0.133991,0,0
816,203.75,43.2064,44.0897,166.241,105.03,104.904,0.00234035,0.0537177,20.9588,-0.110103,0.0110556,0,0
828,206.75,42.9917,43.863,165.036,105.033,105.977,0.002285277,0.0529489,20.9591,-0.0800751,-0.0821529,0,0
840,209.75,42.8935,43.7907,167.62,105.033,106.323,0.002231957,0.05242826,20.959,-0.100094,-0.11203,0,0
852,212.75,43.4585,43.2547,167.424,105.029,105.856,0.002233711,0.0519794,20.9597,-0.100094,-0.0720281,0,0
864,215.75,42.5191,43.704,168.719,105.03,106.442,0.002292567,0.0517809,20.961,-0.0800751,-0.122633,0,0
876,218.75,42.5865,42.9774,168.252,105.017,106.092,0.00216973,0.0514137,20.9607,-0.100094,-0.0934817,0,0
888,221.75,42.4765,42.9588,167.291,105.022,105.972,0.002207039,0.0512133,20.9602,-0.0600563,-0.082734,0,0
900,224.75,42.5735,42.4472,168.702,105.014,105.888,0.002174238,0.05113063,20.9601,-0.110103,-0.076114,0,0
912,227.75,42.2398,42.7587,166.241,105.008,106.045,0.002177774,0.0510327,20.9601,-0.0900845,-0.09030021,0,0
924,230.75,41.9675,42.6341,165.502,105.008,106.432,0.002320324,0.0510917,20.9595,-0.100094,-0.123709,0,0
936,233.75,42.4197,42.3527,167.295,104.984,106.267,0.002478019,0.05118398,20.9596,-0.16015,-0.111587,0,0
948,236.75,41.8129,42.9558,166.684,104.981,106.186,0.002459356,0.0510518,20.9598,-0.16015,-0.104812,0,0
960,239.75,41.9341,42.5947,167.192,104.976,106.529,0.002164726,0.0510037,20.9601,-0.150141,-0.134844,0,0
972,242.75,42.1535,42.19,168.935,104.981,106.239,0.001903021,0.0509237,20.9605,-0.100094,-0.10945,0,0
984,245.75,41.6601,42.9309,165.722,104.962,106.224,0.002039797,0.0510761,20.9604,-0.110103,-0.109809,0,0
996,248.75,42.0332,42.4441,169.934,104.971,106.37,0.00235939,0.0510892,20.9595,-0.110103,-0.121665,0,0
1008,251.75,41.3279,42.6067,163.547,104.968,105.955,0.00244609,0.0510602,20.9609,-0.16015,-0.0859334,0,0
1020,254.75,41.7999,42.7222,162.871,104.968,106.796,0.002529312,0.0508596,20.9613,-0.120113,-0.158538,0,0
1032,257.75,41.6558,42.455,166.226,104.97,106.645,0.00243501,0.0508353,20.959,-0.140131,-0.145405,0,0
1044,260.75,41.3273,42.4798,164.761,104.968,106.136,0.002330425,0.051233,20.9568,-0.120113,-0.101649,0,0
1056,263.75,41.8026,42.6809,166.136,104.961,105.815,0.002416631,0.0518901,20.9558,-0.140131,-0.0744952,0,0
1068,266.75,41.7605,42.6662,169.892,104.962,106.29,0.002431797,0.0524521,20.9555,-0.120113,-0.115483,0,0
1080,269.75,41.5141,42.3819,167.061,104.968,106.032,0.002447977,0.0525547,20.9554,-0.100094,-0.0926174,0,0
1092,272.75,41.1794,42.4994,165.841,104.958,106.639,0.002447672,0.0525757,20.9545,-0.110103,-0.145899,0,0
1104,275.75,41.941,42.3307,165.589,104.957,106.363,,0.0527726,,-0.100094,-0.12219,0,0
1116,278.75,41.6414,42.3386,167.162,104.961,106.19,,,,-0.100094,-0.106942,0,0
1128,281.75,40.9596,42.7044,170.406,104.95,105.926,,,,-0.110103,-0.0850056,0,0
1140,284.75,41.6725,42.6649,166.853,104.956,105.753,,,,-0.100094,-0.0695109,0,0
1147,286.5,41.5497,42.043,163.924,104.965,106.064,,,,-0.110103,-0.0956603,0,0