File: 01_Data/ABS/MCC/ABS_MCC_30K_min_211018_R1.txt
Sample ID:	C:\MCC\MCC Cal\Test\PlasticA_MCC_30K_min_211018_R1.txt
Sample Weight (mg):	4.78
Heating Rate (C/s):	0.5
Combustor Temp (C):	900
N2 Flow Rate (cc/min):	80
O2 Flow Rate (cc/min):	20
Calibration File:	C:\MCC\MCC Cal\Coeff1 JN10440_30_210304.txt.txt
T Correction Coefficients:	0	1.024463	0
Time Shift (s):	14
*
Time (s)	Temperature (C)	N2 flow rate (cc/min)	O2 flow rate (cc/min)	Flow Rate (cc/min)	Oxygen (%)	HRR (W/g)	Heating rate (C/s)
0.000	106.377	80.000	19.995	102.962	20.135	-0.225	-0.026
8.000	106.427	80.000	19.995	102.962	20.129	0.147	0.019
16.001	106.419	80.001	19.994	102.975	20.122	0.643	0.052
24.000	106.656	80.001	19.995	103.081	20.109	1.474	0.041
32.000	107.224	80.000	19.993	103.108	20.097	2.278	0.093
40.000	108.255	80.001	19.995	103.148	20.095	2.452	0.188
48.000	109.728	79.999	19.994	103.180	20.091	2.697	0.210
56.001	111.549	80.000	19.995	103.187	20.090	2.809	0.249
64.001	113.715	80.002	19.996	103.197	20.094	2.489	0.272
72.000	116.123	80.000	19.995	103.177	20.091	2.697	0.342
80.000	118.757	80.000	19.997	103.240	20.088	2.899	0.344
88.000	121.628	80.001	19.993	103.213	20.086	3.038	0.358
96.000	124.727	80.005	19.995	103.236	20.088	2.900	0.394
104.000	128.028	80.000	19.994	103.208	20.079	3.535	0.412
112.001	131.469	80.002	19.994	103.235	20.083	3.266	0.430
120.001	135.056	80.002	19.996	103.232	20.087	2.968	0.440
128.000	138.771	80.001	19.994	103.232	20.076	3.718	0.459
136.000	142.580	80.000	19.995	103.234	20.079	3.496	0.459
144.000	146.529	80.001	19.995	103.235	20.084	3.170	0.464
152.000	150.507	80.003	19.994	103.209	20.079	3.537	0.485
160.000	154.459	80.000	19.997	103.189	20.085	3.117	0.490
168.000	158.430	80.001	19.996	103.194	20.082	3.304	0.497
176.000	162.467	80.004	19.995	103.194	20.078	3.590	0.486
184.000	166.501	80.002	19.995	103.193	20.083	3.247	0.479
192.000	170.535	80.000	19.994	103.179	20.082	3.341	0.506
200.000	174.564	80.002	19.994	103.159	20.075	3.790	0.506
208.000	178.579	80.002	19.995	103.184	20.081	3.418	0.476
216.000	182.542	80.001	19.994	103.185	20.082	3.331	0.522
224.000	186.575	80.001	19.995	103.157	20.082	3.337	0.502
232.000	190.527	80.002	19.995	103.166	20.084	3.206	0.498
240.000	194.535	80.002	19.995	103.150	20.079	3.527	0.504
248.000	198.500	80.002	19.995	103.156	20.082	3.328	0.514
256.000	202.449	80.002	19.995	103.155	20.078	3.606	0.489
264.000	206.319	80.002	19.995	103.157	20.081	3.396	0.451
272.001	210.339	80.000	19.995	103.146	20.080	3.488	0.506
280.000	214.281	80.001	19.994	103.160	20.077	3.628	0.523
288.000	218.299	80.001	19.995	103.153	20.073	3.926	0.545
296.001	222.194	80.001	19.996	103.130	20.074	3.882	0.505
304.000	226.166	80.001	19.995	103.131	20.072	3.984	0.495
312.000	230.279	80.002	19.994	103.149	20.071	4.053	0.541
320.000	234.254	80.004	19.993	103.130	20.072	3.983	0.477
328.000	238.263	80.000	19.994	103.121	20.059	4.869	0.525
336.000	242.215	80.002	19.994	103.120	20.066	4.395	0.501
344.000	246.209	80.004	19.995	103.120	20.058	4.938	0.508
352.000	250.304	80.001	19.994	103.152	20.057	5.000	0.539
360.000	254.307	80.000	19.995	103.148	20.057	5.008	0.463
368.000	258.275	80.002	19.994	103.120	20.056	5.048	0.495
376.000	262.273	80.002	19.995	103.118	20.058	4.938	0.523
384.000	266.285	80.001	19.994	103.121	20.054	5.215	0.502
392.000	270.347	80.002	19.994	103.136	20.059	4.896	0.502
400.000	274.354	80.002	19.995	103.115	20.063	4.592	0.542
408.000	278.340	80.003	19.993	103.118	20.060	4.809	0.478
416.000	282.393	80.001	19.995	103.124	20.068	4.277	0.494
424.000	286.443	80.004	19.995	103.108	20.068	4.235	0.531
432.000	290.446	80.003	19.995	103.111	20.071	4.034	0.534
440.000	294.485	80.001	19.995	103.110	20.073	3.922	0.500
448.000	298.452	80.000	19.995	103.111	20.070	4.104	0.498
456.000	302.464	79.999	19.996	103.099	20.070	4.157	0.487
464.000	306.457	80.000	19.996	103.093	20.073	3.929	0.503
472.000	310.475	80.001	19.995	103.112	20.066	4.386	0.476
480.000	314.578	80.000	19.993	103.102	20.064	4.512	0.498
488.000	318.580	80.002	19.997	103.111	20.057	5.003	0.518
496.000	322.553	80.001	19.994	103.084	20.054	5.189	0.493
504.000	326.620	80.004	19.994	103.091	20.046	5.774	0.477
512.000	330.625	80.002	19.994	103.099	20.037	6.360	0.500
520.000	334.699	80.001	19.996	103.089	20.023	7.307	0.511
528.000	338.710	80.000	19.994	103.096	20.011	8.082	0.501
536.000	342.745	80.001	19.994	103.086	20.000	8.816	0.488
544.000	346.750	80.001	19.995	103.085	19.979	10.265	0.508
552.000	350.846	79.999	19.997	103.084	19.953	11.979	0.476
560.000	354.965	80.002	19.995	103.079	19.924	13.931	0.532
568.000	359.008	80.001	19.995	103.080	19.890	16.209	0.508
576.000	363.084	80.001	19.994	103.087	19.847	19.113	0.504
584.000	367.168	80.004	19.995	103.095	19.802	22.170	0.549
592.000	371.206	80.004	19.993	103.092	19.741	26.280	0.512
600.000	375.325	80.002	19.995	103.096	19.669	31.108	0.524
608.000	379.360	80.001	19.995	103.089	19.580	37.125	0.507
616.000	383.405	80.002	19.996	103.090	19.488	43.306	0.505
624.000	387.410	80.001	19.994	103.099	19.377	50.794	0.492
632.000	391.440	80.000	19.994	103.120	19.240	59.999	0.519
640.000	395.515	80.001	19.994	103.128	19.073	71.230	0.499
648.000	399.532	80.003	19.996	103.149	18.871	84.919	0.544
656.000	403.471	80.003	19.996	103.159	18.612	102.349	0.497
664.000	407.434	80.002	19.995	103.187	18.295	123.691	0.499
672.000	411.378	80.003	19.994	103.198	17.928	148.489	0.481
680.000	415.270	80.001	19.994	103.209	17.507	176.914	0.497
688.000	419.231	80.002	19.995	103.273	17.023	209.572	0.478
696.000	423.194	80.001	19.994	103.257	16.533	242.673	0.456
704.000	427.218	80.000	19.994	103.310	16.108	271.301	0.489
712.000	431.283	80.001	19.995	103.322	15.808	291.601	0.516
720.000	435.369	80.001	19.996	103.327	15.657	301.854	0.509
728.000	439.466	80.005	19.995	103.329	15.694	299.326	0.500
736.000	443.640	80.002	19.994	103.334	15.917	284.356	0.509
744.000	447.865	80.002	19.996	103.372	16.193	265.275	0.555
752.000	452.045	80.004	19.995	103.250	16.380	252.841	0.517
760.000	456.465	80.003	19.994	103.160	16.987	211.861	0.570
768.000	460.762	80.001	19.995	103.269	17.543	174.321	0.536
776.000	465.063	80.001	19.995	103.180	17.971	145.396	0.530
784.000	469.392	80.003	19.994	103.116	18.364	118.943	0.537
792.000	473.610	80.001	19.995	103.114	18.713	95.460	0.531
800.000	477.873	80.000	19.996	103.087	18.995	76.444	0.549
808.000	481.981	80.003	19.995	103.080	19.233	60.440	0.531
816.000	486.053	80.001	19.995	103.078	19.427	47.374	0.507
824.000	490.171	80.002	19.995	103.073	19.593	36.223	0.531
832.000	494.260	80.003	19.996	103.066	19.747	25.865	0.500
840.000	498.379	80.006	19.995	103.038	19.880	16.922	0.514
848.000	502.424	80.001	19.995	103.067	19.975	10.532	0.529
856.000	506.485	80.002	19.994	103.072	20.034	6.547	0.522
864.000	510.543	80.002	19.994	103.052	20.069	4.208	0.502
872.000	514.625	80.002	19.995	103.062	20.084	3.213	0.527
880.000	518.800	80.002	19.994	103.075	20.095	2.440	0.528
888.000	522.829	80.003	19.993	103.061	20.097	2.298	0.499
896.000	526.976	80.004	19.996	103.076	20.101	2.044	0.508
904.000	531.067	80.003	19.995	103.080	20.102	1.992	0.514
912.000	535.183	80.003	19.994	103.051	20.101	2.011	0.511
920.000	539.295	80.003	19.995	103.085	20.104	1.821	0.513
928.000	543.359	80.002	19.995	103.089	20.108	1.594	0.507
936.000	547.464	80.003	19.994	103.080	20.105	1.774	0.503
944.000	551.586	80.001	19.994	103.055	20.105	1.788	0.499
952.000	555.670	80.002	19.994	103.077	20.104	1.843	0.495
960.000	559.795	80.000	19.996	103.075	20.102	1.996	0.478
968.000	563.875	80.001	19.995	103.067	20.104	1.815	0.513
976.000	567.908	80.004	19.995	103.067	20.102	1.944	0.482
984.000	572.064	80.002	19.995	103.080	20.106	1.732	0.530
992.000	576.204	80.001	19.994	103.074	20.105	1.751	0.509
1000.000	580.325	80.003	19.994	103.072	20.108	1.585	0.541
1008.000	584.447	80.003	19.995	103.041	20.107	1.664	0.550
1016.000	588.575	79.999	19.996	103.051	20.107	1.668	0.520
1024.000	592.684	80.002	19.995	103.047	20.108	1.566	0.524
1032.000	596.846	80.002	19.994	103.072	20.110	1.421	0.522
1040.000	600.980	80.000	19.994	103.081	20.110	1.452	0.516
1048.000	605.078	80.001	19.995	103.055	20.110	1.465	0.505
1056.000	609.106	80.003	19.994	103.062	20.108	1.555	0.504
1064.000	613.209	80.002	19.994	103.060	20.109	1.502	0.515
1072.000	617.275	80.003	19.996	103.061	20.106	1.694	0.528
1080.001	621.343	80.004	19.995	103.056	20.110	1.443	0.502
1088.000	625.406	80.004	19.995	103.054	20.108	1.572	0.485
1096.001	629.419	80.002	19.995	103.043	20.107	1.651	0.475
1104.001	633.530	80.000	19.995	103.057	20.110	1.441	0.550
1112.000	637.656	80.000	19.995	103.078	20.110	1.401	0.554
1120.000	641.781	80.000	19.995	103.068	20.109	1.502	0.528
1128.001	645.893	80.001	19.994	103.082	20.107	1.627	0.523
1136.001	650.040	80.003	19.996	103.045	20.105	1.799	0.533
1144.000	654.167	80.002	19.995	103.073	20.108	1.559	0.526
1152.000	658.328	80.002	19.994	103.072	20.108	1.594	0.501
1160.001	662.444	80.004	19.994	103.045	20.111	1.360	0.512
1168.001	666.506	80.005	19.994	103.077	20.111	1.398	0.522
1176.000	670.586	80.001	19.996	103.075	20.109	1.489	0.503
1184.000	674.606	80.002	19.994	103.058	20.111	1.347	0.532
1192.000	678.659	80.001	19.994	103.045	20.107	1.620	0.534
1200.001	682.640	80.001	19.995	103.049	20.112	1.306	0.490
1208.001	686.668	79.999	19.997	103.052	20.109	1.484	0.480
1216.000	690.759	80.004	19.994	103.057	20.112	1.299	0.511
1224.001	694.823	80.004	19.994	103.055	20.110	1.428	0.508
1232.000	698.863	80.003	19.996	103.041	20.108	1.546	0.499
1240.000	702.883	80.003	19.995	103.073	20.111	1.380	0.494
1248.000	706.969	80.004	19.995	103.045	20.109	1.524	0.510
1256.000	711.037	80.002	19.994	103.047	20.108	1.537	0.506
1264.001	715.065	80.001	19.995	103.065	20.109	1.500	0.530
1272.000	719.168	80.002	19.995	103.042	20.106	1.701	0.505
1280.001	723.226	80.003	19.996	103.060	20.108	1.559	0.502
1288.000	727.277	80.000	19.996	103.047	20.107	1.666	0.527
1296.000	731.318	80.000	19.997	103.042	20.107	1.618	0.505
1304.000	735.359	80.002	19.996	103.044	20.106	1.697	0.512
1312.000	739.402	80.002	19.996	103.056	20.103	1.883	0.495
1320.000	743.446	80.003	19.995	103.040	20.108	1.555	0.525
1320.500	743.692	80.005	19.993	103.043	20.105	1.745	0.501