File: 01_Data/ABS/MCC/ABS_MCC_30K_min_211019_R2.txt
Sample ID:	C:\MCC\MCC Cal\Test\PlasticA_MCC_30K_min_211019_R2.txt
Sample Weight (mg):	4.95
Heating Rate (C/s):	0.5
Combustor Temp (C):	900
N2 Flow Rate (cc/min):	80
O2 Flow Rate (cc/min):	20
Calibration File:	C:\MCC\MCC Cal\Coeff1 JN10440_30_210304.txt.txt
T Correction Coefficients:	0	1.024463	0
Time Shift (s):	14
*
Time (s)	Temperature (C)	N2 flow rate (cc/min)	O2 flow rate (cc/min)	Flow Rate (cc/min)	Oxygen (%)	HRR (W/g)	Heating rate (C/s)
-0.001	107.682	80.001	19.995	102.963	19.948	0.411	-0.010
8.000	107.626	79.982	19.998	102.996	19.948	0.459	0.001
16.000	107.618	80.018	19.993	103.002	19.948	0.438	-0.010
24.000	107.773	80.004	19.995	103.056	19.933	1.424	0.040
32.000	108.271	80.009	19.993	103.148	19.923	2.083	0.088
40.000	109.282	80.004	19.995	103.170	19.914	2.651	0.186
47.999	110.503	80.000	19.995	103.179	19.913	2.725	0.155
55.999	112.129	79.999	19.995	103.190	19.908	3.051	0.231
63.999	114.072	80.006	19.995	103.194	19.909	2.966	0.228
71.999	116.287	80.002	19.995	103.189	19.909	2.970	0.275
79.999	118.718	80.004	19.994	103.217	19.908	3.051	0.307
88.000	121.363	80.002	19.996	103.265	19.908	3.061	0.352
96.000	124.243	80.004	19.994	103.233	19.904	3.330	0.321
103.999	127.339	79.992	19.996	103.225	19.903	3.400	0.422
112.000	130.633	80.005	19.994	103.225	19.905	3.244	0.431
120.000	133.942	80.007	19.996	103.228	19.903	3.390	0.414
128.000	137.516	80.003	19.996	103.225	19.898	3.663	0.472
136.000	141.126	80.005	19.993	103.238	19.898	3.708	0.468
144.000	144.879	80.008	19.990	103.230	19.897	3.778	0.447
152.000	148.687	80.004	19.994	103.230	19.896	3.813	0.462
160.000	152.577	80.006	19.994	103.219	19.897	3.762	0.490
168.000	156.457	80.002	19.994	103.238	19.895	3.902	0.476
176.000	160.390	80.004	19.994	103.221	19.896	3.851	0.477
184.000	164.415	80.004	19.995	103.204	19.898	3.709	0.506
192.000	168.470	80.002	19.996	103.230	19.896	3.795	0.519
200.000	172.494	80.007	19.994	103.196	19.897	3.782	0.492
208.000	176.491	80.000	19.998	103.212	19.897	3.767	0.490
216.000	180.563	80.003	19.997	103.208	19.897	3.757	0.515
224.000	184.531	80.006	19.991	103.209	19.896	3.831	0.505
232.000	188.561	80.004	19.994	103.208	19.901	3.496	0.463
240.000	192.564	80.002	20.004	103.191	19.894	3.972	0.502
248.000	196.564	80.008	19.995	103.187	19.894	3.966	0.520
256.000	200.479	80.005	19.991	103.202	19.894	3.963	0.476
264.000	204.448	80.005	19.993	103.194	19.892	4.097	0.478
272.000	208.376	80.004	19.991	103.192	19.887	4.387	0.457
280.000	212.320	80.002	19.994	103.181	19.888	4.377	0.473
288.000	216.249	80.005	19.994	103.186	19.885	4.541	0.487
296.000	220.170	80.005	19.995	103.189	19.885	4.512	0.495
304.000	224.178	80.004	19.995	103.183	19.883	4.660	0.466
312.000	228.074	80.005	19.996	103.179	19.881	4.776	0.504
320.000	232.095	80.004	19.995	103.184	19.877	5.062	0.499
328.000	236.059	80.002	19.996	103.188	19.880	4.850	0.517
336.000	240.003	80.003	19.995	103.187	19.877	5.077	0.499
344.000	244.021	80.002	19.994	103.173	19.874	5.272	0.475
352.000	247.976	80.002	19.995	103.192	19.874	5.261	0.486
360.000	252.074	80.002	19.994	103.191	19.866	5.748	0.486
368.000	256.108	80.004	19.995	103.180	19.871	5.474	0.526
376.000	260.086	80.004	19.995	103.185	19.871	5.422	0.500
384.000	264.104	80.004	19.995	103.175	19.874	5.285	0.517
392.000	268.109	80.006	19.995	103.183	19.876	5.120	0.502
400.000	272.191	80.003	19.996	103.167	19.878	4.990	0.493
408.000	276.212	80.002	19.995	103.167	19.880	4.880	0.554
416.000	280.185	80.004	19.995	103.129	19.889	4.288	0.493
424.000	284.162	80.003	19.994	103.113	19.887	4.384	0.518
432.000	288.151	80.003	19.994	103.140	19.889	4.270	0.514
440.000	292.136	80.003	19.994	103.132	19.891	4.126	0.465
448.000	296.198	80.005	19.994	103.131	19.892	4.064	0.497
456.000	300.216	80.005	19.995	103.111	19.890	4.232	0.498
464.000	304.239	80.004	19.995	103.121	19.888	4.346	0.501
472.000	308.264	80.004	19.995	103.123	19.888	4.325	0.470
480.000	312.308	80.005	19.995	103.125	19.883	4.682	0.484
488.000	316.390	80.002	19.995	103.133	19.881	4.778	0.533
496.000	320.409	80.003	19.995	103.110	19.874	5.241	0.472
504.000	324.433	80.003	19.996	103.109	19.869	5.563	0.504
512.000	328.493	80.004	19.994	103.109	19.857	6.352	0.519
520.000	332.550	80.004	19.995	103.111	19.848	6.950	0.492
528.000	336.649	80.003	19.994	103.116	19.836	7.734	0.541
536.000	340.731	80.004	19.995	103.114	19.818	8.896	0.543
544.000	344.784	80.005	19.994	103.115	19.798	10.212	0.530
552.000	348.863	80.005	19.995	103.116	19.776	11.595	0.525
560.000	352.967	80.007	19.994	103.119	19.747	13.522	0.555
568.000	357.018	80.005	19.995	103.112	19.708	16.054	0.514
576.000	361.058	80.003	19.994	103.111	19.668	18.613	0.474
584.000	365.124	80.004	19.995	103.128	19.619	21.838	0.481
592.000	369.170	80.003	19.995	103.109	19.559	25.710	0.507
600.000	373.154	80.003	19.995	103.120	19.487	30.430	0.460
608.000	377.234	80.003	19.995	103.129	19.411	35.348	0.531
616.000	381.221	80.004	19.994	103.118	19.317	41.457	0.473
624.000	385.193	80.003	19.995	103.150	19.207	48.591	0.487
632.000	389.215	80.005	19.994	103.147	19.070	57.530	0.485
640.000	393.194	80.006	19.994	103.184	18.912	67.822	0.539
648.000	397.202	80.005	19.995	103.182	18.714	80.721	0.488
656.000	401.177	80.002	19.994	103.200	18.471	96.549	0.458
664.000	405.178	80.004	19.995	103.230	18.165	116.495	0.500
672.000	409.180	80.004	19.994	103.265	17.808	139.800	0.499
680.000	413.161	80.002	19.995	103.312	17.388	167.190	0.466
688.000	417.212	80.002	19.996	103.317	16.898	199.178	0.496
696.000	421.242	80.005	19.996	103.361	16.402	231.537	0.483
704.000	425.251	80.006	19.994	103.378	15.950	260.979	0.509
712.000	429.341	80.005	19.994	103.396	15.601	283.790	0.513
720.000	433.405	80.006	19.995	103.399	15.417	295.675	0.484
728.000	437.522	80.007	19.995	103.397	15.433	294.622	0.513
736.000	441.620	80.004	19.994	103.356	15.628	281.956	0.530
744.000	445.749	80.004	19.994	103.377	15.938	261.487	0.483
752.000	449.892	80.003	19.994	103.334	16.167	246.516	0.525
760.000	454.116	80.003	19.995	103.192	16.717	210.685	0.523
768.000	458.361	80.003	19.995	103.298	17.323	171.145	0.498
776.000	462.577	80.003	19.995	103.197	17.756	142.926	0.519
784.000	466.687	80.005	19.996	103.146	18.144	117.717	0.501
792.000	470.854	80.004	19.996	103.140	18.487	95.371	0.515
800.000	474.995	80.005	19.995	103.116	18.775	76.675	0.504
808.000	479.107	80.006	19.995	103.109	19.012	61.305	0.514
816.000	483.177	80.004	19.993	103.098	19.205	48.757	0.498
824.000	487.197	80.003	19.995	103.111	19.376	37.634	0.478
832.000	491.306	80.004	19.994	103.080	19.534	27.354	0.528
840.000	495.443	80.005	19.995	103.087	19.671	18.470	0.510
848.000	499.509	80.004	19.995	103.087	19.769	12.074	0.499
856.000	503.599	80.003	19.995	103.102	19.841	7.362	0.510
864.000	507.645	80.006	19.996	103.093	19.878	4.971	0.508
872.000	511.727	80.004	19.995	103.085	19.899	3.644	0.501
880.000	515.817	80.006	19.995	103.106	19.906	3.146	0.495
888.000	520.000	80.004	19.995	103.088	19.915	2.599	0.520
896.000	524.130	80.006	19.994	103.077	19.914	2.637	0.487
904.000	528.219	80.004	19.993	103.078	19.917	2.453	0.513
912.000	532.276	80.004	19.995	103.082	19.920	2.278	0.466
920.000	536.405	80.005	19.994	103.083	19.921	2.187	0.517
928.000	540.492	80.005	19.994	103.078	19.921	2.217	0.528
936.000	544.515	80.005	19.994	103.102	19.921	2.192	0.481
944.000	548.557	80.004	19.994	103.094	19.919	2.323	0.482
952.000	552.608	80.005	19.994	103.076	19.919	2.335	0.469
960.000	556.766	80.004	19.995	103.097	19.922	2.138	0.514
968.000	560.858	80.005	19.996	103.069	19.922	2.110	0.519
976.000	564.932	80.007	19.995	103.086	19.925	1.947	0.505
984.000	569.060	80.005	19.996	103.096	19.927	1.791	0.511
992.000	573.154	80.004	19.995	103.094	19.922	2.147	0.519
1000.000	577.268	80.003	19.995	103.089	19.927	1.835	0.459
1008.000	581.397	80.004	19.994	103.096	19.923	2.057	0.501
1016.000	585.482	80.003	19.995	103.106	19.921	2.191	0.519
1024.000	589.526	80.002	19.995	103.105	19.924	1.985	0.501
1031.999	593.532	80.004	19.994	103.090	19.922	2.141	0.488
1039.999	597.694	80.005	19.994	103.095	19.923	2.049	0.528
1048.000	601.789	80.005	19.995	103.103	19.923	2.054	0.550
1055.999	605.790	80.004	19.995	103.092	19.928	1.770	0.494
1063.999	609.856	80.007	19.994	103.106	19.926	1.864	0.485
1071.999	613.947	80.002	19.995	103.092	19.924	2.025	0.505
1080.000	618.044	80.004	19.995	103.095	19.921	2.175	0.518
1087.999	622.002	80.004	19.995	103.105	19.918	2.412	0.533
1096.000	625.958	80.004	19.995	103.100	19.919	2.351	0.491
1103.999	630.000	80.003	19.994	103.088	19.921	2.197	0.473
1111.999	634.039	80.004	19.994	103.098	19.921	2.198	0.516
1119.999	638.161	80.006	19.994	103.100	19.923	2.054	0.500
1127.999	642.171	80.007	19.994	103.091	19.924	2.025	0.492
1135.999	646.244	80.004	19.995	103.089	19.922	2.141	0.560
1143.999	650.359	80.007	19.995	103.099	19.924	2.020	0.539
1151.999	654.443	80.004	19.995	103.108	19.924	1.980	0.536
1159.999	658.718	80.004	19.994	103.111	19.927	1.823	0.503
1167.999	662.956	80.005	19.996	103.108	19.925	1.925	0.529
1175.999	667.213	80.005	19.996	103.101	19.921	2.214	0.566
1183.999	671.388	80.002	19.996	103.104	19.921	2.189	0.529
1191.999	675.676	80.005	19.995	103.108	19.920	2.258	0.561
1199.999	679.894	80.007	19.995	103.111	19.917	2.439	0.521
1207.999	684.136	80.005	19.995	103.111	19.918	2.422	0.515
1215.999	688.320	80.005	19.995	103.094	19.918	2.383	0.526
1223.999	692.525	80.007	19.994	103.110	19.918	2.412	0.539
1231.999	696.565	80.008	19.995	103.095	19.920	2.231	0.487
1239.999	700.480	80.001	19.996	103.096	19.919	2.342	0.497
1247.999	704.357	80.007	19.996	103.098	19.917	2.455	0.469
1255.999	708.348	80.002	19.995	103.100	19.919	2.298	0.513
1263.999	712.243	80.002	19.995	103.109	19.920	2.288	0.505
1272.000	716.195	80.003	19.996	103.107	19.916	2.496	0.483
1279.999	720.115	80.004	19.995	103.096	19.917	2.455	0.461
1288.000	724.095	80.005	19.994	103.107	19.918	2.393	0.515
1296.000	728.032	80.005	19.995	103.100	19.916	2.537	0.470
1303.999	732.098	80.007	19.995	103.107	19.915	2.599	0.517
1311.999	736.021	80.007	19.995	103.092	19.917	2.450	0.456
1319.999	739.994	80.003	19.993	103.105	19.916	2.553	0.501
1327.499	743.703	80.003	19.994	103.089	19.913	2.712	0.486