File: 01_Data/Black_PMMA/Cone/Black_PMMA_Cone_HF25Scalar_221219_R5.csv
LABORATORY,FSRI
TEST IDENT,Black_PMMA_HF25_5
OPERATOR,Dow
MATERIAL,Black PMMA
ORIENTATION,Horizontal
HEAT FLUX,25
SURF AREA,0.01
C FACTOR,0.0389493
SPEC HOLDER DIFF,-566
SPECIMEN MASS,101.45
SCAN TIME,0.25
O2 DELAY TIME,11
CO DELAY TIME,11
CO2 DELAY TIME,8
FLOW FACTOR,1
SCAN COUNT,3035
TIME TO IGN,108
END OF TEST SCAN,2555
END OF TEST TIME,638.75
TEST STATUS,1
PRE TEST CMT,Dimensions: 100.86 x 101.22 x 8.37 mm