File: 01_Data/Black_PMMA/Cone/Black_PMMA_Cone_HF50Scan_221129_R4.csv
Names,Time,Stack TC,Smoke TC,Exh Press,Smoke Comp,Smoke Meas,CO Meter,CO2 Meter,O2 Meter,Sample Mass,Ext Coeff,Start Test,Flame Verif
Chan Gain,,500,500,1,1,1,1,1,1,1,1,1.0,1.0
Offset,,0,0,0.137569,0,0,0,0,0,0,0,0.0,0.0
Gain,,1,1,25.011,13.0852,15.0251,1,1,1,1.00088,1.05531,1.0,1.0
Units,sec,C,C,Pa,%,%,%,%,%,g,/m,,
Baseline,,41.3016,42.621,164.248,99.211,97.4879,0.00174427,0.0780764,20.9445,-447.113,0.162214,,
20,4.75,39.77,41.1858,165.411,98.5688,96.9924,0.00145669,0.0887281,20.9319,157.839,0.149239,0.0,0.0
40,9.75,39.9607,41.2104,162.507,98.6542,97.196,0.00146808,0.0910016,20.9294,157.799,0.137851,0.0,0.0
60,14.75,40.2764,41.0348,164.954,98.7289,96.7673,0.00150257,0.0903592,20.9296,157.789,0.185778,0.0,0.0
80,19.75,40.1515,41.4359,161.773,98.7996,97.5129,0.00134264,0.0880459,20.9317,157.779,0.121353,0.0,0.0
100,24.75,40.2779,41.3209,152.343,98.8503,97.644,0.00238075,0.123475,20.8785,157.619,0.113661,0.0,1.0
120,29.75,43.008,42.8938,133.055,98.8559,95.6123,0.00469899,0.387773,20.4882,157.018,0.308836,0.0,1.0
140,34.75,53.6885,50.9195,131.101,98.8212,93.4994,0.00692328,0.742096,20.0095,156.137,0.512446,0.0,0.0
160,39.75,64.6554,61.1682,119.637,98.7701,92.082,0.00832496,0.972731,19.6867,155.126,0.649055,0.0,0.0
180,44.75,74.9858,71.2699,123.535,98.679,90.8023,0.0095883,1.11987,19.5146,154.085,0.770074,0.0,0.0
200,49.75,84.5387,81.626,108.254,98.566,90.6588,0.0107148,1.23188,19.359,152.894,0.774111,0.0,0.0
220,54.75,93.6564,91.0012,112.554,98.4454,90.5845,0.0115023,1.30769,19.2636,151.743,0.770366,0.0,0.0
240,59.75,101.962,100.464,113.417,98.3272,88.8407,0.0119196,1.36472,19.1842,150.532,0.939185,0.0,0.0
260,64.75,110.055,109.65,124.422,98.1794,90.816,0.012412,1.43632,19.0948,149.321,0.72169,0.0,0.0
280,69.75,116.646,117.927,109.503,98.0481,90.8844,0.0129783,1.46807,19.0577,148.04,0.702332,0.0,0.0
300,74.75,122.237,124.651,104.281,97.9255,90.1746,0.0128556,1.48622,19.0347,146.809,0.763332,0.0,0.0
320,79.75,128.158,132.139,108.707,97.8001,89.7834,0.0130895,1.51255,19,145.588,0.79171,0.0,0.0
340,84.75,133.114,138.406,112.294,97.7006,88.9915,0.0135102,1.54242,18.9597,144.217,0.864303,0.0,0.0
360,89.75,137.522,143.818,111.46,97.6252,89.3538,0.0131799,1.5718,18.9223,142.966,0.819545,0.0,0.0
380,94.75,141.545,149.149,104.12,97.588,89.329,0.0133074,1.59498,18.8919,141.645,0.818589,0.0,0.0
400,99.75,144.993,153.971,103.377,97.5525,89.7678,0.0136051,1.63819,18.8363,140.293,0.769854,0.0,0.0
420,104.75,148.634,159.081,108.148,97.5397,88.887,0.0135654,1.66653,18.7993,138.952,0.859924,0.0,0.0
440,109.75,151.924,163.37,106.873,97.5593,89.235,0.0139232,1.69203,18.7642,137.601,0.825605,0.0,0.0
460,114.75,155.353,167.84,97.22,97.58,89.8426,0.0143141,1.72861,18.7248,136.18,0.764764,0.0,0.0
480,119.75,158.435,172.268,108.149,97.6172,89.3166,0.0144494,1.75108,18.6893,134.788,0.822636,0.0,0.0
500,124.75,160.868,175.833,105.237,97.6659,88.9425,0.0143581,1.76335,18.6715,133.367,0.866116,0.0,0.0
520,129.75,164.051,179.697,100.377,97.737,89.0548,0.0147341,1.7829,18.6481,131.996,0.861166,0.0,0.0
540,134.75,166.843,183.34,107.678,97.7561,88.9081,0.0151581,1.81576,18.6024,130.565,0.878246,0.0,0.0
560,139.75,169.016,186.261,100.862,97.7745,89.3634,0.0150293,1.84399,18.57,129.144,0.832698,0.0,0.0
580,144.75,171.507,189.302,100.825,97.6387,88.29,0.0152553,1.8872,18.505,127.692,0.931702,0.0,0.0
600,149.75,173.424,192.154,100.511,97.6563,89.1153,0.0157385,1.92969,18.4565,126.111,0.847233,0.0,0.0
620,154.75,177.016,195.957,100.732,97.6587,87.5137,0.01635,1.96985,18.4031,124.65,1.01535,0.0,0.0
640,159.75,179.316,198.752,103.896,97.6583,87.6838,0.0165446,1.98585,18.3847,123.148,0.997333,0.0,0.0
660,164.75,181.28,201.881,92.6014,97.6567,88.9943,0.0172577,1.99882,18.3667,121.587,0.859854,0.0,0.0
680,169.75,183.961,204.81,107.64,97.6487,88.4963,0.0167919,2.04811,18.303,120.086,0.91104,0.0,0.0
700,174.75,185.83,206.909,109.688,97.6144,88.3097,0.0172703,2.08711,18.2492,118.524,0.927325,0.0,0.0
720,179.75,188.768,211.1,107.317,97.602,89.2524,0.0187679,2.13856,18.1836,116.913,0.827853,0.0,0.0
740,184.75,192.109,214.22,95.9148,97.5661,88.9278,0.0191241,2.19486,18.1232,115.261,0.858176,0.0,0.0
760,189.75,193.614,216.682,93.7532,97.5337,87.8108,0.0182599,2.21074,18.0971,113.57,0.972116,0.0,0.0
780,194.75,195.996,219.162,89.5239,97.5249,87.3211,0.0185517,2.25668,18.0388,111.898,1.02305,0.0,0.0
800,199.75,198.36,222.464,95.0118,97.5118,88.2707,0.0188243,2.30282,17.978,110.287,0.921675,0.0,0.0
820,204.75,201.838,225.506,86.1395,97.5138,88.0107,0.0193444,2.35542,17.9093,108.485,0.94917,0.0,0.0
840,209.75,204.273,229.025,91.626,97.5269,88.1048,0.0198402,2.40892,17.8459,106.834,0.940539,0.0,0.0
860,214.75,207.5,232.459,84.4153,97.5665,86.5017,0.0199635,2.42363,17.8226,105.162,1.11427,0.0,0.0
880,219.75,209.611,235.362,104.915,97.6028,87.6939,0.0204888,2.44387,17.7928,103.401,0.991005,0.0,0.0
900,224.75,212.41,237.927,89.5682,97.6663,88.0089,0.0207675,2.51017,17.714,101.609,0.963832,0.0,0.0
920,229.75,215.016,241.375,94.405,97.7258,87.6902,0.0210965,2.52489,17.6948,99.8678,1.00305,0.0,0.0
940,234.75,216.888,243.56,93.5502,97.7853,88.5271,0.0224992,2.5815,17.6193,98.1863,0.920765,0.0,0.0
960,239.75,220.589,248.051,97.6505,97.8831,88.9365,0.0226549,2.62397,17.5677,96.3447,0.887304,0.0,0.0
980,244.75,222.591,250.666,102.327,97.9738,89.0608,0.0221324,2.64927,17.5359,94.5331,0.882947,0.0,0.0
1000,249.75,225.342,254.186,91.7824,98.072,89.3854,0.0217214,2.69856,17.4767,92.7115,0.858542,0.0,0.0
1020,254.75,227.684,256.796,88.0599,98.1994,88.3767,0.0214062,2.71244,17.4581,90.7798,0.975623,0.0,0.0
1040,259.75,229.836,259.082,81.866,98.3288,89.5702,0.022076,2.75008,17.4101,88.9382,0.86363,0.0,0.0
1060,264.75,232.429,262.087,103.467,98.469,89.9554,0.0224743,2.8167,17.3212,87.1066,0.837095,0.0,0.0
1080,269.75,235.039,265.558,81.0294,98.5788,88.6775,0.0231831,2.83851,17.2934,85.2349,0.979864,0.0,0.0
1100,274.75,237.553,268.591,90.5039,98.7018,89.4143,0.0235493,2.85166,17.2781,83.3633,0.914803,0.0,0.0
1120,279.75,239.818,271.2,89.198,98.7637,90.0187,0.0239484,2.87285,17.2507,81.4616,0.858248,0.0,0.0
1140,284.75,242.002,273.995,77.942,98.798,89.6193,0.0230511,2.89221,17.2275,79.5599,0.902629,0.0,0.0
1160,289.75,243.406,275.995,80.75,98.7976,89.3313,0.0228768,2.8902,17.2303,77.6583,0.932383,0.0,0.0
1180,294.75,245.507,277.882,77.8427,98.7493,89.2676,0.0237318,2.862,17.2697,75.8867,0.934461,0.0,0.0
1200,299.75,246.424,279.366,97.3803,98.6622,88.5037,0.0238602,2.83446,17.2953,73.975,1.00586,0.0,0.0
1220,304.75,247.318,280.709,88.6988,98.5792,88.0318,0.0242403,2.82441,17.3123,72.1234,1.04754,0.0,0.0
1240,309.75,248.692,282.936,84.2191,98.461,85.9795,0.0250939,2.87581,17.247,70.2017,1.25481,0.0,0.0
1260,314.75,250.667,284.423,89.5857,98.3787,88.0722,0.025609,2.96189,17.1341,68.29,1.02446,0.0,0.0
1280,319.75,253.259,286.806,88.1653,98.4378,87.3427,0.0262871,3.03314,17.0444,66.3483,1.10701,0.0,0.0
1300,324.75,255.545,289.945,74.6187,98.8407,88.2978,0.0269982,3.10308,16.9652,64.3666,1.04415,0.0,0.0
1320,329.75,258.584,293.146,95.8263,99.0903,86.3403,0.0273058,3.15434,16.9134,62.3648,1.27502,0.0,0.0
1340,334.75,260.073,294.821,104.931,99.183,88.3285,0.02612,3.09441,16.9786,60.4331,1.07292,0.0,0.0
1360,339.75,259.991,295.938,83.2895,99.1286,87.5619,0.0249605,2.91828,17.2111,58.6115,1.14855,0.0,0.0
1380,344.75,257.313,294.483,93.8753,98.8982,87.6004,0.0233753,2.62407,17.5623,57.0702,1.12294,0.0,0.0
1400,349.75,250.971,288.645,101.833,98.6994,87.4568,0.0200718,2.24971,18.0398,55.6789,1.11949,0.0,0.0
1420,354.75,239.652,279.168,119.556,98.8603,89.1452,0.0151929,1.58556,18.9564,54.7081,0.957567,0.0,0.0
1440,359.75,221.217,262.382,141.78,99.0715,97.578,0.0106116,0.77036,20.0678,54.5279,0.140617,0.0,0.0
1460,364.75,198.207,239.645,144.161,99.2752,98.0356,0.00777095,0.302297,20.6823,54.578,0.116316,0.0,0.0
1480,369.75,180.372,220.852,148.37,99.4277,97.7642,0.00494581,0.151113,20.8652,54.5279,0.156197,0.0,0.0
1500,374.75,166.11,204.519,148.046,99.4864,98.1356,0.00304423,0.110121,20.9202,54.5379,0.126559,0.0,0.0
1520,379.75,154.698,190.203,151.555,99.4433,97.489,0.00228563,0.0952689,20.9388,54.5279,0.183734,0.0,0.0
1540,384.75,143.803,177.003,149.776,99.282,97.7623,0.00189568,0.0884499,20.9459,54.5279,0.142791,0.0,0.0
1560,389.75,135.701,166.349,154.334,98.9993,97.6353,0.00187143,0.0845961,20.9495,54.5279,0.128426,0.0,0.0
1580,394.75,127.962,156.335,153.839,98.6658,97.5784,0.00195445,0.082477,20.9471,54.5379,0.102587,0.0,0.0
1600,399.75,121.263,147.405,149.02,98.33,96.5357,0.00169817,0.080775,20.9502,54.5079,0.170475,0.0,0.0
1620,404.75,116.122,139.87,149.972,98.0005,95.9241,0.00160819,0.0795212,20.9513,54.4979,0.198251,0.0,0.0
1640,409.75,110.759,132.346,152.236,97.741,95.881,0.00160353,0.0791425,20.9514,54.4979,0.17786,0.0,0.0
1660,414.75,106.319,125.299,151.094,97.5761,95.8709,0.00181758,0.0787508,20.9498,54.4879,0.163201,0.0,0.0
1680,419.75,102.35,119.701,150.219,97.5217,95.6939,0.00145002,0.0784535,20.9486,54.5079,0.175153,0.0,0.0
1700,424.75,98.9987,114.236,153.845,97.5868,96.1611,0.00151734,0.0783049,20.9485,54.5179,0.136241,0.0,0.0
1720,429.75,95.8769,109.714,152.792,97.7601,95.8979,0.00164812,0.0780225,20.9505,54.5079,0.178037,0.0,0.0
1740,434.75,93.1341,105.415,150.108,97.9878,95.9071,0.00142214,0.0779747,20.9495,54.4879,0.19868,0.0,0.0
1760,439.75,90.7551,101.466,152.811,98.2721,96.7425,0.00179355,0.0780826,20.951,54.5079,0.145213,0.0,0.0
1780,444.75,88.7427,97.7241,154.074,98.5676,97.1107,0.00185386,0.0778941,20.9515,54.4979,0.137842,0.0,0.0
1800,449.75,86.2725,94.2302,153.159,98.7653,96.8705,0.00160798,0.078371,20.9503,54.5379,0.17932,0.0,0.0
1820,454.75,84.8397,91.071,151.341,98.7996,96.7902,0.00178943,0.0786384,20.9484,54.4979,0.19021,0.0,0.0
1840,459.75,82.5371,88.0493,149.95,98.6347,96.9521,0.00165812,0.0789523,20.9467,54.5179,0.159276,0.0,0.0
1860,464.75,81.4393,86.1642,153.702,98.4358,96.5046,0.00151682,0.0792506,20.9457,54.5179,0.183422,0.0,0.0
1880,469.75,80.2673,83.9338,153.398,98.3012,96.2629,0.00175057,0.0793987,20.9455,54.5179,0.193967,0.0,0.0
1900,474.75,78.9665,81.8181,149.233,98.9653,96.5188,,,,54.5079,0.231722,0.0,0.0
1920,479.75,77.3155,80.3864,152.872,99.1462,97.2873,,,,54.568,0.175213,0.0,0.0
1931,482.5,76.6382,78.3553,152.271,98.9925,97.0493,,,,54.548,0.183519,0.0,0.0