File: 01_Data/Black_PMMA/Cone/Black_PMMA_Cone_HF25Scan_221219_R5.csv
Names,Time,Stack TC,Smoke TC,Exh Press,Smoke Comp,Smoke Meas,CO Meter,CO2 Meter,O2 Meter,Sample Mass,Ext Coeff,Start Test,Flame Verif
Chan Gain,,500,500,1,1,1,1,1,1,1,1,1.0,1.0
Offset,,0,0,0.136404,0,0,0,0,0,0,0,0.0,0.0
Gain,,1,1,25.011,14.0546,13.8657,1,1,1,1.00087,1.04452,1.0,1.0
Units,sec,C,C,Pa,%,%,%,%,%,g,/m,,
Baseline,,17.4224,17.7858,175.32,106.466,107.218,0.000399926,0.0561475,20.9305,-443.837,-0.0644253,,
32,7.75,16.6725,17.0772,175.343,105.151,105.993,0.000271855,0.0638425,20.9183,156.977,-0.0730752,0.0,0.0
64,15.75,17.0007,17.1285,174.984,104.734,105.561,0.00032693,0.0589338,20.9249,156.977,-0.0720882,0.0,0.0
96,23.75,16.6938,16.9737,177.587,104.651,105.563,0.000291859,0.0567839,20.9272,156.997,-0.0795536,0.0,0.0
128,31.75,16.4947,17.2826,177.338,104.933,105.837,0.000365282,0.0629092,20.9248,156.987,-0.078572,0.0,0.0
160,39.75,17.2809,17.1927,175.435,105.336,106.065,0.000407158,0.0601451,20.9228,156.967,-0.0631969,0.0,0.0
192,47.75,17.3701,17.4933,176.875,105.648,106.474,0.000430607,0.0576189,20.928,156.977,-0.0713567,0.0,0.0
224,55.75,17.0849,17.4362,173.429,105.858,106.598,0.000369414,0.0567358,20.9283,156.957,-0.0638469,0.0,0.0
256,63.75,17.132,17.4149,170.817,105.991,106.68,0.00053529,0.0552457,20.9303,156.957,-0.0593989,0.0,0.0
288,71.75,17.3604,17.7998,171.892,106.152,107.03,0.000213295,0.0535831,20.9346,156.957,-0.0755478,0.0,0.0
320,79.75,17.3333,17.7286,175.018,106.285,107.125,0.000102026,0.0534528,20.9365,156.947,-0.072189,0.0,0.0
352,87.75,18.0808,17.9668,177.649,106.327,107.07,0.000260604,0.054076,20.9361,156.937,-0.0638238,0.0,0.0
384,95.75,17.7219,18.1566,175.358,106.316,107.116,0.000101536,0.0553645,20.9338,156.907,-0.0686943,0.0,0.0
416,103.75,18.1448,18.4381,176.654,106.205,106.965,0.000257003,0.0550914,20.9326,156.897,-0.0653786,0.0,0.0
448,111.75,18.6134,18.981,157.42,105.982,103.127,0.000401514,0.0559565,20.9332,156.537,0.250193,0.0,1.0
480,119.75,24.3564,23.2786,146.439,105.659,101.521,0.000940132,0.172288,20.8813,155.636,0.366025,0.0,0.0
512,127.75,32.3259,31.0955,148.834,105.199,100.134,0.00296698,0.49667,20.4647,154.475,0.452155,0.0,0.0
544,135.75,39.4933,38.4589,146.142,104.762,98.5252,0.00424007,0.66703,20.1632,153.324,0.562374,0.0,0.0
576,143.75,45.6442,44.7679,142.967,104.59,98.3581,0.00490496,0.714625,20.0553,152.073,0.562915,0.0,0.0
608,151.75,50.457,50.9593,139.901,104.779,98.1084,0.00529836,0.738855,20.014,150.862,0.602681,0.0,0.0
640,159.75,54.8853,56.036,138.716,105.278,98.6522,0.00563246,0.743065,20.0041,149.621,0.595631,0.0,0.0
672,167.75,58.0851,60.7205,138.719,105.812,98.5223,0.00543994,0.764672,19.9807,148.43,0.654061,0.0,0.0
704,175.75,61.4986,64.2438,136.372,106.04,99.0364,0.00555028,0.769189,19.9671,147.148,0.626036,0.0,0.0
736,183.75,65.1548,68.0457,136.949,105.863,97.5004,0.00553141,0.782904,19.9545,145.867,0.753976,0.0,0.0
768,191.75,67.6939,71.5515,140.08,105.612,97.662,0.0057935,0.801028,19.93,144.586,0.717092,0.0,0.0
800,199.75,70.2083,74.1633,137.139,106.387,97.3726,0.00598174,0.811231,19.9209,143.345,0.811243,0.0,0.0
832,207.75,72.0353,77.3276,135.771,106.191,98.3606,0.00612011,0.814718,19.9023,142.034,0.701806,0.0,0.0
864,215.75,74.8474,80.2196,137.219,106.234,99.2615,0.0061628,0.821053,19.8942,140.693,0.622043,0.0,0.0
896,223.75,76.728,82.1936,129.772,106.747,99.2175,0.00596654,0.829052,19.8882,139.332,0.670206,0.0,0.0
928,231.75,78.891,85.172,133.911,106.424,99.4612,0.0060515,0.843255,19.8729,137.96,0.619925,0.0,0.0
960,239.75,80.896,87.635,131.555,105.26,97.3861,0.00640326,0.876327,19.8306,136.619,0.712375,0.0,0.0
992,247.75,83.342,90.2055,128.896,104.638,95.6461,0.00617987,0.894217,19.8128,135.178,0.823263,0.0,0.0
1024,255.75,85.3074,92.6915,128.44,105.437,96.7268,0.00631138,0.91265,19.7811,133.727,0.789981,0.0,0.0
1056,263.75,86.8881,94.8524,124.18,106.056,98.7952,0.00700755,0.933615,19.7438,132.326,0.649823,0.0,0.0
1088,271.75,88.9108,96.7824,128.361,105.642,98.532,0.00717204,0.944293,19.7325,130.904,0.638362,0.0,0.0
1120,279.75,90.7698,98.768,127.263,106.424,99.1722,0.00688144,0.950413,19.7255,129.403,0.646587,0.0,0.0
1152,287.75,92.5095,100.467,132.145,106.054,98.8164,0.00697448,0.962479,19.7057,127.932,0.647675,0.0,0.0
1184,295.75,94.4273,102.807,138.114,106.783,99.0643,0.00718238,0.985613,19.687,126.4,0.687492,0.0,0.0
1216,303.75,95.9905,104.472,132.561,105.803,96.0887,0.00735392,1.00604,19.6504,124.849,0.882401,0.0,0.0
1248,311.75,97.94,106.716,134.413,104.686,94.9141,0.00721466,1.00237,19.6531,123.318,0.897827,0.0,0.0
1280,319.75,99.7067,108.363,125.686,105.684,97.9256,0.00751578,1.0383,19.6124,121.696,0.698606,0.0,0.0
1312,327.75,101.644,110.692,132.808,105.916,98.0069,0.00727887,1.05674,19.5849,120.165,0.711103,0.0,0.0
1344,335.75,103.441,112.517,135.461,106.065,97.1826,0.0075931,1.06464,19.5631,118.553,0.801319,0.0,0.0
1376,343.75,104.872,113.771,130.587,105.884,96.6346,0.00763021,1.07901,19.5529,116.922,0.837516,0.0,0.0
1408,351.75,106.649,115.833,133.953,106.736,99.2175,0.00801347,1.10244,19.5227,115.311,0.669286,0.0,0.0
1440,359.75,108.042,117.803,125.961,106.138,98.1402,0.00820205,1.12358,19.4901,113.689,0.717812,0.0,0.0
1472,367.75,109.514,118.743,119.899,104.825,96.6122,0.00833439,1.12245,19.4789,112.008,0.747581,0.0,0.0
1504,375.75,111.232,120.452,121.053,105.045,95.9309,0.00788125,1.12453,19.4919,110.336,0.831595,0.0,0.0
1536,383.75,112.419,122.522,116.215,105.925,97.6832,0.00821133,1.14885,19.4607,108.645,0.742194,0.0,0.0
1568,391.75,114.25,124.236,124.494,105.921,95.9787,0.00876867,1.16241,19.4319,106.893,0.903107,0.0,0.0
1600,399.75,115.62,125.767,126.876,105.459,96.3321,0.00835924,1.17784,19.4381,105.162,0.82943,0.0,0.0
1632,407.75,117.14,127.69,123.365,106.383,96.6096,0.00831399,1.20275,19.3776,103.44,0.882948,0.0,0.0
1664,415.75,118.57,128.924,124.048,105.869,94.493,0.0089617,1.22288,19.369,101.639,1.04159,0.0,0.0
1696,423.75,120.156,130.811,124.968,106.396,95.8018,0.00897348,1.24539,19.3336,99.8271,0.960988,0.0,0.0
1728,431.75,121.839,132.202,121.482,106.759,96.558,0.00942695,1.27988,19.2828,98.0256,0.920221,0.0,0.0
1760,439.75,123.327,134.26,119.836,106.558,95.8488,0.00957729,1.29692,19.2731,96.1639,0.970486,0.0,0.0
1792,447.75,124.625,135.346,119.146,105.914,96.2631,0.00962768,1.29281,19.2545,94.4124,0.875408,0.0,0.0
1824,455.75,126.077,137.403,120.998,105.229,93.5558,0.00898925,1.30534,19.2577,92.4807,1.0773,0.0,0.0
1856,463.75,127.717,139.051,117.275,104.81,94.2328,0.0101821,1.32784,19.2208,90.5891,0.974711,0.0,0.0
1888,471.75,129.257,140.703,115.517,104.751,93.7576,0.010421,1.36913,19.1732,88.6774,1.01586,0.0,0.0
1920,479.75,131.09,141.661,116.503,104.953,92.1391,0.0104667,1.39014,19.1364,86.7257,1.1931,0.0,0.0
1952,487.75,132.249,143.196,112.132,105.239,93.268,0.0101054,1.41382,19.119,84.824,1.10642,0.0,0.0
1984,495.75,134.508,145.779,119.054,105.538,93.4855,0.0104862,1.43651,19.0791,82.7622,1.11111,0.0,0.0
2016,503.75,136.781,147.872,113.642,105.768,93.4517,0.0113314,1.47264,19.0436,80.7105,1.13433,0.0,0.0
2048,511.75,137.755,149.73,116.079,105.923,94.2273,0.0122178,1.49848,19.0039,78.7688,1.07207,0.0,0.0
2080,519.75,139.164,151.485,112.427,106.027,94.4579,0.0122293,1.51454,18.9755,76.6569,1.05861,0.0,0.0
2112,527.75,141.114,154.158,119.444,106.07,95.4874,0.0120349,1.53595,18.9453,74.5751,0.963029,0.0,0.0
2144,535.75,142.442,154.995,117.854,106.091,94.2337,0.0111066,1.54358,18.9373,72.5233,1.08595,0.0,0.0
2176,543.75,144.221,156.953,115.277,106.067,92.1255,0.0124351,1.56581,18.9167,70.3414,1.29114,0.0,0.0
2208,551.75,146.152,157.994,130.006,106.028,91.8886,0.0135938,1.63432,18.8191,68.1895,1.3114,0.0,0.0
2240,559.75,146.661,160.047,111.802,105.976,91.8623,0.013877,1.60972,18.8216,66.0877,1.30953,0.0,0.0
2272,567.75,148.058,161.205,103.42,105.934,92.7179,0.0137647,1.60189,18.8513,64.0459,1.22095,0.0,0.0
2304,575.75,148.569,161.871,121.32,105.901,94.2552,0.0129653,1.57056,18.8755,62.0642,1.06743,0.0,0.0
2336,583.75,147.156,160.804,129.262,105.857,94.2163,0.0125541,1.50344,18.9289,60.2526,1.06739,0.0,0.0
2368,591.75,145.281,158.877,127.464,105.816,93.9019,0.0114052,1.36113,19.1048,58.6812,1.09445,0.0,0.0
2400,599.75,140.277,154.363,130.642,105.784,92.8936,0.0105394,1.19051,19.2962,57.3,1.19062,0.0,0.0
2432,607.75,134.38,148.193,135.203,105.769,94.5663,0.00903363,0.974769,19.5778,56.2791,1.02577,0.0,0.0
2464,615.75,126.058,138.774,146.106,105.77,97.3971,0.00781394,0.768078,19.8359,55.5685,0.755624,0.0,0.0
2496,623.75,116.102,129.115,156.171,105.763,103.128,0.00561871,0.505898,20.1881,55.2783,0.231187,0.0,0.0
2528,631.75,107.152,118.714,162.037,105.759,104.789,0.00305149,0.283173,20.535,55.2282,0.084431,0.0,0.0
2560,639.75,97.0133,107.899,163.84,105.766,104.684,0.000991873,0.125619,20.7703,55.2382,0.094206,0.0,0.0
2592,647.75,89.1395,99.1467,159.149,105.797,104.607,0.000187457,0.0707264,20.8973,55.2282,0.103698,0.0,0.0
2624,655.75,83.2172,91.9217,157.976,105.808,104.575,8.42412e-05,0.0609733,20.9196,55.2282,0.107481,0.0,0.0
2656,663.75,77.5405,85.0418,165.416,105.865,104.569,-3.36825e-05,0.0580782,20.9236,55.2182,0.112901,0.0,0.0
2688,671.75,72.9301,79.0923,164.245,105.905,104.529,2.6686e-05,0.054699,20.9298,55.2182,0.119839,0.0,0.0
2720,679.75,68.8657,74.261,165.765,105.982,104.584,-5.55659e-05,0.0542573,20.9304,55.2082,0.121696,0.0,0.0
2752,687.75,65.1442,69.4254,160.524,106.028,104.528,0.000238742,0.0561092,20.9305,55.2082,0.130594,0.0,0.0
2784,695.75,61.6537,65.2365,163.063,106.054,104.52,0.000166758,0.056746,20.9289,55.2082,0.133485,0.0,0.0
2816,703.75,59.3095,61.8861,166.912,106.071,104.554,7.74185e-05,0.0574391,20.9293,55.2182,0.132,0.0,0.0
2848,711.75,57.2491,58.3821,165.077,106.08,104.501,0.000290499,0.0573248,20.9245,55.2082,0.137378,0.0,0.0
2880,719.75,55.0307,56.2946,164.825,106.045,104.432,0.000264641,0.0571596,20.9238,55.2282,0.140425,0.0,0.0
2912,727.75,52.4085,52.9395,163.791,105.998,104.389,-1.29955e-07,0.0573299,20.9237,55.2082,0.140174,0.0,0.0
2944,735.75,50.6791,50.3335,171.288,105.943,104.36,0.000245165,0.0572405,20.9252,55.2182,0.137878,0.0,0.0
2976,743.75,49.2899,49.0252,164.731,105.879,104.343,-3.27415e-05,0.0565925,20.9259,55.2282,0.13391,0.0,0.0
3008,751.75,47.7016,47.2604,161.47,105.809,104.315,1.23307e-05,0.0559921,20.9287,55.2082,0.130273,0.0,0.0
3035,758.5,46.0724,45.9183,167.959,105.757,104.096,0.000173571,0.0553013,20.9289,55.2082,0.145052,0.0,0.0