File: 01_Data/Black_PMMA/Cone/Black_PMMA_HRRPUA_25.csv
Time after Ignition,Black_PMMA_R1,Black_PMMA_R2,Black_PMMA_R3,Black_PMMA_R4,Black_PMMA_R5,Black_PMMA_R6,Mean,Std. Dev.
0.0,19.0,15.0,9.3,18.0,-1.9,3.3,10.5,8.4
3.0,60.7,69.8,55.0,90.8,-1.7,2.5,46.1,37.5
6.0,112.9,162.3,133.6,169.5,-0.7,2.3,96.6,77.0
9.0,166.1,255.0,228.2,244.2,1.4,3.0,149.6,118.3
12.0,212.6,329.5,295.6,337.0,29.0,18.5,203.7,146.2
15.0,242.7,372.7,352.3,379.8,90.7,69.9,251.4,141.6
18.0,278.2,399.0,404.2,407.8,170.4,142.0,300.3,122.1
21.0,305.3,434.2,431.0,425.0,262.9,247.8,351.0,88.7
24.0,321.9,442.2,458.5,431.4,316.3,305.0,379.2,71.7
27.0,335.6,447.1,465.3,424.0,352.4,366.3,398.4,54.0
30.0,354.0,458.6,474.8,423.8,391.5,384.1,414.5,46.4
33.0,351.0,446.7,463.2,438.2,403.0,407.3,418.2,40.3
36.0,361.4,444.4,477.0,431.2,407.0,414.8,422.6,38.9
39.0,360.7,448.7,489.6,433.8,406.3,414.7,425.6,43.4
42.0,374.6,466.8,471.9,428.1,414.0,407.7,427.2,37.1
45.0,385.4,454.6,462.9,437.5,418.1,416.1,429.1,28.5
48.0,376.5,466.4,471.4,426.3,425.7,431.1,432.9,34.3
51.0,385.6,477.5,472.9,437.9,432.3,435.1,440.2,33.3
54.0,379.9,464.0,483.3,446.4,417.5,439.8,438.5,36.3
57.0,392.4,458.7,486.5,433.2,431.8,425.3,438.0,31.9
60.0,386.9,467.9,474.6,440.9,439.7,425.5,439.2,31.6
63.0,396.5,460.3,470.8,447.7,437.6,410.1,437.2,28.9
66.0,403.0,444.4,469.6,449.0,436.9,437.1,440.0,21.8
69.0,402.0,457.9,483.0,450.9,433.7,428.6,442.7,27.8
72.0,402.3,452.4,472.1,438.6,434.0,426.2,437.6,23.7
75.0,396.9,457.9,473.4,446.8,441.1,429.4,440.9,26.2
78.0,414.0,468.7,476.7,441.2,434.0,425.6,443.4,24.6
81.0,414.0,471.3,484.7,437.6,438.3,421.6,444.6,27.9
84.0,415.6,480.5,480.6,448.2,432.5,430.2,447.9,27.3
87.0,426.0,466.3,497.2,443.5,441.2,431.3,450.9,26.6
90.0,416.4,472.6,498.5,459.7,444.2,438.7,455.0,28.6
93.0,409.6,468.2,479.6,457.6,444.5,437.0,449.4,24.9
96.0,435.3,469.5,489.2,462.1,446.2,440.3,457.1,20.4
99.0,427.0,468.2,477.7,465.6,450.3,448.6,456.2,18.1
102.0,423.9,489.1,477.7,475.2,455.7,450.4,462.0,23.6
105.0,427.6,483.8,481.6,475.2,449.7,450.0,461.3,22.4
108.0,426.6,474.8,478.1,480.0,440.5,440.5,456.8,23.5
111.0,429.5,487.8,473.6,483.7,447.0,450.7,462.1,23.2
114.0,437.4,491.8,486.8,477.6,460.6,447.5,467.0,22.0
117.0,437.0,492.4,495.9,476.8,459.4,460.4,470.3,22.4
120.0,428.8,495.1,485.3,490.7,461.4,461.5,470.5,25.0
123.0,446.3,497.2,492.3,489.3,468.0,445.9,473.2,23.2
126.0,448.7,506.8,495.4,481.5,459.7,472.4,477.4,21.8
129.0,454.8,510.6,474.5,494.4,461.0,468.6,477.3,21.2
132.0,449.6,485.9,492.4,507.1,463.2,461.1,476.6,22.0
135.0,463.7,496.4,506.6,497.4,474.1,472.9,485.2,17.1
138.0,459.9,514.3,503.6,513.4,465.2,477.7,489.0,24.5
141.0,471.0,504.7,502.2,510.4,465.7,480.9,489.1,19.0
144.0,469.3,512.7,512.8,514.9,486.3,478.2,495.7,20.2
147.0,483.0,517.9,525.5,507.4,486.1,468.5,498.1,22.3
150.0,480.6,516.9,529.2,498.5,478.0,475.2,496.4,22.5
153.0,488.3,499.4,514.2,511.5,503.2,507.5,504.0,9.4
156.0,483.1,509.2,527.8,509.1,490.9,486.7,501.1,17.2
159.0,487.1,511.9,496.6,503.6,518.3,502.4,503.3,11.0
162.0,488.9,509.9,520.1,506.3,499.2,490.7,502.5,12.0
165.0,490.4,527.0,514.7,504.0,523.6,494.3,509.0,15.2
168.0,475.0,516.8,525.6,529.4,509.2,524.3,513.4,20.1
171.0,497.2,525.9,516.3,530.3,507.2,497.0,512.3,14.2
174.0,517.3,531.0,524.0,530.2,499.5,505.7,518.0,13.0
177.0,521.2,537.0,531.6,524.9,510.9,500.9,521.1,13.3
180.0,502.7,533.8,527.6,539.0,508.2,508.1,519.9,15.4
183.0,513.3,539.9,516.6,528.4,519.0,524.7,523.7,9.7
186.0,510.0,547.7,542.0,530.2,506.9,526.5,527.2,16.5
189.0,507.7,531.0,540.1,525.5,518.1,538.4,526.8,12.4
192.0,503.0,530.9,532.9,529.6,515.6,519.7,522.0,11.5
195.0,516.2,537.4,537.7,531.5,525.9,517.6,527.7,9.4
198.0,514.7,561.9,550.0,554.0,521.9,514.9,536.2,21.4
201.0,524.4,553.4,534.6,556.0,514.7,517.1,533.4,17.9
204.0,509.6,538.5,546.6,573.5,520.4,517.5,534.4,23.6
207.0,515.3,561.0,535.4,535.2,531.9,507.6,531.1,18.6
210.0,548.6,552.0,553.6,546.6,525.6,520.3,541.1,14.4
213.0,536.0,562.5,554.7,553.0,546.3,519.7,545.3,15.4
216.0,539.3,564.1,550.7,564.2,543.6,521.1,547.2,16.4
219.0,534.1,538.3,588.7,583.7,550.2,544.7,556.6,23.6
222.0,535.8,559.0,577.5,570.0,529.9,548.3,553.4,18.8
225.0,546.5,583.8,580.6,575.6,537.0,541.6,560.8,21.4
228.0,540.2,578.2,576.7,561.0,549.3,518.9,554.1,22.8
231.0,551.1,566.3,583.2,589.3,544.4,530.4,560.7,22.9
234.0,547.6,580.3,579.4,587.2,551.8,555.6,567.0,17.2
237.0,563.1,581.2,586.0,576.9,560.9,515.0,563.8,25.9
240.0,559.9,590.2,574.4,579.9,562.7,532.4,566.6,20.1
243.0,565.9,592.2,582.0,573.4,559.6,540.8,569.0,18.0
246.0,568.1,579.4,577.2,584.0,548.5,550.5,567.9,15.2
249.0,570.5,584.3,592.8,587.7,559.0,549.4,573.9,17.3
252.0,588.2,602.8,579.2,594.1,569.5,576.1,585.0,12.3
255.0,562.6,587.6,614.1,587.0,566.7,583.3,583.5,18.4
258.0,549.7,598.0,595.8,605.4,592.1,575.5,586.1,20.4
261.0,568.0,600.6,599.0,587.7,587.3,558.8,583.6,16.8
264.0,586.3,606.5,605.2,591.8,570.6,559.4,586.6,18.8
267.0,569.7,583.9,605.3,586.0,561.0,580.6,581.1,15.2
270.0,562.1,604.4,626.3,621.3,571.0,570.8,592.7,28.2
273.0,584.2,626.9,605.1,613.6,572.1,561.4,593.9,25.4
276.0,559.7,611.8,597.0,634.2,592.2,580.5,595.9,25.6
279.0,579.5,598.8,615.3,605.0,567.0,567.5,588.9,20.4
282.0,586.1,620.8,607.5,613.4,585.3,585.7,599.8,16.0
285.0,576.0,610.2,612.3,608.3,580.3,589.9,596.2,16.2
288.0,605.6,619.6,600.3,609.6,574.2,586.6,599.3,16.4
291.0,576.4,608.1,623.9,619.7,580.5,588.1,599.4,20.5
294.0,588.7,614.0,628.8,636.2,600.1,590.8,609.8,19.9
297.0,611.0,626.8,621.4,619.5,570.9,599.0,608.1,20.7
300.0,622.5,634.1,628.8,624.8,623.0,600.5,622.3,11.5
303.0,604.0,623.1,630.5,657.2,590.7,590.9,616.1,26.0
306.0,610.9,629.3,625.3,622.5,586.2,601.3,612.6,16.5
309.0,601.2,615.4,624.8,627.4,597.7,584.3,608.5,16.9
312.0,609.2,637.5,610.1,624.7,605.3,564.3,608.5,24.8
315.0,609.2,643.0,633.1,626.4,618.4,610.7,623.5,13.2
318.0,625.0,634.7,647.1,640.5,601.5,622.5,628.5,16.1
321.0,625.6,631.0,664.3,639.8,644.0,607.3,635.3,19.1
324.0,630.6,678.6,641.3,650.3,605.8,632.6,639.9,24.1
327.0,639.4,656.5,638.2,646.2,629.2,620.9,638.4,12.5
330.0,629.1,647.0,656.4,641.9,606.0,628.9,634.9,17.7
333.0,652.4,651.0,663.7,625.0,640.4,612.8,640.9,19.0
336.0,644.3,656.5,658.1,631.8,658.1,608.6,642.9,19.8
339.0,634.0,670.7,624.2,652.8,633.3,651.6,644.4,17.1
342.0,627.9,654.4,629.9,698.4,658.0,628.6,649.5,27.5
345.0,648.1,683.1,645.6,664.8,623.4,631.2,649.4,21.9
348.0,652.5,694.2,666.2,667.8,642.5,643.5,661.1,19.5
351.0,663.4,671.7,662.3,656.5,650.7,636.0,656.8,12.4
354.0,656.1,692.8,664.8,664.4,634.0,638.8,658.5,21.2
357.0,658.5,677.3,681.9,695.4,658.4,639.9,668.6,20.0
360.0,649.7,683.2,677.3,645.6,640.7,657.7,659.0,17.5
363.0,661.4,676.1,664.9,678.3,633.0,653.4,661.2,16.6
366.0,669.9,685.3,664.7,680.8,665.8,663.4,671.7,9.2
369.0,677.9,705.1,683.4,658.4,673.5,647.9,674.4,20.0
372.0,675.9,679.4,667.1,671.6,670.7,653.5,669.7,9.0
375.0,666.4,700.1,665.3,691.0,667.2,665.4,675.9,15.5
378.0,670.8,684.8,676.6,679.3,697.9,626.8,672.7,24.3
381.0,696.0,709.1,679.5,673.0,667.4,650.5,679.2,20.9
384.0,692.5,705.1,692.0,697.8,661.8,672.9,687.0,16.3
387.0,665.5,718.4,699.3,682.2,680.9,629.2,679.3,30.5
390.0,689.6,695.5,713.7,716.1,693.4,640.7,691.5,27.2
393.0,707.1,695.5,695.5,705.3,686.6,662.9,692.1,16.2
396.0,718.8,697.4,710.8,740.3,686.3,662.5,702.7,27.0
399.0,713.9,689.5,709.3,701.6,696.2,666.3,696.1,17.1
402.0,718.1,694.4,691.7,734.4,671.9,688.5,699.8,22.5
405.0,692.3,713.1,711.5,716.5,700.3,684.5,703.1,12.8
408.0,703.9,721.7,733.5,716.0,682.6,675.7,705.6,22.7
411.0,716.3,700.7,729.8,726.8,709.3,686.9,711.6,16.2
414.0,705.0,736.5,745.6,730.0,708.1,699.0,720.7,19.1
417.0,721.3,721.9,726.7,720.1,716.1,655.7,710.3,27.0
420.0,709.3,715.8,737.1,728.8,694.7,709.6,715.9,15.2
423.0,692.5,720.8,746.2,707.7,728.2,687.0,713.7,22.4
426.0,735.6,754.0,721.3,740.8,677.9,711.6,723.5,26.8
429.0,721.4,743.4,739.9,693.8,752.1,707.3,726.3,22.7
432.0,708.8,737.0,714.8,755.2,717.9,740.4,729.0,17.9
435.0,714.1,757.8,710.1,763.8,732.8,713.4,732.0,23.7
438.0,725.8,780.4,757.3,729.7,737.5,747.7,746.4,20.3
441.0,724.2,778.7,736.9,710.1,756.3,717.1,737.2,26.1
444.0,744.8,742.5,743.1,710.4,722.1,725.7,731.4,14.2
447.0,754.2,756.4,746.6,753.8,756.1,728.2,749.2,10.9
450.0,749.7,779.8,741.3,754.4,748.2,730.4,750.6,16.5
453.0,772.5,766.2,744.9,711.0,748.5,730.1,745.5,22.8
456.0,746.9,740.1,767.8,739.9,762.0,743.1,750.0,12.0
459.0,747.9,778.9,760.8,705.9,739.8,762.6,749.3,25.1
462.0,731.0,751.9,772.0,688.6,743.7,770.8,743.0,31.0
465.0,762.5,761.6,782.8,704.5,720.4,755.3,747.8,29.4
468.0,760.0,753.9,750.4,729.6,712.4,750.2,742.8,18.0
471.0,765.5,727.9,753.2,722.2,727.1,737.6,739.0,17.1
474.0,755.1,732.9,743.6,703.4,719.1,746.5,733.4,19.2
477.0,723.6,716.6,757.9,709.6,705.4,748.2,726.9,21.4
480.0,703.6,718.3,731.8,705.1,694.1,717.9,711.8,13.5
483.0,708.2,677.9,716.1,702.2,689.6,725.4,703.2,17.4
486.0,727.2,694.3,730.8,678.7,673.4,734.9,706.5,27.8
489.0,696.2,683.1,727.5,684.3,656.0,749.3,699.4,33.7
492.0,712.4,711.2,718.6,651.5,618.4,732.6,690.8,45.2
495.0,696.8,693.6,692.7,626.5,597.1,709.0,669.3,45.9
498.0,688.9,642.6,676.1,601.9,570.2,723.3,650.5,57.1
501.0,705.0,623.4,670.6,590.4,525.5,713.1,638.0,72.6
504.0,695.5,592.9,669.5,555.9,501.6,690.4,617.7,79.9
507.0,661.2,506.6,613.1,527.6,468.5,692.7,578.3,90.5
510.0,665.4,445.9,590.2,483.3,431.9,674.0,548.4,109.1
513.0,656.4,339.2,514.9,447.5,371.1,677.5,501.1,142.4
516.0,627.7,241.9,444.4,409.8,320.8,662.2,451.1,166.3
519.0,604.2,162.9,369.6,351.3,266.7,647.4,400.4,189.8
522.0,583.6,109.9,282.7,254.2,213.3,623.3,344.5,209.3
525.0,578.4,75.7,199.3,181.3,159.7,588.8,297.2,225.9
528.0,556.1,45.4,145.7,122.1,118.3,505.4,248.8,221.5
531.0,514.0,26.9,97.9,81.8,,389.6,222.0,215.9
534.0,471.9,12.6,64.6,48.8,,,149.4,216.0
537.0,435.8,5.2,43.8,29.7,,,128.6,205.4
540.0,406.1,1.1,27.6,,,,144.9,226.6
543.0,375.7,-0.2,18.0,,,,131.2,212.0
546.0,335.0,-0.6,10.5,,,,114.9,190.7
549.0,276.5,-0.1,,,,,138.2,195.6
552.0,222.9,,,,,,222.9,
555.0,181.9,,,,,,181.9,
558.0,137.4,,,,,,137.4,
561.0,101.5,,,,,,101.5,
564.0,73.1,,,,,,73.1,
567.0,55.9,,,,,,55.9,
570.0,43.6,,,,,,43.6,
573.0,33.2,,,,,,33.2,
576.0,26.5,,,,,,26.5,
579.0,17.6,,,,,,17.6,
582.0,11.6,,,,,,11.6,
585.0,8.0,,,,,,8.0,
588.0,5.2,,,,,,5.2,
591.0,3.0,,,,,,3.0,
594.0,0.3,,,,,,0.3,
594.75,-0.2,,,,,,-0.2,