File: 01_Data/Black_PMMA/Cone/Black_PMMA_Cone_HF25Scan_230606_R6.csv
Names,Time,Stack TC,Smoke TC,Exh Press,Smoke Comp,Smoke Meas,CO Meter,CO2 Meter,O2 Meter,Sample Mass,Ext Coeff,Start Test,Flame Verif
Chan Gain,,500,500,1,1,1,1,1,1,1,1,1.0,1.0
Offset,,0,0,0.137885,0,0,0,0,0,0,0,0.0,0.0
Gain,,1,1,25.011,13.2744,13.9915,1,1,1,1.00088,1.0504,1.0,1.0
Units,sec,C,C,Pa,%,%,%,%,%,g,/m,,
Baseline,,27.8309,28.2336,150.12,101.204,101.578,0.000855379,0.0481726,20.9428,-445.145,-0.03398,,
32,7.75,27.0461,27.9942,148.698,100.166,100.563,0.00076056,0.0491693,20.9378,160.441,-0.0363904,0.0,0.0
64,15.75,27.6101,27.9366,148.212,100.004,100.399,0.000867969,0.0491808,20.9392,160.461,-0.0363513,0.0,0.0
96,23.75,27.3412,27.5493,147.201,99.8498,100.291,0.000450765,0.0489411,20.9366,160.481,-0.0406629,0.0,0.0
128,31.75,27.4982,27.7534,150.828,99.7332,100.215,0.000702072,0.048634,20.94,160.411,-0.0443717,0.0,0.0
160,39.75,27.6259,28.0634,149.541,99.6732,100.081,0.000821612,0.0494152,20.9392,160.361,-0.0375776,0.0,0.0
192,47.75,27.3554,28.0359,146.622,99.6311,100.028,0.00067508,0.0493862,20.9408,160.351,-0.0365972,0.0,0.0
224,55.75,27.6959,27.7977,149.252,99.6007,100.013,0.00101923,0.0491684,20.942,160.421,-0.0381087,0.0,0.0
256,63.75,27.8705,27.9707,147.833,99.5918,99.9469,0.000965241,0.0484626,20.9422,160.381,-0.0327951,0.0,0.0
288,71.75,27.5392,27.7989,145.472,99.6007,99.9883,0.000767967,0.0480929,20.9437,160.341,-0.0357878,0.0,0.0
320,79.75,27.3175,27.9342,147.92,99.6108,99.9635,0.000840086,0.050198,20.9423,160.351,-0.0325686,0.0,0.0
352,87.75,27.5798,27.7165,147.71,99.5995,99.9951,0.000805383,0.0520221,20.9427,160.321,-0.03653,0.0,0.0
384,95.75,28.2644,28.2234,151.106,99.5638,99.9183,0.000368766,0.0564253,20.9362,160.241,-0.0327438,0.0,0.0
416,103.75,27.8143,28.2427,146.53,99.5428,99.9507,0.000590267,0.0509783,20.9357,160.161,-0.0376852,0.0,0.0
448,111.75,30.8612,28.718,130.002,99.5245,98.1245,0.000889545,0.0593418,20.9373,159.571,0.130535,0.0,1.0
480,119.75,41.2537,35.7046,126.312,99.5201,96.8397,0.00240826,0.358445,20.7824,158.47,0.251566,0.0,0.0
512,127.75,51.6963,44.1893,117.143,99.5051,96.5182,0.00479629,0.667673,20.283,157.309,0.280821,0.0,0.0
544,135.75,58.6556,51.5879,125.754,99.5075,96.1198,0.00525387,0.751289,20.0517,156.128,0.319155,0.0,0.0
576,143.75,65.1543,57.9831,118.039,99.512,95.7552,0.00578486,0.750278,20.0119,154.947,0.354589,0.0,0.0
608,151.75,70.0757,63.5408,123.89,99.5424,95.4558,0.00580777,0.779993,19.9927,153.736,0.386249,0.0,0.0
640,159.75,72.9663,67.9698,123.363,99.5987,95.0246,0.00614575,0.781241,19.9673,152.574,0.433182,0.0,0.0
672,167.75,76.8337,72.4502,113.693,99.6627,95.2885,0.00636922,0.790039,19.966,151.333,0.413551,0.0,0.0
704,175.75,79.6126,76.6236,125.498,99.7737,95.5169,0.00645441,0.79969,19.9403,150.082,0.401744,0.0,0.0
736,183.75,81.8477,79.9531,116.192,99.8859,94.563,0.00643951,0.811962,19.9265,148.891,0.504581,0.0,0.0
768,191.75,83.8094,82.8958,115.785,100.031,95.4464,0.00657356,0.814395,19.9208,147.64,0.432269,0.0,0.0
800,199.75,86.4471,85.771,116.212,100.201,94.3525,0.00655119,0.83154,19.9016,146.339,0.55418,0.0,0.0
832,207.75,88.1154,88.0053,115.277,100.41,94.8218,0.00692268,0.848585,19.876,145.068,0.527632,0.0,0.0
864,215.75,89.6212,91.1828,112.069,100.584,95.572,0.00700962,0.86022,19.8613,143.807,0.47099,0.0,0.0
896,223.75,91.3563,93.4896,118.752,100.695,94.788,0.00704048,0.863791,19.8465,142.466,0.557007,0.0,0.0
928,231.75,93.3828,95.651,114.24,100.733,95.7513,0.00687586,0.890489,19.8386,141.084,0.467289,0.0,0.0
960,239.75,95.5414,97.9288,118.919,100.706,95.3961,0.00730055,0.909017,19.7936,139.783,0.499128,0.0,0.0
992,247.75,97.7612,100.38,111.946,100.582,95.0673,0.00758512,0.929211,19.7754,138.382,0.519553,0.0,0.0
1024,255.75,99.6131,102.933,115.19,100.357,95.6967,0.0077123,0.956615,19.7294,136.921,0.438135,0.0,0.0
1056,263.75,101.572,105.395,108.543,100.078,94.0993,0.00769249,0.967043,19.7129,135.539,0.56757,0.0,0.0
1088,271.75,103.353,107.212,119.079,100.063,95.0045,0.00782906,0.985632,19.6908,134.088,0.477939,0.0,0.0
1120,279.75,105.003,109.379,115.731,100.392,94.2961,0.00835171,0.992915,19.6718,132.667,0.577178,0.0,0.0
1152,287.75,107.642,111.119,114.055,100.643,95.4136,0.008185,1.01884,19.6458,131.176,0.491691,0.0,0.0
1184,295.75,108.306,113.235,111.091,100.465,94.6979,0.00852267,1.01854,19.6254,129.734,0.54469,0.0,0.0
1216,303.75,109.991,115.021,109.051,100.405,94.3102,0.00827673,0.999416,19.6382,128.283,0.577027,0.0,0.0
1248,311.75,111.14,116.224,115.664,100.754,95.3162,0.0080465,1.02949,19.636,126.792,0.511253,0.0,0.0
1280,319.75,113.016,118.447,116.944,101.054,96.1582,0.00828098,1.02851,19.6173,125.35,0.457588,0.0,0.0
1312,327.75,114.176,120.173,106.934,101.18,94.478,0.00823648,1.05395,19.596,123.839,0.631455,0.0,0.0
1344,335.75,115.52,121.197,116.551,101.06,96.2441,0.00842125,1.05677,19.5795,122.338,0.449886,0.0,0.0
1376,343.75,117.128,123.003,123.194,100.76,95.3521,0.00873666,1.06986,19.5602,120.796,0.508269,0.0,0.0
1408,351.75,118.502,124.246,105.722,100.309,94.2701,0.00911169,1.10977,19.5348,119.155,0.572097,0.0,0.0
1440,359.75,120.441,126.097,101.378,99.9219,93.3794,0.00895274,1.1278,19.4806,117.584,0.623962,0.0,0.0
1472,367.75,121.803,127.782,105.034,99.6465,94.1868,0.00935956,1.14211,19.476,116.052,0.519196,0.0,0.0
1504,375.75,123.387,129.242,112.019,99.5286,94.1757,0.00966529,1.1418,19.4642,114.411,0.509374,0.0,0.0
1536,383.75,124.644,130.927,108.546,99.5654,91.8751,0.00957672,1.1678,19.4545,112.789,0.740671,0.0,0.0
1568,391.75,126.616,132.675,105.457,99.7214,92.7505,0.00944453,1.17891,19.4185,111.128,0.667724,0.0,0.0
1600,399.75,127.479,134.449,106.408,99.9778,93.5797,0.00989694,1.20617,19.3755,109.436,0.609378,0.0,0.0
1632,407.75,129.433,135.998,108.002,100.203,94.823,0.00959063,1.21977,19.3659,107.765,0.508529,0.0,0.0
1664,415.75,130.912,137.331,99.6408,100.399,92.3064,0.0095531,1.23167,19.3396,106.053,0.774354,0.0,0.0
1696,423.75,133.022,138.839,108.21,100.55,94.2846,0.00990881,1.27392,19.3109,104.312,0.59283,0.0,0.0
1728,431.75,134.645,141.319,94.3926,100.661,93.9874,0.0103017,1.29143,19.2704,102.55,0.632084,0.0,0.0
1760,439.75,135.877,142.51,109.406,100.722,94.9571,0.0103579,1.30794,19.2425,100.769,0.543068,0.0,0.0
1792,447.75,136.99,144.133,107.2,100.706,93.3828,0.0106177,1.3096,19.23,99.0473,0.695664,0.0,0.0
1824,455.75,138.138,145.428,100.977,100.639,93.3768,0.0102539,1.33298,19.2189,97.2457,0.690062,0.0,0.0
1856,463.75,139.929,146.588,105.589,100.513,93.2137,0.0108551,1.34049,19.2,95.5042,0.694703,0.0,0.0
1888,471.75,141.596,148.647,105.964,100.372,90.513,0.0112126,1.3458,19.1739,93.7026,0.952637,0.0,0.0
1920,479.75,142.475,150.234,95.5741,100.249,90.3755,0.0118098,1.36221,19.1696,91.8209,0.955369,0.0,0.0
1952,487.75,144.154,151.142,102.165,100.139,92.4183,0.0121415,1.38741,19.1304,90.0193,0.739332,0.0,0.0
1984,495.75,145.682,153.254,96.6824,100.031,91.2163,0.0121412,1.429,19.0792,88.0676,0.849997,0.0,0.0
2016,503.75,147.525,155.221,105.191,99.9345,90.2329,0.0122559,1.44327,19.0618,86.1559,0.940944,0.0,0.0
2048,511.75,148.757,156.637,101.819,100.015,88.7261,0.0119525,1.48026,19.0178,84.2442,1.10351,0.0,0.0
2080,519.75,151.11,158.612,94.5933,100.191,89.9439,0.0125288,1.52306,18.955,82.1924,0.994123,0.0,0.0
2112,527.75,153.097,160.36,95.7481,100.34,92.0528,0.0128534,1.54816,18.9167,80.1807,0.794313,0.0,0.0
2144,535.75,155.068,163.23,99.434,100.476,89.016,0.0142997,1.60692,18.8637,78.1489,1.11586,0.0,0.0
2176,543.75,157.161,165.018,92.1264,100.56,90.4225,0.0138242,1.605,18.8439,76.1271,0.979058,0.0,0.0
2208,551.75,158.207,166.968,99.7843,100.577,91.0818,0.0146416,1.63802,18.8038,73.9952,0.913718,0.0,0.0
2240,559.75,160.059,168.443,100.54,100.542,89.9891,0.0164622,1.6939,18.7669,71.9234,1.02173,0.0,0.0
2272,567.75,160.425,170.775,96.5725,100.466,90.0762,0.0150864,1.6558,18.741,69.8416,1.00583,0.0,0.0
2304,575.75,161.207,170.875,95.9657,100.302,89.7974,0.0158461,1.64401,18.7678,67.8598,1.01938,0.0,0.0
2336,583.75,161.371,171.186,93.627,100.204,92.4118,0.0141671,1.58085,18.8087,65.858,0.745932,0.0,0.0
2368,591.75,161.664,171.956,107.9,100.321,92.4174,0.0140632,1.58107,18.8543,63.9664,0.756138,0.0,0.0
2400,599.75,160.481,171.481,101.805,100.457,91.5297,0.0127116,1.50106,18.9022,62.1348,0.857527,0.0,0.0
2432,607.75,158.871,169.711,103.795,100.593,92.0314,0.0122645,1.47155,19,60.4533,0.819635,0.0,0.0
2464,615.75,154.798,167.19,116.289,100.717,94.3277,0.012362,1.33568,19.0866,58.982,0.603861,0.0,0.0
2496,623.75,145.35,160.099,124.535,100.854,94.262,0.011244,1.10687,19.3169,58.0912,0.622841,0.0,0.0
2528,631.75,129.647,148.153,133.536,100.974,102.771,0.00923104,0.687212,19.7212,57.881,-0.162573,0.0,0.0
2560,639.75,113.59,132.989,136.56,101.083,103.027,0.00466015,0.217812,20.4416,57.851,-0.175574,0.0,0.0
2592,647.75,102.248,122.702,137.033,101.106,103.147,0.00184663,0.0802482,20.8345,57.7709,-0.184082,0.0,0.0
2624,655.75,93.4434,112.565,136.188,101.12,103.089,0.00141283,0.0630884,20.9125,57.861,-0.177677,0.0,0.0
2656,663.75,86.4267,104.232,135.954,101.097,103.025,0.00125467,0.0558676,20.9238,57.881,-0.17413,0.0,0.0
2688,671.75,81.1426,97.4851,139.096,101.078,102.819,0.00115679,0.0533039,20.9277,57.861,-0.157402,0.0,0.0
2720,679.75,76.4904,91.1264,135.953,101,102.911,0.000992931,0.0532091,20.9297,57.871,-0.17268,0.0,0.0
2752,687.75,73.1993,85.4136,137.315,100.91,102.772,0.00116991,0.0519509,20.9313,57.861,-0.168456,0.0,0.0
2784,695.75,69.5586,80.2486,140.287,100.784,102.463,0.000523169,0.0505452,20.9341,57.831,-0.152284,0.0,0.0
2816,703.75,66.5459,76.1109,141.308,100.632,102.227,0.000829434,0.0500322,20.9339,57.811,-0.144889,0.0,0.0
2848,711.75,65.0312,72.525,142.77,100.45,102.032,0.000677999,0.0495072,20.9361,57.841,-0.143991,0.0,0.0
2880,719.75,61.8973,68.6333,138.602,100.253,101.752,0.000805691,0.0494363,20.9359,57.821,-0.136775,0.0,0.0
2912,727.75,60.0294,66.0459,142.908,100.015,101.547,0.0010429,0.0493655,20.9361,57.8009,-0.140078,0.0,0.0
2944,735.75,58.299,63.297,142.898,99.7733,101.165,0.000844412,0.0498581,20.9369,57.8009,-0.127646,0.0,0.0
2976,743.75,57.5447,61.2798,137.976,99.5768,101.072,0.000804216,0.0509726,20.9348,57.8009,-0.137287,0.0,0.0
3008,751.75,55.6877,59.0046,140.288,99.5557,100.976,0.000649895,0.0527494,20.9346,57.811,-0.130513,0.0,0.0
3031,757.5,55.0739,57.5195,142.633,99.6181,100.953,0.000699087,0.0515751,20.9346,57.811,-0.122676,0.0,0.0