File: 01_Data/Black_PMMA/Cone/Black_PMMA_Cone_HF50Scalar_221129_R4.csv
LABORATORY,FSRI
TEST IDENT,Black_PMMA_HF50_4
OPERATOR,Dow
MATERIAL,Black PMMA
ORIENTATION,Horizontal
HEAT FLUX,50
SURF AREA,0.01
C FACTOR,0.040033
SPEC HOLDER DIFF,-566
SPECIMEN MASS,102.99
SCAN TIME,0.25
O2 DELAY TIME,11
CO DELAY TIME,11
CO2 DELAY TIME,8
FLOW FACTOR,1
SCAN COUNT,1931
TIME TO IGN,23.75
END OF TEST SCAN,1451
END OF TEST TIME,362.75
TEST STATUS,1
PRE TEST CMT,Dimensions: 101.11 x 100.80 x 8.47 mm