File: 01_Data/Black_PMMA/Cone/Black_PMMA_HRRPUA_50.csv
Time after Ignition,Black_PMMA_R1,Black_PMMA_R2,Black_PMMA_R3,Black_PMMA_R4,Mean,Std. Dev.
0.0,26.1,19.1,33.9,12.1,22.8,9.4
1.75,70.6,96.7,93.2,58.2,79.6,18.4
3.5,140.7,187.8,170.3,119.1,154.5,30.5
5.25,254.0,281.0,279.1,182.6,249.2,46.1
7.0,355.1,390.2,368.0,262.3,343.9,56.3
8.75,445.9,471.7,419.4,336.4,418.4,58.6
10.5,513.5,532.0,476.0,400.6,480.5,58.2
12.25,567.6,571.6,545.1,440.3,531.2,61.7
14.0,625.9,591.8,563.0,500.4,570.3,53.2
15.75,657.9,635.0,591.9,525.8,602.6,58.1
17.5,641.1,672.6,613.8,573.1,625.1,42.2
19.25,669.5,661.0,636.6,572.7,634.9,43.8
21.0,709.7,702.0,667.4,605.0,671.0,47.7
22.75,700.0,715.3,663.2,619.9,674.6,42.5
24.5,739.9,724.9,679.7,624.7,692.3,51.8
26.25,720.6,732.0,712.9,652.7,704.6,35.5
28.0,703.4,738.5,689.9,668.2,700.0,29.5
29.75,724.5,727.3,705.5,653.6,702.7,34.2
31.5,738.4,737.5,676.7,669.3,705.5,37.6
33.25,737.2,765.0,689.2,665.6,714.3,45.1
35.0,750.9,742.7,697.6,677.3,717.1,35.4
36.75,769.6,754.8,722.4,708.2,738.7,28.4
38.5,747.4,774.9,739.7,730.0,748.0,19.3
40.25,747.7,760.5,713.2,727.4,737.2,21.0
42.0,758.8,760.4,705.6,711.2,734.0,29.7
43.75,760.0,777.0,739.4,703.9,745.1,31.5
45.5,800.5,760.0,726.1,689.3,744.0,47.5
47.25,768.8,759.4,721.9,709.9,740.0,28.5
49.0,750.3,770.4,754.6,717.3,748.1,22.3
50.75,746.2,775.4,754.1,714.8,747.6,25.1
52.5,789.1,744.2,733.4,737.1,750.9,25.8
54.25,779.3,762.1,753.1,715.3,752.4,27.1
56.0,792.4,758.7,766.7,712.0,757.5,33.6
57.75,745.1,765.8,763.2,713.7,746.9,24.0
59.5,771.8,759.9,741.1,716.8,747.4,24.0
61.25,808.5,765.2,757.6,742.6,768.5,28.3
63.0,761.4,795.0,741.8,742.1,760.1,25.0
64.75,765.9,775.3,746.1,722.8,752.5,23.2
66.5,792.0,762.1,764.1,709.5,756.9,34.4
68.25,791.3,828.3,773.8,739.5,783.2,36.9
70.0,804.1,771.4,726.9,749.9,763.1,32.8
71.75,783.0,763.6,772.4,743.3,765.6,16.8
73.5,801.3,794.5,750.7,737.4,771.0,31.7
75.25,796.1,798.9,753.7,750.1,774.7,26.4
77.0,805.1,787.0,772.4,761.8,781.6,18.8
78.75,821.9,786.2,782.8,769.2,790.0,22.5
80.5,791.2,813.9,744.8,747.7,774.4,33.8
82.25,812.1,791.9,767.6,761.5,783.3,23.3
84.0,804.7,807.6,753.3,791.9,789.4,25.0
85.75,794.1,800.7,777.7,796.3,792.2,10.0
87.5,814.0,785.2,766.6,765.1,782.7,22.8
89.25,819.3,809.7,782.8,756.5,792.1,28.3
91.0,793.7,793.0,789.7,740.1,779.1,26.1
92.75,799.5,788.4,817.8,802.9,802.2,12.1
94.5,817.0,825.4,794.3,782.2,804.7,20.0
96.25,803.5,825.9,790.0,747.6,791.8,33.0
98.0,809.4,817.2,794.7,786.4,801.9,13.9
99.75,821.4,810.6,807.2,753.0,798.1,30.7
101.5,827.9,791.3,798.6,789.3,801.8,17.9
103.25,817.8,836.2,807.0,815.3,819.1,12.3
105.0,857.3,819.9,817.3,816.8,827.8,19.7
106.75,843.7,802.1,817.9,824.4,822.0,17.2
108.5,849.7,848.4,825.6,765.9,822.4,39.3
110.25,840.3,845.4,777.2,794.9,814.4,33.6
112.0,811.7,836.5,811.5,841.2,825.2,15.9
113.75,843.7,860.3,822.5,798.8,831.3,26.6
115.5,843.1,830.1,820.6,789.9,820.9,22.7
117.25,817.0,826.6,822.4,761.4,806.8,30.6
119.0,822.1,823.5,816.4,787.6,812.4,16.8
120.75,815.9,853.1,796.5,801.2,816.7,25.7
122.5,842.1,838.0,799.6,822.2,825.5,19.3
124.25,809.6,829.0,839.2,802.4,820.1,17.0
126.0,877.7,826.1,833.9,822.2,840.0,25.6
127.75,817.7,873.4,792.9,828.4,828.1,33.7
129.5,856.9,823.7,761.6,829.6,818.0,40.2
131.25,873.4,870.8,819.6,830.4,848.5,27.5
133.0,893.1,862.2,792.3,825.6,843.3,43.8
134.75,902.6,911.2,836.8,823.7,868.6,44.7
136.5,858.6,830.7,858.4,871.5,854.8,17.2
138.25,925.6,853.3,802.4,834.1,853.9,52.2
140.0,885.9,830.4,819.4,846.6,845.6,29.2
141.75,875.5,878.1,858.3,855.5,866.9,11.6
143.5,874.2,864.5,841.5,839.3,854.9,17.2
145.25,843.6,905.7,848.0,850.5,861.9,29.3
147.0,887.9,870.3,829.9,894.6,870.7,29.1
148.75,851.0,884.2,832.4,905.4,868.3,32.8
150.5,868.4,875.3,826.6,891.2,865.4,27.6
152.25,881.7,858.9,840.4,905.3,871.6,28.1
154.0,855.4,880.1,856.3,869.6,865.3,11.8
155.75,857.9,894.4,849.1,887.9,872.3,22.2
157.5,855.0,897.1,852.4,863.6,867.0,20.6
159.25,896.9,951.3,863.2,852.7,891.0,44.4
161.0,877.1,862.8,865.1,887.0,873.0,11.2
162.75,920.3,894.0,855.8,892.7,890.7,26.5
164.5,957.3,885.9,859.7,907.2,902.5,41.3
166.25,897.9,901.7,860.3,890.9,887.7,18.8
168.0,890.2,900.8,865.3,896.4,888.2,15.9
169.75,885.3,886.7,843.4,888.1,875.9,21.7
171.5,899.1,952.1,902.6,937.8,922.9,26.2
173.25,968.5,939.1,861.2,894.6,915.9,47.4
175.0,879.6,918.5,900.6,952.8,912.8,31.0
176.75,895.0,900.7,899.0,906.2,900.2,4.6
178.5,947.0,891.2,889.3,924.3,913.0,27.8
180.25,915.6,924.6,918.1,1000.0,939.6,40.4
182.0,889.1,916.4,870.0,915.9,897.8,22.5
183.75,920.4,917.5,891.0,969.4,924.6,32.7
185.5,926.4,922.2,883.8,946.9,919.9,26.3
187.25,944.0,1019.1,917.4,982.5,965.8,44.5
189.0,918.0,929.9,894.1,976.1,929.5,34.4
190.75,911.3,991.6,879.8,979.4,940.5,53.7
192.5,976.0,923.0,905.2,942.0,936.5,30.3
194.25,954.3,949.7,924.7,974.2,950.7,20.3
196.0,960.4,973.0,889.7,1011.3,958.6,50.8
197.75,938.3,930.6,866.1,989.2,931.0,50.5
199.5,955.4,929.1,904.2,993.2,945.5,38.1
201.25,958.0,962.3,934.3,984.6,959.8,20.6
203.0,954.9,900.5,924.7,969.1,937.3,30.7
204.75,966.4,979.5,957.7,951.3,963.7,12.2
206.5,988.5,973.0,916.1,931.9,952.4,34.0
208.25,961.9,961.9,922.5,980.4,956.7,24.4
210.0,1005.2,909.8,970.3,980.8,966.5,40.5
211.75,916.9,999.6,934.4,952.1,950.7,35.6
213.5,975.5,921.3,1017.6,1061.1,993.9,59.7
215.25,1001.5,939.1,940.3,1040.8,980.4,49.7
217.0,988.4,977.5,963.4,1001.0,982.6,16.0
218.75,965.4,997.3,964.4,1015.9,985.7,25.3
220.5,1003.5,989.8,942.1,960.7,974.0,27.8
222.25,975.9,946.5,923.5,998.6,961.1,32.9
224.0,1002.6,1004.9,938.2,1027.1,993.2,38.3
225.75,982.5,980.0,991.0,1033.0,996.6,24.7
227.5,941.3,1055.6,920.3,1010.2,981.8,62.4
229.25,991.6,972.7,1010.9,1040.9,1004.0,29.1
231.0,975.7,943.2,935.4,1000.3,963.6,30.0
232.75,1043.2,1029.1,961.7,1030.3,1016.1,36.8
234.5,1001.0,984.7,947.6,1011.6,986.2,28.1
236.25,1065.3,1016.9,922.0,1036.7,1010.2,62.1
238.0,972.0,998.7,940.3,1000.3,977.8,28.2
239.75,1044.0,1024.8,956.4,1025.3,1012.6,38.5
241.5,973.0,1053.4,984.4,1056.8,1016.9,44.4
243.25,1017.6,1026.3,929.8,1033.3,1001.7,48.4
245.0,1033.8,1028.7,919.5,1018.9,1000.2,54.2
246.75,990.6,1016.2,962.8,983.2,988.2,22.1
248.5,1059.9,1024.7,1004.3,1026.0,1028.7,23.1
250.25,1020.9,1043.7,970.2,1042.9,1019.4,34.5
252.0,971.5,1037.0,1053.1,1034.2,1023.9,35.9
253.75,1030.6,1043.6,997.8,1057.0,1032.3,25.4
255.5,1062.8,1030.2,1033.3,1035.8,1040.5,15.0
257.25,1036.3,1059.0,1049.2,1013.3,1039.5,19.8
259.0,1027.0,1064.6,1021.5,1057.0,1042.5,21.4
260.75,1018.7,1066.5,1038.0,1029.3,1038.1,20.5
262.5,1078.9,1114.1,979.4,1014.1,1046.6,61.0
264.25,996.1,1041.2,957.8,1021.2,1004.0,35.9
266.0,1030.8,1092.2,1028.5,1000.7,1038.1,38.6
267.75,1018.3,1059.3,1028.9,1030.3,1034.2,17.6
269.5,975.1,1053.9,1006.6,1051.4,1021.8,37.9
271.25,997.1,1071.3,997.1,1009.2,1018.7,35.5
273.0,998.8,1087.7,1070.5,1052.9,1052.5,38.5
274.75,1064.4,1056.3,988.6,1033.0,1035.6,34.0
276.5,1041.4,1104.5,1023.4,1014.6,1046.0,40.6
278.25,1047.5,1054.0,1021.9,1071.9,1048.8,20.7
280.0,1066.4,1089.7,1039.3,1033.7,1057.3,25.9
281.75,1029.5,1052.8,1066.3,1071.3,1055.0,18.7
283.5,1122.3,1108.7,1002.3,1021.1,1063.6,60.7
285.25,1087.0,1107.4,1040.4,1038.6,1068.4,34.3
287.0,1087.9,1070.0,1029.1,1060.1,1061.8,24.7
288.75,1064.9,1118.0,1047.5,1073.6,1076.0,30.1
290.5,1028.7,1163.7,1072.1,1083.5,1087.0,56.3
292.25,1089.3,1050.6,1054.8,1020.4,1053.8,28.2
294.0,1078.6,1058.8,1110.2,1013.8,1065.4,40.3
295.75,1162.0,1094.5,1095.0,1134.8,1121.6,32.9
297.5,1112.1,1071.2,1082.4,1075.7,1085.4,18.4
299.25,1081.2,1098.5,1065.3,1105.1,1087.5,17.9
301.0,1097.9,1079.6,1066.6,1014.0,1064.5,36.0
302.75,1137.0,1069.1,1118.6,1113.6,1109.6,28.8
304.5,1104.8,1127.7,1025.2,1052.9,1077.7,46.9
306.25,1110.9,1029.5,1061.9,1147.3,1087.4,52.1
308.0,1129.6,1118.7,1104.0,1068.8,1105.3,26.5
309.75,1088.6,1121.8,1154.3,1097.5,1115.5,29.4
311.5,1146.2,1110.5,1148.2,1021.9,1106.7,59.1
313.25,1118.9,1109.0,1115.3,1071.7,1103.7,21.7
315.0,1152.4,1087.0,1205.6,1027.8,1118.2,77.3
316.75,1133.6,1100.6,1154.4,1059.6,1112.1,41.4
318.5,1171.4,1247.3,1122.7,1006.6,1137.0,100.9
320.25,1116.5,1070.2,1057.9,1019.3,1066.0,40.1
322.0,1121.9,1093.1,1112.1,977.7,1076.2,66.7
323.75,1173.1,1057.5,1076.8,904.5,1053.0,111.2
325.5,1140.4,1049.6,1034.8,882.6,1026.8,106.9
327.25,1173.0,979.6,1080.8,827.9,1015.3,147.8
329.0,1155.0,975.0,999.5,808.8,984.6,141.7
330.75,1067.5,894.6,1009.4,684.5,914.0,169.0
332.5,1068.9,840.2,973.8,586.9,867.5,209.2
334.25,1062.6,776.8,904.2,459.6,800.8,255.8
336.0,956.5,697.8,799.8,336.9,697.8,263.1
337.75,938.9,625.7,701.9,244.4,627.7,288.3
339.5,871.8,567.1,565.6,,668.2,176.4
341.25,816.7,460.3,451.9,,576.3,208.2
343.0,734.7,337.6,372.6,,481.6,219.8
344.75,647.5,235.3,282.5,,388.4,225.6
346.5,574.5,160.2,204.1,,312.9,227.6
348.25,478.2,,152.4,,315.3,230.3
350.0,386.1,,107.6,,246.9,196.9
351.75,293.9,,74.4,,184.1,155.2
353.5,219.8,,51.9,,135.9,118.7
355.25,156.1,,38.2,,97.2,83.4
357.0,106.4,,,,106.4,
358.75,71.9,,,,71.9,
360.5,49.0,,,,49.0,
362.0,34.8,,,,34.8,