File: 01_Data/Black_PMMA/Cone/Black_PMMA_Cone_HF75Scan_230607_R4.csv
Names,Time,Stack TC,Smoke TC,Exh Press,Smoke Comp,Smoke Meas,CO Meter,CO2 Meter,O2 Meter,Sample Mass,Ext Coeff,Start Test,Flame Verif
Chan Gain,,500,500,1,1,1,1,1,1,1,1,1.0,1.0
Offset,,0,0,0.139256,0,0,0,0,0,0,0,0.0,0.0
Gain,,1,1,25.011,13.252,13.937,1,1,1,1.00107,1.04323,1.0,1.0
Units,sec,C,C,Pa,%,%,%,%,%,g,/m,,
Baseline,,52.659,53.9035,136.375,99.932,100.814,9.07455e-06,0.0528826,20.9367,-452.056,-0.0804151,,
17,4,47.3904,48.3129,140.588,100.27,101.112,0.000497835,0.0585623,20.9248,149.579,-0.0765347,0.0,0.0
34,8.25,48.1764,48.6382,136.007,100.231,101.039,0.000442869,0.0534387,20.9336,149.539,-0.073455,0.0,0.0
51,12.5,48.6689,49.2141,118.146,100.197,97.0725,0.00031394,0.0521237,20.9379,149.089,0.289899,0.0,1.0
68,16.75,57.5915,53.3687,97.2358,100.141,89.6956,0.00039114,0.0541267,20.9374,148.168,1.0081,0.0,1.0
85,21,67.8976,60.2019,94.0812,100.082,87.8936,0.0007915,0.210703,20.9209,147.057,1.18843,0.0,0.0
102,25.25,80.7793,70.618,89.5824,99.9951,87.7859,0.00394726,0.809582,20.3567,145.795,1.19165,0.0,0.0
119,29.5,93.3336,81.7746,102.889,99.9283,85.1528,0.00816979,1.29795,19.7505,144.454,1.46423,0.0,0.0
136,33.75,105.152,93.3759,90.6831,99.8834,85.0018,0.0122584,1.62429,19.0803,142.902,1.47636,0.0,0.0
153,38,117.806,104.44,90.0679,99.9178,85.4726,0.0159624,1.95336,18.6685,141.441,1.42896,0.0,0.0
170,42.25,126.964,114.741,80.085,99.97,84.3268,0.0202994,2.15612,18.3041,139.959,1.55725,0.0,0.0
187,46.5,135.677,124.362,105.066,100.034,86.1051,0.0224793,2.31044,18.0379,138.407,1.37216,0.0,0.0
204,50.75,144.264,133.269,81.7215,100.111,84.7691,0.0232823,2.40061,17.8924,136.816,1.52228,0.0,0.0
221,55,151.15,142.351,84.9081,100.196,83.676,0.0236628,2.47078,17.7759,135.234,1.64877,0.0,0.0
238,59.25,157.794,150.318,81.2307,100.289,84.2787,0.0235503,2.54454,17.6966,133.622,1.59163,0.0,0.0
255,63.5,164.109,158.018,85.7485,100.382,84.673,0.0249761,2.60811,17.6039,132.021,1.55736,0.0,0.0
272,67.75,169.511,164.877,71.9118,100.494,82.5847,0.0259595,2.6419,17.5275,130.469,1.79613,0.0,0.0
289,72,174.572,171.438,91.0029,100.607,84.7011,0.0254797,2.69593,17.4952,128.887,1.57484,0.0,0.0
306,76.25,179.146,178.249,101.577,100.703,81.3525,0.0260104,2.74238,17.4246,127.155,1.95272,0.0,0.0
323,80.5,183.259,184.163,78.1303,100.775,84.8168,0.0272087,2.75223,17.38,125.544,1.57764,0.0,0.0
340,84.75,187.416,190.176,76.5755,100.813,83.3073,0.0267223,2.80082,17.3536,123.872,1.74538,0.0,0.0
357,89,191.459,196.142,85.6714,100.817,85.4403,0.0270367,2.86442,17.2614,122.26,1.51443,0.0,0.0
374,93.25,195.315,200.975,80.2606,100.766,85.3437,0.0275479,2.88871,17.2185,120.578,1.52012,0.0,0.0
391,97.5,198.091,205.75,86.4484,100.7,83.2205,0.0272765,2.91267,17.1817,118.877,1.74467,0.0,0.0
408,101.75,201.346,209.999,68.7313,100.564,84.6517,0.0274424,2.9182,17.1633,117.235,1.57624,0.0,0.0
425,106,203.991,214.615,79.5179,100.415,81.8306,0.0277058,2.96045,17.1433,115.453,1.8729,0.0,0.0
442,110.25,206.988,218.424,77.9692,100.342,80.9591,0.0283141,3.01434,17.083,113.671,1.96424,0.0,0.0
459,114.5,209.696,222.859,71.9286,100.193,82.2321,0.0297923,3.03635,17.032,111.989,1.80785,0.0,0.0
476,118.75,213.328,227.547,71.6478,99.9486,82.076,0.0306535,3.10451,16.983,110.288,1.80286,0.0,0.0
493,123,215.886,231.044,67.1635,99.7391,81.7128,0.0311285,3.16576,16.9055,108.546,1.82425,0.0,0.0
510,127.25,218.204,234.313,83.5732,99.5526,81.0578,0.0308689,3.17236,16.8491,106.764,1.88078,0.0,0.0
527,131.5,221.231,238.494,78.863,99.3828,81.4695,0.0300105,3.19035,16.8378,104.952,1.81879,0.0,0.0
544,135.75,224.377,242.475,87.3476,99.2829,81.1543,0.0303966,3.24918,16.8071,103.17,1.84505,0.0,0.0
561,140,227.196,245.643,87.0468,99.2756,79.6738,0.0306667,3.30202,16.7195,101.298,2.01287,0.0,0.0
578,144.25,230.424,250.212,70.0502,99.3286,78.889,0.032336,3.38503,16.6439,99.446,2.10833,0.0,0.0
595,148.5,232.705,252.793,65.4408,99.437,79.766,0.0342777,3.45441,16.549,97.5439,2.01714,0.0,0.0
612,152.75,235.917,256.964,66.9429,99.6032,79.5359,0.0348037,3.4782,16.4663,95.6319,2.05886,0.0,0.0
629,157,238.788,260.13,69.0106,99.8009,79.8843,0.0344589,3.56243,16.4138,93.7599,2.03702,0.0,0.0
646,161.25,242.694,264.822,68.1161,99.9773,81.7515,0.0343038,3.68052,16.3011,91.8579,1.84174,0.0,0.0
663,165.5,245.936,268.74,70.0861,100.132,79.5113,0.0348706,3.78385,16.1602,89.9759,2.11017,0.0,0.0
680,169.75,248.57,272.34,58.2218,100.287,81.321,0.0348748,3.82973,16.0652,88.0138,1.9184,0.0,0.0
697,174,251.007,275.768,73.3468,100.366,80.1254,0.0331213,3.8381,16.0192,85.9516,2.06113,0.0,0.0
714,178.25,254.187,279.157,75.2031,100.454,78.8286,0.0340746,3.91231,15.9774,84.0996,2.21841,0.0,0.0
731,182.5,256.424,282.17,59.0423,100.476,78.3833,0.0342267,3.91398,15.9155,82.1175,2.27232,0.0,0.0
748,186.75,258.996,285.811,67.9535,100.443,77.3736,0.0340509,3.98888,15.878,80.0453,2.38791,0.0,0.0
765,191,261.393,289.108,61.8214,100.386,74.7115,0.0330413,4.05445,15.814,78.0231,2.70315,0.0,0.0
782,195.25,263.419,291.996,67.4459,100.297,73.3688,0.032291,4.14687,15.6943,76.0711,2.861,0.0,0.0
799,199.5,266.466,294.358,60.9657,100.179,73.6312,0.0325931,4.18197,15.6206,74.0589,2.8175,0.0,0.0
816,203.75,268.581,297.852,67.8657,100.065,72.7333,0.0332072,4.20334,15.5846,71.9967,2.91939,0.0,0.0
833,208,270.949,300.604,77.6624,99.9154,71.7849,0.0325265,4.30473,15.521,69.8644,3.02582,0.0,0.0
850,212.25,272.543,303.313,65.3011,99.8062,69.6995,0.031591,4.27509,15.47,67.8723,3.28559,0.0,0.0
867,216.5,275.472,306.627,69.8197,99.7095,67.4325,0.0328808,4.38243,15.4479,65.7801,3.57931,0.0,0.0
884,220.75,278.235,309.851,66.772,99.6849,65.8856,0.0338869,4.39988,15.3399,63.6578,3.78942,0.0,0.0
901,225,280.622,312.905,69.6297,99.8288,61.5337,0.0346,4.46039,15.28,61.5556,4.42797,0.0,0.0
918,229.25,282.176,315.693,61.055,99.934,61.1845,0.0349052,4.50297,15.2241,59.4734,4.48968,0.0,0.0
935,233.5,285.267,318.468,67.7383,100.027,61.136,0.0354834,4.47622,15.2056,57.271,4.50545,0.0,0.0
952,237.75,286.726,321.415,71.344,100.091,56.8258,0.0364993,4.53338,15.2194,55.0186,5.18037,0.0,0.0
969,242,289.107,324.112,64.8004,100.144,54.3347,0.0364952,4.65535,15.1034,52.8263,5.59544,0.0,0.0
986,246.25,291.352,327.029,64.6188,100.229,52.4177,0.0388859,4.72667,14.9827,50.6139,5.93188,0.0,0.0
1003,250.5,289.83,327.761,78.4661,100.269,52.5628,0.0423775,4.9431,14.8179,48.9221,5.91025,0.0,0.0
1020,254.75,283.248,323.362,85.3531,100.277,57.7572,0.0432803,4.79689,14.732,47.7409,5.04858,0.0,0.0
1037,259,269.533,313.266,108.212,100.248,66.4011,0.0429094,4.27515,14.8666,47.4005,3.76967,0.0,0.0
1054,263.25,249.285,297.52,114.958,100.192,74.2509,0.0357005,3.11869,15.7799,47.3104,2.74206,0.0,0.0
1071,267.5,230.555,280.766,116.998,100.075,78.8231,0.0239809,1.7096,17.4239,47.2904,2.18451,0.0,0.0
1088,271.75,214.396,265.295,116.412,99.9134,81.7094,0.0153216,0.714858,19.1832,47.3204,1.84061,0.0,0.0
1105,276,201.471,251.802,120.036,99.9934,83.9993,0.0106167,0.308695,20.3088,47.2503,1.595,0.0,0.0
1122,280.25,190.151,238.994,117.924,100.126,87.1059,0.00757413,0.16735,20.6969,47.2003,1.27477,0.0,0.0
1139,284.5,180.376,227.113,117.576,100.279,88.9309,0.00505308,0.118147,20.8308,47.2904,1.09898,0.0,0.0
1156,288.75,170.528,215.646,117.524,100.405,90.7849,0.00323224,0.0957732,20.8791,47.2904,0.921667,0.0,0.0
1173,293,163.353,206.292,122.222,100.588,92.3739,0.00223247,0.083456,20.8995,47.2503,0.779563,0.0,0.0
1190,297.25,156.774,197.222,118.391,100.716,93.5333,0.00151333,0.075274,20.9127,47.2904,0.677037,0.0,0.0
1207,301.5,151.553,189.225,119.601,100.809,94.6035,0.00114031,0.0697041,20.92,47.2904,0.581418,0.0,0.0
1224,305.75,146.71,182.25,119.907,100.872,95.3431,0.000706999,0.0658731,20.9266,47.2503,0.515838,0.0,0.0
1241,310,142.514,175.815,119.629,100.876,96.2316,0.000579929,0.0628444,20.927,47.3004,0.431357,0.0,0.0
1258,314.25,138.674,169.921,122.02,100.837,96.7228,0.00044243,0.0606152,20.9285,47.2103,0.381202,0.0,0.0
1275,318.5,134.991,164.022,119.983,100.71,96.9355,0.000710736,0.0590326,20.9307,47.2503,0.349572,0.0,0.0
1292,322.75,131.854,158.751,119.301,100.562,97.5016,0.0006165,0.0575876,20.9331,47.2003,0.282825,0.0,0.0
1309,327,128.934,153.692,120.282,100.347,97.5701,0.000446565,0.056502,20.9335,47.2303,0.256764,0.0,0.0
1326,331.25,125.967,149.179,118.546,100.079,97.8623,0.000267395,0.0558439,20.9352,47.2203,0.204952,0.0,0.0
1343,335.5,122.956,145.108,122.581,99.8588,98.0175,0.000223718,0.0551637,20.9365,47.2303,0.170308,0.0,0.0
1360,339.75,120.835,141.091,122.131,99.6444,98.18,0.000281238,0.0547043,20.9363,47.2203,0.135487,0.0,0.0
1377,344,118.679,137.077,123.441,99.4754,98.385,0.000136875,0.0543088,20.9363,47.2003,0.100861,0.0,0.0
1394,348.25,116.575,133.43,122.851,99.3969,98.5186,8.30507e-05,0.0541143,20.936,47.2103,0.0812277,0.0,0.0
1411,352.5,114.598,130.434,125.229,99.3824,98.6559,0.000343682,0.054005,20.9359,47.1903,0.0671346,0.0,0.0
1428,356.75,112.552,127.574,123.774,99.4633,99.0451,3.81489e-05,0.0537089,20.9351,47.2403,0.0385528,0.0,0.0
1445,361,111.104,124.143,123.043,99.5979,99.5053,-2.67969e-05,0.053023,20.9349,47.2203,0.00851376,0.0,0.0
1462,365.25,109.144,121.844,123.235,99.7799,99.9323,-0.000242096,0.0530645,20.9349,47.1803,-0.0139687,0.0,0.0
1479,369.5,107.819,119.491,124.295,99.9926,100.242,-0.000275247,0.0529272,20.9336,47.1803,-0.0228293,0.0,0.0
1496,373.75,105.765,116.633,126.011,100.222,100.662,0.00011667,0.0524755,20.9327,47.1803,-0.0400722,0.0,0.0
1513,378,104.596,114.599,124.537,100.425,101.188,0.000355669,0.0518184,20.9364,47.2503,-0.0692953,0.0,0.0
1530,382.25,103.167,112.021,125.732,100.558,101.331,0.000197099,0.0516366,20.9379,47.2003,-0.0700587,0.0,0.0
1547,386.5,101.698,110.027,123.695,100.608,101.555,0.000100037,0.0512044,20.9382,47.2003,-0.0857148,0.0,0.0
1564,390.75,100.187,108.154,126.006,100.613,101.696,-2.93522e-05,0.0510047,20.9399,47.1903,-0.0979867,0.0,0.0
1581,395,99.3438,106.143,125.436,100.529,101.652,-0.000166219,0.0505116,20.9393,47.2303,-0.101625,0.0,0.0
1598,399.25,97.977,104.644,124.825,100.378,101.591,-6.90622e-05,0.0502876,20.9399,47.1803,-0.10989,0.0,0.0
1615,403.5,96.7561,103.089,128.524,100.211,101.522,7.20551e-05,0.049521,20.9394,47.1803,-0.118921,0.0,0.0