File: 01_Data/Black_PMMA/Cone/Black_PMMA_Cone_HF25Scalar_230606_R6.csv
LABORATORY,FSRI
TEST IDENT,Black_PMMA_HF25_6
OPERATOR,Dow
MATERIAL,black PMMA
ORIENTATION,Horizontal
HEAT FLUX,25
SURF AREA,0.01
C FACTOR,0.041454
SPEC HOLDER DIFF,-566
SPECIMEN MASS,102.37
SCAN TIME,0.25
O2 DELAY TIME,11
CO DELAY TIME,11
CO2 DELAY TIME,8
FLOW FACTOR,1
SCAN COUNT,3031
TIME TO IGN,104.5
END OF TEST SCAN,2551
END OF TEST TIME,637.75
TEST STATUS,1
PRE TEST CMT,Dimensions: 100.72 x 100.64 x 8.42 mm