File: 01_Data/Rug_Pad/HFM/Rug_Pad_Density_Wet_R2.csv
,Wool_Rug_WET_2
Sample Mass [g],30.7
Sample Volume [cm3],163.9
Sample Density [kg/m3],187