File: 01_Data/Rug_Pad/HFM/Rug_Pad_Density_Wet_R3.csv
,Wool_Rug_WET_3
Sample Mass [g],29.8
Sample Volume [cm3],167
Sample Density [kg/m3],178