File: 01_Data/Rug_Pad/HFM/Rug_Pad_Density_Wet_R1.csv
,Wool_Rug_WET_1
Sample Mass [g],29.7
Sample Volume [cm3],181.7
Sample Density [kg/m3],164