File: 01_Data/Composite_Deck_Board/Cone/Composite_Deck_Board_Cone_HF50Scan_221209_R2.csv
Names,Time,Stack TC,Smoke TC,Exh Press,Smoke Comp,Smoke Meas,CO Meter,CO2 Meter,O2 Meter,Sample Mass,Ext Coeff,Start Test,Flame Verif
Chan Gain,,500,500,1,1,1,1,1,1,1,1,1.0,1.0
Offset,,0,0,0.136389,0,0,0,0,0,0,0,0.0,0.0
Gain,,1,1,25.011,14.2696,296.664,1,1,1,1.0009,1.04656,1.0,1.0
Units,sec,C,C,Pa,%,%,%,%,%,g,/m,,
Baseline,,34.7624,36.2979,155.14,106.89,111.956,0.00078309,0.0644066,20.9565,-444.361,-0.425004,,
72,17.75,32.9314,34.5878,150.384,107.037,111.539,0.00156287,0.0677212,20.9509,200.93,-0.378198,0.0,0.0
144,35.75,39.1438,39.2989,120.539,105.792,122.186,0.00549919,0.44107,20.2838,200.009,-1.32257,0.0,0.0
216,53.75,85.2177,87.3267,106.369,105.913,121.081,0.0189307,1.54929,18.6342,196.316,-1.22871,0.0,0.0
288,71.75,108.278,117.277,108.641,106.893,126.278,0.0127921,1.15258,19.3078,192.813,-1.52992,0.0,0.0
360,89.75,107.501,120.107,123.602,106.305,127.545,0.00887027,0.795018,19.8785,190.13,-1.67231,0.0,0.0
432,107.75,102.163,116.549,131.204,106.835,130.596,0.00738168,0.661933,20.073,187.778,-1.84364,0.0,0.0
504,125.75,97.7491,111.016,131.113,107.551,126.812,0.00734024,0.587709,20.1822,185.696,-1.51234,0.0,0.0
576,143.75,92.9845,106.232,125.402,105.704,129.265,0.00656032,0.548089,20.2436,183.725,-1.8473,0.0,0.0
648,161.75,89.564,101.99,129.628,106.869,125.753,0.00598307,0.511783,20.2964,181.923,-1.49376,0.0,0.0
720,179.75,86.8377,97.9253,127.236,106.221,123.969,0.0060763,0.488866,20.3321,180.161,-1.41846,0.0,0.0
792,197.75,85.3976,94.8262,130.437,106.73,124.974,0.00612207,0.475217,20.3512,178.43,-1.44872,0.0,0.0
864,215.75,83.0045,92.1848,133.5,107.428,125.409,0.00587234,0.466677,20.3612,176.708,-1.42071,0.0,0.0
936,233.75,81.6108,90.1318,131.459,107.303,124.521,0.00582616,0.459969,20.3728,175.017,-1.36621,0.0,0.0
1008,251.75,80.9663,88.3513,131.378,106.456,121.009,0.00565607,0.453973,20.3803,173.375,-1.17623,0.0,0.0
1080,269.75,80.1129,86.9676,133.406,105.895,120.601,0.00596698,0.448535,20.389,171.694,-1.19384,0.0,0.0
1152,287.75,79.1174,86.112,134.139,105.725,120.999,0.00604855,0.44359,20.3983,170.112,-1.23881,0.0,0.0
1224,305.75,78.9134,85.3068,136.602,105.688,120.827,0.00604623,0.44448,20.3928,168.421,-1.22896,0.0,0.0
1296,323.75,78.6325,84.7378,135.251,105.658,119.026,0.00618206,0.439287,20.3983,166.799,-1.09369,0.0,0.0
1368,341.75,78.1193,84.158,130.679,105.758,121.778,0.00587869,0.440951,20.3995,165.158,-1.29486,0.0,0.0
1440,359.75,77.4541,83.6331,127.624,106.133,120.112,0.0059149,0.438065,20.402,163.507,-1.13596,0.0,0.0
1512,377.75,77.6175,83.4518,136.106,106.644,120.221,0.00581913,0.440404,20.4021,161.865,-1.10011,0.0,0.0
1584,395.75,77.3866,83.2808,140.151,106.999,120.701,0.00613458,0.44063,20.402,160.214,-1.10617,0.0,0.0
1656,413.75,77.8282,82.8481,133.394,107.311,121.642,0.00591442,0.44229,20.3974,158.532,-1.1508,0.0,0.0
1728,431.75,77.2421,83.2786,130.466,107.512,122.231,0.00560889,0.445562,20.3929,156.921,-1.17794,0.0,0.0
1800,449.75,77.7038,83.4001,139.998,107.511,122.765,0.00575103,0.44636,20.3917,155.199,-1.21801,0.0,0.0
1872,467.75,77.7877,83.264,131.366,107.326,124.82,0.00552682,0.446746,20.3916,153.518,-1.38624,0.0,0.0
1944,485.75,77.8075,83.5597,134.126,106.985,122.412,0.00529223,0.448332,20.3938,151.816,-1.23664,0.0,0.0
2016,503.75,78.2838,83.0119,132.979,106.643,122.539,0.00562919,0.451725,20.3837,150.155,-1.27552,0.0,0.0
2088,521.75,77.8696,83.2388,134.622,107.026,125.843,0.00570715,0.451133,20.3848,148.433,-1.48691,0.0,0.0
2160,539.75,78.4877,83.671,130.987,106.811,124.467,0.0056408,0.459745,20.3734,146.681,-1.4044,0.0,0.0
2232,557.75,79.029,84.0292,136.526,106.268,125.952,0.00561434,0.469087,20.3596,145,-1.56002,0.0,0.0
2304,575.75,79.3445,85.0335,129.866,106.791,124.367,0.00584886,0.478462,20.3448,143.198,-1.39874,0.0,0.0
2376,593.75,80.4302,85.2819,132.491,106.902,125.064,0.00609207,0.486663,20.3297,141.367,-1.44055,0.0,0.0
2448,611.75,80.6627,86.406,128.426,106.527,125.055,0.00652125,0.488109,20.3274,139.585,-1.47218,0.0,0.0
2520,629.75,81.5727,86.4138,127.129,105.992,124.567,0.00598134,0.490194,20.3254,137.713,-1.48242,0.0,0.0
2592,647.75,81.5461,86.8968,129.78,105.617,120.601,0.0062863,0.489456,20.3272,135.942,-1.21792,0.0,0.0
2664,665.75,81.917,87.3827,133.098,105.722,120.71,0.00579648,0.49128,20.3206,134.09,-1.21711,0.0,0.0
2736,683.75,82.1464,87.6418,128.86,106.222,124.503,0.00643859,0.492191,20.319,132.309,-1.45782,0.0,0.0
2808,701.75,82.0904,88.1602,136.553,106.885,124.195,0.00627,0.492431,20.3184,130.487,-1.37795,0.0,0.0
2880,719.75,82.3701,88.4579,129.121,107.373,126.169,0.00634846,0.489768,20.3211,128.655,-1.48093,0.0,0.0
2952,737.75,82.5336,88.3469,130.892,107.544,124.277,0.00624436,0.487587,20.322,126.884,-1.32759,0.0,0.0
3024,755.75,82.4786,88.6798,127.701,107.478,125.707,0.00616985,0.483475,20.3303,125.122,-1.43827,0.0,0.0
3096,773.75,82.4818,88.5213,130.792,107.246,124.132,0.00604086,0.477114,20.3372,123.391,-1.34239,0.0,0.0
3168,791.75,81.7518,87.827,133.1,106.992,124.892,0.00592198,0.462167,20.3624,121.689,-1.42022,0.0,0.0
3240,809.75,80.83,86.8217,132.256,106.675,124.521,0.00495726,0.450722,20.3815,120.048,-1.42013,0.0,0.0
3312,827.75,80.3665,86.0992,133.375,106.917,124.702,0.00496308,0.449012,20.3796,118.426,-1.41266,0.0,0.0
3384,845.75,80.7239,85.3585,130.7,107.063,122.702,0.00498722,0.449421,20.3801,116.785,-1.25161,0.0,0.0
3456,863.75,79.9872,85.8325,136.351,106.652,123.697,0.00482863,0.453111,20.3705,115.213,-1.3611,0.0,0.0
3528,881.75,79.7075,85.3719,135.098,106.248,125.472,0.00548758,0.44649,20.375,113.632,-1.52675,0.0,0.0
3600,899.75,79.6378,85.1421,128.519,106.45,124.005,0.00517576,0.439471,20.3837,112.06,-1.40133,0.0,0.0
3672,917.75,79.6562,84.447,132.254,106.466,125.997,0.00532703,0.437126,20.3909,110.599,-1.54626,0.0,0.0
3744,935.75,79.4396,84.5531,133.105,106.266,125.146,0.00524859,0.43859,20.3838,109.088,-1.50133,0.0,0.0
3816,953.75,79.5557,85.0011,133.018,106.776,123.544,0.00536344,0.438437,20.3839,107.616,-1.33903,0.0,0.0
3888,971.75,79.5597,85.1109,133.053,107.05,129.084,0.00546983,0.436999,20.3825,106.145,-1.71823,0.0,0.0
3960,989.75,79.7941,84.7127,132.703,106.838,123.688,0.00544564,0.43124,20.3891,104.634,-1.34451,0.0,0.0
4032,1007.75,79.5037,84.8713,135.03,107.509,126.296,0.00534582,0.429835,20.3884,103.273,-1.47851,0.0,0.0
4104,1025.75,79.3867,84.2506,135.243,106.941,122.131,0.00538419,0.422263,20.396,101.831,-1.21934,0.0,0.0
4176,1043.75,78.5713,84.0408,132.08,105.646,123.426,0.0052295,0.418376,20.4048,100.53,-1.428,0.0,0.0
4248,1061.75,78.134,83.3361,136.186,106.416,121.135,0.00549332,0.410225,20.415,99.2089,-1.18929,0.0,0.0
4320,1079.75,77.1385,82.9121,137.038,106.753,122.837,0.00539055,0.409215,20.4118,97.9077,-1.28839,0.0,0.0
4392,1097.75,77.3545,82.2346,134.026,107.021,126.241,0.00515567,0.402803,20.4198,96.6566,-1.51634,0.0,0.0
4464,1115.75,77.0706,81.9594,134.075,107.266,125.083,0.00544568,0.400203,20.4194,95.4755,-1.41063,0.0,0.0
4536,1133.75,76.4741,81.5855,135.195,106.635,122.566,0.00453402,0.392622,20.4305,94.3245,-1.27826,0.0,0.0
4608,1151.75,76.1355,81.1177,136.074,106.093,125.037,0.00464028,0.383218,20.4434,93.1835,-1.50827,0.0,0.0
4680,1169.75,74.9029,80.2528,135.725,106.626,126.178,0.00423278,0.373536,20.4566,92.1426,-1.54567,0.0,0.0
4752,1187.75,74.3788,79.4528,137.618,106.727,119.931,0.00387557,0.360206,20.4775,91.1116,-1.0708,0.0,0.0
4824,1205.75,73.7082,78.414,137.332,107.273,127.319,0.00422657,0.348021,20.497,90.1708,-1.57275,0.0,0.0
4896,1223.75,72.4471,77.1792,135.651,105.769,121.787,0.00334217,0.335909,20.5143,89.26,-1.29459,0.0,0.0
4968,1241.75,71.5841,76.2414,143.792,106.981,121.697,0.00313564,0.323255,20.5339,88.4493,-1.18318,0.0,0.0
5040,1259.75,70.188,75.1419,136.189,106.219,120.61,0.00282804,0.313461,20.5462,87.6185,-1.16648,0.0,0.0
5112,1277.75,68.9,73.9907,144.672,107.017,121.525,0.00318366,0.303106,20.565,86.8778,-1.16705,0.0,0.0
5184,1295.75,68.0265,72.5766,139.452,106.759,122.013,0.00278146,0.293407,20.5796,86.1572,-1.22613,0.0,0.0
5256,1313.75,67.0516,71.4732,140.891,106.72,122.303,0.00257641,0.287248,20.5894,85.4666,-1.25123,0.0,0.0
5328,1331.75,66.2383,69.9418,142.645,106.939,121.769,0.0020823,0.27992,20.602,84.796,-1.19219,0.0,0.0
5400,1349.75,65.3277,69.1344,139.149,107.193,123.209,0.00238322,0.270963,20.6201,84.1954,-1.27835,0.0,0.0
5472,1367.75,64.4369,67.4858,136.921,107.331,120.891,0.00215709,0.263262,20.6323,83.5849,-1.09216,0.0,0.0
5544,1385.75,63.5127,66.2835,142.259,107.422,120.583,0.00220946,0.251005,20.6522,83.0244,-1.06097,0.0,0.0
5616,1403.75,61.8969,65.3503,143.293,107.452,121.009,0.00185948,0.239878,20.672,82.4939,-1.09078,0.0,0.0
5688,1421.75,60.6519,63.7395,146.331,107.377,118.962,0.00186265,0.228583,20.6919,82.0135,-0.940627,0.0,0.0
5760,1439.75,59.3084,62.1242,149.688,107.276,119.533,0.00222959,0.216387,20.7148,81.5531,-0.993142,0.0,0.0
5832,1457.75,57.3512,59.7398,146.568,107.067,119.823,0.00251377,0.199446,20.7453,81.1527,-1.03334,0.0,0.0
5904,1475.75,55.3309,57.5112,145.985,106.713,118.79,0.00336827,0.187243,20.7682,80.8024,-0.984335,0.0,0.0
5976,1493.75,52.6342,55.8537,152.093,107.029,118.193,0.00477622,0.173701,20.7931,80.4921,-0.910845,0.0,0.0
6048,1511.75,51.3766,53.2046,153.505,106.824,116.971,0.00695866,0.164349,20.8115,80.2119,-0.833028,0.0,0.0
6120,1529.75,48.9488,51.3175,150.426,106.316,115.567,0.00888335,0.155342,20.8294,79.9216,-0.766004,0.0,0.0
6192,1547.75,47.3715,48.9558,153.796,106.842,116.572,0.0091233,0.156882,20.8272,79.6414,-0.800139,0.0,0.0
6264,1565.75,46.1697,47.6621,152.745,107.04,115.069,0.00874023,0.151882,20.8332,79.3911,-0.66408,0.0,0.0
6336,1583.75,44.8018,46.7997,149.561,106.664,114.608,0.00866018,0.150553,20.8389,79.1609,-0.659458,0.0,0.0
6408,1601.75,44.7258,45.8446,153.672,105.983,114.952,0.00868916,0.148151,20.8403,78.9107,-0.745781,0.0,0.0
6480,1619.75,43.5797,45.0899,150.535,105.753,114.463,0.0083045,0.147217,20.8406,78.6705,-0.726592,0.0,0.0
6552,1637.75,42.7135,44.0042,154.017,106.273,114.309,0.00874404,0.1472,20.8403,78.4303,-0.669176,0.0,0.0
6624,1655.75,42.5216,43.5336,149.063,107.144,115.712,0.00869859,0.148282,20.8405,78.2001,-0.70626,0.0,0.0
6696,1673.75,41.98,43.2314,150.273,107.59,117.478,0.00861223,0.14659,20.8416,77.9398,-0.807101,0.0,0.0
6768,1691.75,41.881,42.8162,151.983,107.081,114.517,0.00876536,0.145008,20.845,77.7096,-0.616367,0.0,0.0
6840,1709.75,41.5807,43.0066,151.115,106.976,114.553,0.00961843,0.145977,20.8428,77.4694,-0.628271,0.0,0.0
6912,1727.75,41.64,42.7226,150.054,106.62,113.684,0.00960195,0.1461,20.8435,77.2692,-0.588936,0.0,0.0
6958,1739.25,41.2132,42.2352,155.404,106.376,112.571,,,,77.1391,-0.519665,0.0,0.0