File: 01_Data/Composite_Deck_Board/Cone/Composite_Deck_Board_HRRPUA_75.csv
Time after Ignition,Composite_Deck_Board_R1,Composite_Deck_Board_R2,Composite_Deck_Board_R3,Mean,Std. Dev.
0.0,20.2,9.7,10.6,13.5,5.8
4.25,131.8,98.0,76.8,102.2,27.8
8.5,339.2,397.4,309.3,348.6,44.8
12.75,772.7,853.4,751.8,792.6,53.7
17.0,1074.2,1136.2,987.8,1066.1,74.5
21.25,1280.8,1188.6,1242.2,1237.2,46.3
25.5,1206.7,1223.1,1282.4,1237.4,39.8
29.75,949.6,971.2,995.9,972.2,23.1
34.0,785.4,774.2,841.9,800.5,36.3
38.25,675.7,696.4,724.3,698.8,24.4
42.5,619.7,616.5,657.5,631.2,22.8
46.75,571.6,570.7,578.9,573.8,4.5
51.0,521.6,533.8,535.4,530.3,7.6
55.25,507.1,505.8,503.6,505.5,1.8
59.5,480.3,474.6,494.0,483.0,10.0
63.75,452.6,453.8,462.9,456.4,5.6
68.0,433.9,438.8,458.3,443.7,12.9
72.25,415.6,422.1,432.7,423.5,8.6
76.5,404.9,402.3,409.2,405.5,3.5
80.75,389.9,387.6,404.6,394.0,9.2
85.0,375.4,387.2,387.9,383.5,7.0
89.25,373.0,367.4,380.3,373.6,6.5
93.5,371.6,363.8,376.2,370.5,6.3
97.75,355.6,352.0,370.6,359.4,9.9
102.0,345.2,349.4,363.8,352.8,9.7
106.25,350.0,346.9,350.1,349.0,1.8
110.5,332.3,342.9,340.3,338.5,5.5
114.75,337.2,336.2,342.7,338.7,3.5
119.0,325.7,328.0,333.3,329.0,3.9
123.25,331.8,331.0,340.2,334.3,5.1
127.5,324.8,319.8,324.0,322.8,2.7
131.75,333.6,323.3,333.2,330.0,5.8
136.0,333.3,319.2,315.2,322.6,9.5
140.25,324.6,317.4,320.0,320.7,3.7
144.5,322.2,321.9,318.5,320.9,2.0
148.75,320.7,309.7,313.5,314.6,5.6
153.0,313.7,310.1,314.6,312.8,2.4
157.25,314.4,311.9,315.5,313.9,1.8
161.5,314.5,310.4,312.1,312.3,2.0
165.75,309.2,311.4,317.5,312.7,4.3
170.0,307.7,311.4,311.7,310.3,2.2
174.25,306.2,310.3,315.8,310.8,4.8
178.5,305.9,308.1,309.9,308.0,2.0
182.75,302.8,307.6,315.6,308.7,6.5
187.0,307.8,308.1,314.2,310.0,3.6
191.25,304.5,308.0,305.2,305.9,1.8
195.5,300.4,306.1,305.7,304.0,3.2
199.75,300.1,310.7,311.4,307.4,6.3
204.0,305.5,297.4,305.7,302.8,4.8
208.25,300.3,305.7,314.9,306.9,7.4
212.5,302.2,305.5,301.5,303.1,2.1
216.75,303.6,307.1,306.1,305.6,1.8
221.0,301.9,303.9,306.2,304.0,2.1
225.25,302.4,303.9,311.1,305.8,4.7
229.5,303.4,302.7,305.9,304.0,1.7
233.75,303.0,304.1,306.9,304.7,2.0
238.0,297.3,306.7,301.7,301.9,4.7
242.25,302.5,303.0,304.6,303.4,1.1
246.5,297.5,303.7,302.9,301.4,3.3
250.75,300.6,296.5,305.6,300.9,4.6
255.0,296.6,293.4,301.1,297.0,3.9
259.25,296.6,305.2,296.3,299.4,5.1
263.5,304.1,296.2,291.8,297.4,6.2
267.75,295.6,297.1,293.8,295.5,1.6
272.0,293.6,294.4,293.9,294.0,0.4
276.25,290.3,297.9,296.1,294.8,4.0
280.5,297.7,297.5,289.7,295.0,4.5
284.75,293.5,295.7,293.6,294.3,1.2
289.0,295.9,289.3,289.7,291.6,3.7
293.25,294.8,291.5,289.3,291.9,2.8
297.5,295.9,294.1,294.2,294.7,1.0
301.75,292.9,280.1,290.3,287.8,6.8
306.0,284.7,273.6,277.4,278.6,5.6
310.25,278.7,265.6,264.1,269.4,8.0
314.5,272.4,253.3,248.1,257.9,12.8
318.75,262.0,249.2,240.6,250.6,10.8
323.0,253.9,241.1,232.3,242.5,10.9
327.25,252.4,242.6,232.5,242.5,10.0
331.5,253.7,244.1,231.2,243.0,11.3
335.75,254.7,248.7,236.0,246.5,9.6
340.0,256.5,259.6,241.0,252.4,9.9
344.25,264.1,259.6,247.4,257.0,8.6
348.5,272.8,261.4,257.1,263.8,8.1
352.75,276.4,279.6,260.5,272.2,10.2
357.0,286.7,282.0,270.5,279.7,8.4
361.25,285.6,284.8,277.4,282.6,4.5
365.5,292.6,291.3,278.4,287.4,7.9
369.75,295.6,295.7,287.7,293.0,4.6
374.0,303.2,289.9,285.9,293.0,9.1
378.25,301.4,299.6,293.2,298.1,4.3
382.5,307.9,304.7,297.7,303.5,5.2
386.75,314.8,309.2,298.6,307.5,8.2
391.0,311.3,321.1,293.7,308.7,13.9
395.25,310.3,307.3,301.2,306.3,4.6
399.5,310.4,312.0,292.2,304.9,11.0
403.75,318.9,310.8,295.9,308.5,11.7
408.0,318.8,318.1,307.5,314.8,6.4
412.25,319.7,312.6,306.9,313.1,6.5
416.5,317.6,307.1,312.3,312.4,5.3
420.75,328.4,319.5,311.0,319.7,8.7
425.0,327.5,320.2,306.1,317.9,10.9
429.25,326.5,315.3,307.6,316.5,9.5
433.5,326.7,323.1,309.9,319.9,8.9
437.75,324.5,315.3,313.2,317.7,6.0
442.0,325.3,314.3,307.0,315.5,9.2
446.25,326.0,315.2,311.0,317.4,7.7
450.5,328.9,315.0,307.8,317.2,10.7
454.75,324.2,317.0,308.9,316.7,7.7
459.0,323.2,322.7,307.5,317.8,8.9
463.25,320.9,323.6,302.0,315.5,11.8
467.5,319.9,325.0,309.0,318.0,8.2
471.75,318.5,318.6,302.1,313.0,9.5
476.0,320.2,312.0,304.7,312.3,7.8
480.25,316.8,314.0,298.8,309.9,9.7
484.5,317.7,308.2,299.2,308.4,9.3
488.75,318.5,314.6,300.5,311.2,9.5
493.0,318.4,305.4,303.6,309.2,8.1
497.25,318.8,309.5,302.3,310.2,8.3
501.5,316.4,307.0,293.0,305.5,11.8
505.75,321.3,305.0,302.4,309.6,10.3
510.0,323.5,304.1,294.4,307.3,14.8
514.25,316.4,303.8,297.2,305.8,9.7
518.5,318.6,301.3,296.0,305.3,11.8
522.75,311.9,304.3,299.5,305.2,6.3
527.0,316.9,299.1,297.3,304.4,10.8
531.25,314.9,295.5,295.9,302.1,11.1
535.5,308.9,298.0,295.1,300.6,7.3
539.75,302.7,299.3,297.7,299.9,2.6
544.0,312.6,292.1,293.0,299.2,11.6
548.25,307.4,301.0,288.2,298.9,9.7
552.5,307.0,288.9,289.5,295.1,10.3
556.75,307.2,294.1,290.4,297.2,8.8
561.0,308.1,291.5,292.9,297.5,9.2
565.25,309.4,284.8,286.9,293.7,13.6
569.5,300.5,292.6,286.4,293.1,7.1
573.75,305.5,292.8,277.8,292.0,13.9
578.0,302.1,290.0,287.1,293.1,7.9
582.25,299.4,288.8,278.8,289.0,10.3
586.5,292.7,288.0,275.5,285.4,8.9
590.75,294.4,287.5,282.2,288.0,6.1
595.0,292.9,291.9,283.8,289.5,5.0
599.25,290.3,292.8,278.9,287.3,7.4
603.5,290.6,292.6,277.3,286.8,8.3
607.75,287.0,289.9,277.0,284.6,6.7
612.0,286.8,289.9,282.8,286.5,3.6
616.25,286.8,286.5,279.6,284.3,4.1
620.5,287.9,286.8,278.2,284.3,5.3
624.75,283.6,290.2,276.6,283.5,6.8
629.0,288.7,287.9,276.3,284.3,6.9
633.25,294.8,285.3,274.4,284.8,10.2
637.5,295.1,286.9,274.6,285.5,10.3
641.75,289.8,287.7,278.0,285.2,6.3
646.0,288.6,288.6,280.2,285.8,4.9
650.25,288.8,289.1,278.4,285.4,6.1
654.5,286.9,288.4,275.1,283.5,7.3
658.75,288.1,290.0,274.4,284.2,8.5
663.0,286.2,281.5,271.0,279.6,7.8
667.25,286.4,288.1,276.9,283.8,6.0
671.5,282.3,282.8,278.9,281.3,2.2
675.75,278.9,286.7,275.1,280.2,5.9
680.0,280.3,286.2,274.5,280.3,5.9
684.25,272.8,282.6,283.1,279.5,5.8
688.5,277.1,292.7,283.3,284.4,7.9
692.75,279.6,293.7,284.4,285.9,7.2
697.0,274.9,287.2,286.0,282.7,6.8
701.25,280.1,292.0,283.9,285.3,6.1
705.5,275.1,290.9,291.2,285.7,9.2
709.75,283.7,285.7,286.7,285.3,1.5
714.0,284.2,287.7,283.8,285.2,2.1
718.25,284.7,291.5,279.9,285.4,5.8
722.5,284.7,284.2,283.8,284.2,0.4
726.75,281.6,283.0,280.8,281.8,1.1
731.0,285.9,281.9,281.1,283.0,2.6
735.25,287.2,281.6,281.2,283.3,3.3
739.5,285.7,284.2,284.7,284.9,0.8
743.75,281.4,292.8,280.8,285.0,6.7
748.0,284.0,284.7,276.5,281.8,4.5
752.25,283.5,286.1,277.1,282.2,4.6
756.5,286.5,285.8,277.5,283.3,5.0
760.75,281.7,291.2,284.5,285.8,4.9
765.0,283.9,279.0,278.9,280.6,2.8
769.25,279.3,286.1,272.7,279.4,6.7
773.5,276.4,275.3,276.1,275.9,0.6
777.75,277.9,278.7,268.2,274.9,5.8
782.0,278.9,276.5,272.0,275.8,3.5
786.25,276.3,275.4,274.3,275.3,1.0
790.5,275.5,279.8,271.4,275.6,4.2
794.75,277.0,276.1,265.5,272.9,6.4
799.0,268.8,277.2,266.4,270.8,5.7
803.25,271.3,273.5,268.8,271.2,2.3
807.5,263.9,277.3,263.7,268.3,7.8
811.75,269.0,275.6,266.5,270.4,4.7
816.0,265.9,273.7,264.2,267.9,5.1
820.25,256.2,271.4,266.1,264.6,7.7
824.5,262.7,271.4,271.7,268.6,5.1
828.75,260.6,268.0,266.0,264.9,3.8
833.0,256.5,269.3,261.8,262.5,6.4
837.25,254.6,268.5,261.3,261.5,6.9
841.5,250.5,268.0,265.9,261.5,9.6
845.75,252.0,263.0,263.7,259.6,6.6
850.0,254.2,267.2,259.1,260.2,6.6
854.25,250.3,265.3,257.1,257.6,7.5
858.5,249.6,260.2,262.2,257.3,6.8
862.75,246.7,259.6,257.4,254.6,6.9
867.0,242.6,259.1,254.5,252.1,8.5
871.25,243.0,252.3,257.7,251.0,7.4
875.5,239.5,256.1,259.4,251.7,10.6
879.75,239.3,254.5,250.1,248.0,7.8
884.0,235.9,250.7,250.6,245.8,8.5
888.25,233.2,247.3,241.4,240.6,7.1
892.5,233.9,246.1,251.8,243.9,9.1
896.75,238.1,248.3,246.8,244.4,5.5
901.0,238.1,242.2,247.2,242.5,4.6
905.25,235.5,244.3,244.0,241.3,5.0
909.5,235.4,245.2,238.3,239.6,5.0
913.75,231.2,242.2,241.1,238.2,6.1
918.0,235.5,243.3,240.6,239.8,3.9
922.25,231.1,241.9,236.4,236.4,5.4
926.5,231.5,237.6,238.3,235.8,3.7
930.75,232.7,236.9,241.6,237.1,4.5
935.0,232.1,235.7,233.4,233.7,1.8
939.25,229.3,233.2,233.1,231.9,2.2
943.5,231.7,235.3,234.9,233.9,2.0
947.75,228.1,236.2,234.0,232.8,4.2
952.0,228.7,228.1,235.8,230.9,4.3
956.25,228.0,230.4,226.9,228.4,1.8
960.5,223.9,227.7,229.3,227.0,2.8
964.75,225.1,226.1,229.7,227.0,2.4
969.0,223.5,224.8,225.6,224.6,1.0
973.25,226.0,225.4,227.1,226.2,0.9
977.5,218.3,220.1,226.2,221.5,4.2
981.75,216.0,218.7,225.9,220.2,5.2
986.0,217.5,219.1,223.1,219.9,2.9
990.25,212.5,215.8,225.0,217.8,6.5
994.5,213.1,217.1,220.5,216.9,3.7
998.75,211.3,214.4,221.6,215.7,5.3
1003.0,210.3,211.0,214.8,212.0,2.4
1007.25,207.2,211.1,212.3,210.2,2.6
1011.5,206.5,209.6,212.7,209.6,3.1
1015.75,204.3,208.0,209.0,207.1,2.5
1020.0,199.6,206.7,207.6,204.6,4.4
1024.25,194.4,206.7,204.4,201.8,6.6
1028.5,192.9,203.3,207.5,201.2,7.5
1032.75,193.7,201.9,206.8,200.8,6.6
1037.0,192.5,198.4,204.2,198.4,5.8
1041.25,185.2,198.0,204.4,195.9,9.8
1045.5,186.2,193.9,204.8,194.9,9.3
1049.75,182.1,192.1,201.3,191.8,9.6
1054.0,179.5,189.4,195.8,188.2,8.2
1058.25,178.6,185.6,194.7,186.3,8.1
1062.5,176.9,186.0,192.3,185.1,7.8
1066.75,174.0,184.9,191.7,183.6,8.9
1071.0,171.4,181.6,190.0,181.0,9.3
1075.25,170.5,181.1,189.9,180.5,9.7
1079.5,169.1,178.4,188.3,178.6,9.6
1083.75,166.8,176.8,182.9,175.5,8.2
1088.0,164.2,172.7,180.6,172.5,8.2
1092.25,162.1,172.2,179.3,171.2,8.6
1096.5,159.3,171.5,175.7,168.8,8.5
1100.75,154.2,166.9,177.3,166.1,11.6
1105.0,152.1,166.4,175.7,164.7,11.9
1109.25,150.5,162.1,176.2,162.9,12.9
1113.5,148.5,158.9,175.7,161.0,13.7
1117.75,143.0,158.0,171.2,157.4,14.1
1122.0,141.6,151.6,170.6,154.6,14.7
1126.25,141.2,150.1,166.2,152.5,12.7
1130.5,139.2,146.4,163.4,149.6,12.4
1134.75,133.8,142.8,157.8,144.8,12.1
1139.0,131.0,139.1,154.4,141.5,11.9
1143.25,126.3,136.2,152.4,138.3,13.1
1147.5,122.6,132.3,149.3,134.7,13.5
1151.75,118.4,129.6,145.1,131.1,13.4
1156.0,114.9,123.0,142.8,126.9,14.4
1160.25,109.8,119.2,134.8,121.3,12.6
1164.5,103.5,113.9,135.2,117.5,16.2
1168.75,97.7,108.2,131.0,112.3,17.0
1173.0,89.9,99.5,125.3,104.9,18.3
1177.25,83.5,92.8,118.9,98.4,18.4
1181.5,77.8,86.8,114.1,92.9,18.9
1185.75,72.8,81.7,104.1,86.2,16.1
1190.0,67.4,76.3,97.7,80.4,15.6
1194.25,64.0,69.0,91.8,74.9,14.8
1198.5,62.1,64.9,86.9,71.3,13.6
1202.75,62.9,63.6,82.0,69.5,10.8
1205.25,63.0,61.6,77.7,67.5,8.9