File: 01_Data/Composite_Deck_Board/Cone/Composite_Deck_Board_Cone_HF75Scalar_221209_R2.csv
LABORATORY,FSRI
TEST IDENT,TREX_HF75_2
OPERATOR,Dow
MATERIAL,TREX board
ORIENTATION,Horizontal
HEAT FLUX,75
SURF AREA,0.01
C FACTOR,0.0380612
SPEC HOLDER DIFF,-566
SPECIMEN MASS,146.25
SCAN TIME,0.25
O2 DELAY TIME,11
CO DELAY TIME,11
CO2 DELAY TIME,8
FLOW FACTOR,1
SCAN COUNT,5357
TIME TO IGN,12
END OF TEST SCAN,4877
END OF TEST TIME,1219.25
TEST STATUS,1
PRE TEST CMT,Dimensions: 101.20 x 101.35 x 13.16 mm