File: 01_Data/Composite_Deck_Board/Cone/Composite_Deck_Board_Cone_HF75Scan_221209_R1.csv
Names,Time,Stack TC,Smoke TC,Exh Press,Smoke Comp,Smoke Meas,CO Meter,CO2 Meter,O2 Meter,Sample Mass,Ext Coeff,Start Test,Flame Verif
Chan Gain,,500,500,1,1,1,1,1,1,1,1,1.0,1.0
Offset,,0,0,0.136389,0,0,0,0,0,0,0,0.0,0.0
Gain,,1,1,25.011,14.2696,296.664,1,1,1,1.0009,1.04656,1.0,1.0
Units,sec,C,C,Pa,%,%,%,%,%,g,/m,,
Baseline,,40.2158,42.4819,151.592,106.881,121.578,0.000971013,0.0678724,20.9481,-445.583,-1.18256,,
55,13.5,38.776,40.8767,140.607,106.776,128.451,0.0034449,0.120168,20.8606,197.727,-1.69665,0.0,1.0
110,27.25,76.4397,76.4177,83.7281,106.501,128.568,0.0334844,2.18103,17.7193,194.755,-1.72871,0.0,0.0
165,41,128.015,140.771,103.025,107.166,136.3,0.0263858,2.07004,17.9312,190.691,-2.20768,0.0,0.0
220,54.75,132.64,150.598,108.344,107.381,137.558,0.0151752,1.22984,19.2177,187.728,-2.27368,0.0,0.0
275,68.5,130.211,149.832,120.781,106.679,133.711,0.0122818,0.976155,19.59,185.266,-2.07344,0.0,0.0
330,82.25,125.432,145.505,121.854,105.819,132.615,0.0106418,0.831455,19.8055,183.094,-2.07215,0.0,0.0
385,96,120.057,139.693,118.811,106.969,130.641,0.0102714,0.746107,19.9331,181.082,-1.83534,0.0,0.0
440,109.75,115.328,133.812,121.768,106.328,126.006,0.0101731,0.68491,20.022,179.211,-1.55883,0.0,0.0
495,123.5,111.37,129.163,130.241,106.863,132.923,0.00923584,0.647595,20.0796,177.429,-2.00333,0.0,0.0
550,137.25,108.236,124.229,125.059,107.459,134.634,0.00945907,0.633064,20.098,175.637,-2.06968,0.0,0.0
605,151,105.58,121.054,128.896,107.221,130.207,0.00962023,0.616528,20.1212,173.936,-1.78314,0.0,0.0
660,164.75,104.26,118.458,123.542,105.998,127.98,0.00929368,0.599711,20.1456,172.244,-1.73005,0.0,0.0
715,178.5,102.491,116.086,121.104,105.702,128.758,0.00900609,0.591323,20.159,170.603,-1.81138,0.0,0.0
770,192.25,101.318,114.021,128.059,106.363,129.881,0.00928436,0.583982,20.174,168.971,-1.83384,0.0,0.0
825,206,100.341,112.336,126.394,106.914,132.733,0.00906243,0.578752,20.179,167.32,-1.98581,0.0,0.0
880,219.75,99.6494,110.996,121.72,106.922,128.541,0.00921626,0.575705,20.1827,165.668,-1.69054,0.0,0.0
935,233.5,99.5903,110.244,131.57,106.621,128.659,0.009286,0.57183,20.189,164.087,-1.72485,0.0,0.0
990,247.25,99.3692,109.165,125.103,106.341,125.997,0.00910371,0.568191,20.1938,162.506,-1.55708,0.0,0.0
1045,261,98.915,108.371,124.253,106.334,125.807,0.00914725,0.56655,20.1944,160.864,-1.54382,0.0,0.0
1100,274.75,99.0366,108.342,124.441,106.776,132.751,0.00942773,0.570311,20.1879,159.263,-1.99892,0.0,0.0
1155,288.5,99.1636,108.481,125.269,107.01,131.148,0.00950546,0.562208,20.2031,157.631,-1.86731,0.0,0.0
1210,302.25,98.6591,107.678,125.759,107.103,129.13,0.00920021,0.560973,20.2035,155.99,-1.71693,0.0,0.0
1265,316,98.5453,107.648,124.966,107.112,127.934,0.00913457,0.546385,20.2236,154.418,-1.63083,0.0,0.0
1320,329.75,96.7789,105.72,128.885,107.081,131.574,0.00754747,0.501905,20.2983,152.967,-1.891,0.0,0.0
1375,343.5,95.8899,104.163,126.381,107.064,136.318,0.00650776,0.490979,20.3216,151.526,-2.21767,0.0,0.0
1430,357.25,95.2051,103.411,128.614,107.065,133.828,0.00666911,0.515121,20.2845,150.034,-2.04834,0.0,0.0
1485,371,96.2801,104.199,122.756,107.055,135.793,0.00760195,0.546732,20.2324,148.443,-2.18298,0.0,0.0
1540,384.75,97.2797,105.297,127.441,107.054,134.453,0.00774318,0.569123,20.1893,146.902,-2.09199,0.0,0.0
1595,398.5,98.6548,106.786,129.212,107.082,129.302,0.00805874,0.583897,20.1668,145.25,-1.73095,0.0,0.0
1650,412.25,100.075,107.441,123.118,107.097,133.032,0.008146,0.593849,20.1501,143.639,-1.9908,0.0,0.0
1705,426,101.831,109.67,126.088,107.06,134.435,0.00818101,0.604963,20.1331,142.037,-2.0903,0.0,0.0
1760,439.75,102.57,110.419,123.756,107,136.209,0.00788344,0.616836,20.1171,140.336,-2.21584,0.0,0.0
1815,453.5,103.048,111.678,118.293,106.862,143.552,0.0082321,0.616154,20.1156,138.724,-2.7096,0.0,0.0
1870,467.25,103.709,112.103,124.04,106.646,136.119,0.00858795,0.611582,20.1213,137.043,-2.24012,0.0,0.0
1925,481,104.113,112.941,122.324,106.459,136.562,0.00841476,0.607256,20.1272,135.411,-2.28609,0.0,0.0
1980,494.75,104.04,113.07,119.841,106.361,136.11,0.00808059,0.604652,20.1333,133.77,-2.26406,0.0,0.0
2035,508.5,104.12,113.261,123.273,106.257,132.742,0.00851286,0.602151,20.1357,132.148,-2.043,0.0,0.0
2090,522.25,104.952,113.515,123.925,106.264,135.476,0.00875729,0.604193,20.1303,130.497,-2.22964,0.0,0.0
2145,536,104.531,113.43,127.607,106.34,133.421,0.00776953,0.597227,20.1411,128.895,-2.08273,0.0,0.0
2200,549.75,104.395,112.981,123.948,106.443,135.232,0.00823768,0.585798,20.1593,127.304,-2.19757,0.0,0.0
2255,563.5,104.286,112.964,121.006,106.62,134.634,0.00842535,0.582783,20.1616,125.703,-2.14169,0.0,0.0
2310,577.25,104.42,112.548,121.4,106.794,134.58,0.00780491,0.577645,20.1695,124.141,-2.12299,0.0,0.0
2365,591,104.407,112.733,124.885,106.915,133.158,0.00830646,0.567044,20.1885,122.64,-2.01508,0.0,0.0
2420,604.75,103.156,111.755,124.833,106.947,132.461,0.00796312,0.556073,20.2054,121.119,-1.9642,0.0,0.0
2475,618.5,102.861,111.153,123.676,106.887,132.479,0.00767584,0.547651,20.2186,119.587,-1.97062,0.0,0.0
2530,632.25,102.104,110.45,125.069,106.713,132.905,0.00763251,0.548067,20.2192,118.076,-2.01503,0.0,0.0
2585,646,101.997,109.957,124.485,106.443,134.444,0.00806361,0.550808,20.2113,116.544,-2.14398,0.0,0.0
2640,659.75,102.161,110.283,122.701,106.177,132.135,0.00803498,0.544924,20.2197,115.053,-2.00791,0.0,0.0
2695,673.5,101.611,109.196,123.813,105.929,128.921,0.00754844,0.539429,20.2274,113.602,-1.80334,0.0,0.0
2750,687.25,100.82,108.802,123.676,105.731,131.248,0.00747231,0.5294,20.2447,112.191,-1.9847,0.0,0.0
2805,701,100.428,107.72,125.275,105.641,127.382,0.00773045,0.525064,20.2489,110.779,-1.71803,0.0,0.0
2860,714.75,100.448,107.733,125.569,105.672,129.935,0.0076347,0.527179,20.2426,109.368,-1.89752,0.0,0.0
2915,728.5,100.011,107.082,126.788,105.852,125.744,0.00809568,0.528892,20.2372,107.927,-1.58091,0.0,0.0
2970,742.25,99.4484,106.809,126.215,106.124,128.632,0.00813961,0.527413,20.2342,106.515,-1.7658,0.0,0.0
3025,756,99.5812,106.587,121.302,106.505,131.846,0.00801776,0.52615,20.2337,105.124,-1.95945,0.0,0.0
3080,769.75,99.0637,106.64,122.645,106.857,131.846,0.00858667,0.521535,20.2404,103.763,-1.92918,0.0,0.0
3135,783.5,98.7649,105.952,124.706,107.14,129.292,0.00809129,0.516527,20.2454,102.432,-1.72538,0.0,0.0
3190,797.25,98.5617,105.797,130.305,107.264,132.063,0.00813133,0.511314,20.2516,101.091,-1.90938,0.0,0.0
3245,811,97.8354,105.066,126.603,107.166,127.482,0.00779353,0.502819,20.2619,99.7994,-1.59363,0.0,0.0
3300,824.75,97.7804,104.85,130.217,106.898,133.457,0.00704692,0.488651,20.2865,98.5483,-2.03715,0.0,0.0
3355,838.5,96.925,104.396,128.886,106.31,129.564,0.00706606,0.477526,20.3046,97.3572,-1.816,0.0,0.0
3410,852.25,96.2394,103.318,128.186,105.72,129.618,0.00692411,0.467779,20.3169,96.1261,-1.87098,0.0,0.0
3465,866,95.9486,102.493,127.494,105.768,127.409,0.00671471,0.46176,20.3268,94.9751,-1.70894,0.0,0.0
3520,879.75,95.0327,101.434,123.728,106.534,132.425,0.00641795,0.447113,20.3473,93.8541,-1.99716,0.0,0.0
3575,893.5,94.0478,100.662,131.396,106.961,132.552,0.00595055,0.436454,20.3617,92.6931,-1.96928,0.0,0.0
3630,907.25,93.1005,99.8625,127.214,106.377,130.171,0.00608509,0.43122,20.3688,91.6621,-1.85309,0.0,0.0
3685,921,92.4532,98.8534,127.217,107.087,126.631,0.00564614,0.425218,20.3746,90.5812,-1.53896,0.0,0.0
3740,934.75,91.807,98.0182,128.622,106.904,129.139,0.00580405,0.422419,20.3761,89.5703,-1.73465,0.0,0.0
3795,948.5,91.385,97.349,127.732,107.592,128.161,0.00556595,0.41609,20.3821,88.5994,-1.60602,0.0,0.0
3850,962.25,91.0234,97.0837,126.944,106.719,128.423,0.00523115,0.411357,20.3865,87.6485,-1.69957,0.0,0.0
3905,976,90.2335,96.2537,130.254,105.69,126.54,0.00445701,0.399653,20.4036,86.7477,-1.65291,0.0,0.0
3960,989.75,89.4052,95.1789,126.839,106.393,131.167,0.00494084,0.390199,20.4178,85.877,-1.92167,0.0,0.0
4015,1003.5,88.4054,94.3818,133.482,106.973,127.862,0.00458373,0.380321,20.4308,85.0262,-1.63758,0.0,0.0
4070,1017.25,88.1241,93.8805,131.627,106.301,129.446,0.00410561,0.371278,20.4435,84.2655,-1.80849,0.0,0.0
4125,1031,87.0444,92.5706,128.273,106.863,128.84,0.00408899,0.354265,20.4687,83.4948,-1.7169,0.0,0.0
4180,1044.75,85.7974,91.3597,132.785,107.48,131.085,0.00398529,0.343396,20.4879,82.8442,-1.82269,0.0,0.0
4235,1058.5,84.0988,89.6731,129.51,106.793,131.103,0.00382511,0.327872,20.5084,82.1236,-1.8828,0.0,0.0
4290,1072.25,83.3727,88.8181,136.877,105.787,129.012,0.00324623,0.315773,20.5286,81.493,-1.82206,0.0,0.0
4345,1086,81.9509,87.1611,134.182,106.971,130.234,0.00316928,0.306372,20.5442,80.9425,-1.80648,0.0,0.0
4400,1099.75,80.9304,86.0423,135.229,106.341,129.618,0.00300947,0.295261,20.5621,80.4221,-1.81722,0.0,0.0
4455,1113.5,79.8461,84.631,138.01,107.02,127.934,0.00270641,0.283073,20.5868,79.9717,-1.63871,0.0,0.0
4510,1127.25,78.4446,83.4119,136.497,107.354,128.957,0.00260267,0.271067,20.6067,79.4011,-1.68322,0.0,0.0
4565,1141,77.1282,81.8849,134.399,107.293,130.533,0.0027945,0.260201,20.6245,78.9307,-1.79986,0.0,0.0
4620,1154.75,76.2901,80.6458,138.15,106.099,129.51,0.00229659,0.244287,20.6542,78.4103,-1.83045,0.0,0.0
4675,1168.5,73.9394,78.0483,144.748,105.825,127.509,0.00260369,0.226589,20.6873,78.1801,-1.7112,0.0,0.0
4730,1182.25,71.8498,76.2975,139.149,106.388,128.921,0.00274684,0.20118,20.7352,77.8197,-1.76365,0.0,0.0
4785,1196,68.9818,72.6075,142.9,106.848,127.102,0.00362077,0.177828,20.7813,77.5495,-1.59347,0.0,0.0
4840,1209.75,66.8102,70.0176,146.82,107.044,129.464,0.00565626,0.167082,20.8102,77.3593,-1.74576,0.0,0.0
4895,1223.5,63.3876,66.1788,144.574,107.077,126.712,0.00620656,0.172948,20.8049,77.1491,-1.54565,0.0,0.0
4950,1237.25,61.7512,64.7846,144.704,107.08,127.726,0.00567781,0.165641,20.8165,76.9489,-1.6186,0.0,0.0
5005,1251,60.5259,62.4631,143.96,107.085,127.572,0.00566239,0.162813,20.8203,76.6987,-1.60708,0.0,0.0
5060,1264.75,59.2743,61.2329,144.199,107.094,127.708,0.00525622,0.160999,20.8216,76.5186,-1.6161,0.0,0.0
5115,1278.5,58.4284,60.426,144.751,107.057,127.699,0.00531177,0.160369,20.8208,76.2884,-1.61859,0.0,0.0
5170,1292.25,57.1499,58.9512,146.204,107.009,126.83,0.00540844,0.160126,20.8222,76.0581,-1.56004,0.0,0.0
5225,1306,56.9067,58.5289,145.981,106.876,126.73,0.00547101,0.159375,20.8234,75.858,-1.56427,0.0,0.0
5280,1319.75,56.3944,57.8963,142.289,106.64,125.716,0.00567403,0.159746,20.8226,75.6878,-1.51082,0.0,0.0
5335,1333.5,55.9776,57.2383,146.634,106.272,125.001,,,,75.4977,-1.49013,0.0,0.0
5348,1336.75,55.1977,57.0508,145.661,106.176,125.816,,,,75.4876,-1.5581,0.0,0.0