File: 01_Data/Composite_Deck_Board/Cone/Composite_Deck_Board_Cone_HF75Scan_221209_R3.csv
Names,Time,Stack TC,Smoke TC,Exh Press,Smoke Comp,Smoke Meas,CO Meter,CO2 Meter,O2 Meter,Sample Mass,Ext Coeff,Start Test,Flame Verif
Chan Gain,,500,500,1,1,1,1,1,1,1,1,1.0,1.0
Offset,,0,0,0.136389,0,0,0,0,0,0,0,0.0,0.0
Gain,,1,1,25.011,14.2696,296.664,1,1,1,1.0009,1.04656,1.0,1.0
Units,sec,C,C,Pa,%,%,%,%,%,g,/m,,
Baseline,,48.676,50.3164,148.836,106.876,119.314,0.000676689,0.0669369,20.9505,-446.568,-1.01047,,
56,13.75,46.4685,47.8867,135.687,107.631,124.096,0.00281363,0.131913,20.8424,196.876,-1.30681,0.0,1.0
112,27.75,85.1578,85.0286,72.6499,107.604,134.933,0.0316672,2.2682,17.5857,193.784,-2.07768,0.0,0.0
168,41.75,134.361,146.947,96.387,107.597,127.219,0.0253491,2.05401,17.9292,189.7,-1.53788,0.0,0.0
224,55.75,138.289,156.951,111.584,107.581,134.725,0.0143467,1.24734,19.1821,186.697,-2.06544,0.0,0.0
280,69.75,135.978,155.031,118.064,107.6,126.477,0.0121997,0.980615,19.5793,184.175,-1.48385,0.0,0.0
336,83.75,130.714,150.357,116.285,107.594,130.297,0.0106583,0.844253,19.7841,182.023,-1.75758,0.0,0.0
392,97.75,125.759,144.613,118.16,107.615,128.26,0.00995735,0.75752,19.9106,179.911,-1.61114,0.0,0.0
448,111.75,120.538,138.88,118.159,107.623,124.223,0.00991653,0.701991,19.9918,177.949,-1.31685,0.0,0.0
504,125.75,116.545,133.199,130.457,107.651,127.681,0.0091662,0.663748,20.0515,176.178,-1.56657,0.0,0.0
560,139.75,113.39,129.143,116.768,107.672,126.712,0.00900564,0.640035,20.091,174.406,-1.49483,0.0,0.0
616,153.75,111.127,125.05,127.271,107.698,128.604,0.00907067,0.622698,20.1144,172.665,-1.62868,0.0,0.0
672,167.75,109.146,122.79,121.702,107.682,126.567,0.0089581,0.611477,20.1297,170.983,-1.48348,0.0,0.0
728,181.75,107.734,120.437,123.621,107.611,126.196,0.00927663,0.600437,20.1473,169.292,-1.4626,0.0,0.0
784,195.75,106.144,117.743,121.22,107.513,129.836,0.00921338,0.597311,20.1493,167.67,-1.73198,0.0,0.0
840,209.75,105.674,116.913,123.702,107.388,125.11,0.00894141,0.592473,20.1563,165.979,-1.40227,0.0,0.0
896,223.75,104.369,116.133,128.325,107.224,125.354,0.0086425,0.587255,20.1625,164.307,-1.4342,0.0,0.0
952,237.75,104.503,114.435,124.48,107.032,123.381,0.00916657,0.583314,20.1689,162.626,-1.30496,0.0,0.0
1008,251.75,103.546,113.32,122.703,106.882,125.979,0.00939415,0.575637,20.1784,161.034,-1.50919,0.0,0.0
1064,265.75,102.988,112.655,126.61,106.722,123.598,0.00961896,0.565651,20.1913,159.413,-1.34775,0.0,0.0
1120,279.75,102.555,111.607,126.997,107.003,129.528,0.00915218,0.561144,20.2026,157.741,-1.75376,0.0,0.0
1176,293.75,102.514,110.785,123.932,107.141,126.531,0.00900003,0.55415,20.2125,156.15,-1.52704,0.0,0.0
1232,307.75,101.646,111.106,125.727,107.153,121.534,0.00910196,0.558832,20.2036,154.579,-1.15609,0.0,0.0
1288,321.75,100.957,109.792,125.757,106.916,126.115,0.00740176,0.498173,20.2968,153.097,-1.51608,0.0,0.0
1344,335.75,98.3774,106.688,130.058,106.608,131.882,0.00507857,0.45886,20.3777,151.696,-1.95309,0.0,0.0
1400,349.75,96.6782,104.664,127.803,106.417,132.307,0.00571382,0.474802,20.3529,150.235,-1.9991,0.0,0.0
1456,363.75,96.4983,104.037,125.362,106.605,126.957,0.00690412,0.514126,20.2891,148.703,-1.60395,0.0,0.0
1512,377.75,97.4824,104.958,121.695,106.857,129.827,0.00783702,0.539967,20.2402,147.162,-1.78747,0.0,0.0
1568,391.75,98.3597,105.691,123.734,107.085,128.885,0.00871266,0.5524,20.2129,145.58,-1.70107,0.0,0.0
1624,405.75,99.4169,107.057,127.531,107.195,124.521,0.00900602,0.562045,20.2002,144.029,-1.37549,0.0,0.0
1680,419.75,100.375,108.181,126.175,107.133,127.79,0.00923028,0.577178,20.1757,142.408,-1.6186,0.0,0.0
1736,433.75,101.19,108.807,124.714,106.945,126.042,0.00934549,0.581641,20.1651,140.716,-1.50834,0.0,0.0
1792,447.75,102.13,110.193,124.681,106.653,126.404,0.00930194,0.582158,20.1629,139.115,-1.5598,0.0,0.0
1848,461.75,102.3,110.13,126.473,106.351,126.64,0.00904447,0.584355,20.1611,137.463,-1.60293,0.0,0.0
1904,475.75,103.171,111.262,126.497,106.054,126.495,0.00956068,0.578499,20.1712,135.812,-1.61806,0.0,0.0
1960,489.75,103.226,111.047,124.35,105.898,122.013,0.00946404,0.574401,20.179,134.23,-1.30046,0.0,0.0
2016,503.75,103.088,110.706,125.2,106.041,128.976,0.00953104,0.571949,20.1806,132.609,-1.79744,0.0,0.0
2072,517.75,103.091,110.825,128.58,106.405,123.118,0.00939095,0.566669,20.1871,130.957,-1.33931,0.0,0.0
2128,531.75,102.83,110.739,124.529,106.827,128.188,0.0092973,0.563611,20.1956,129.396,-1.67344,0.0,0.0
2184,545.75,102.365,110.463,123.798,107.298,128.423,0.00974233,0.561572,20.1978,127.825,-1.64992,0.0,0.0
2240,559.75,102.902,110.302,123.884,107.635,126.278,0.00939202,0.552231,20.2094,126.243,-1.46641,0.0,0.0
2296,573.75,102.855,110.01,125.649,107.719,129.962,0.00888384,0.550431,20.2124,124.732,-1.72333,0.0,0.0
2352,587.75,101.707,109.873,130.216,107.557,127.418,0.00868529,0.534967,20.2351,123.23,-1.55566,0.0,0.0
2408,601.75,100.985,108.954,126.697,107.274,125.191,0.00828757,0.531199,20.2429,121.659,-1.41793,0.0,0.0
2464,615.75,100.883,109.083,120.86,106.938,126.088,0.00873263,0.529265,20.245,120.198,-1.51227,0.0,0.0
2520,629.75,100.41,108.227,122.528,106.952,125.445,0.00885884,0.527693,20.2467,118.666,-1.46416,0.0,0.0
2576,643.75,99.797,107.979,124.614,107.196,125.834,0.00869509,0.523187,20.2556,117.215,-1.47166,0.0,0.0
2632,657.75,99.5487,106.869,127.448,107.117,125.399,0.00796933,0.518298,20.2605,115.774,-1.44665,0.0,0.0
2688,671.75,99.2076,106.9,129.553,106.731,125.2,0.00894885,0.521468,20.2532,114.262,-1.46519,0.0,0.0
2744,685.75,99.0919,106.36,124.979,106.404,123.109,0.00923593,0.524758,20.2468,112.831,-1.33871,0.0,0.0
2800,699.75,99.0219,106.44,125.683,106.606,123.027,0.00917771,0.529252,20.2339,111.33,-1.31526,0.0,0.0
2856,713.75,98.4638,106.777,129.147,106.92,125.689,0.00960071,0.528549,20.234,109.888,-1.48472,0.0,0.0
2912,727.75,98.8797,105.924,125.963,107.116,126.549,0.00921834,0.524784,20.2403,108.427,-1.53055,0.0,0.0
2968,741.75,98.84,106.054,126.107,107.166,125.445,0.00911302,0.520126,20.245,107.016,-1.44579,0.0,0.0
3024,755.75,98.7454,105.782,123.936,107.061,122.475,0.00900948,0.516277,20.248,105.585,-1.23485,0.0,0.0
3080,769.75,98.6633,105.075,123.139,106.897,126.821,0.00858015,0.513682,20.2495,104.183,-1.56903,0.0,0.0
3136,783.75,97.9163,104.976,128.025,106.614,122.611,0.00828304,0.506281,20.2663,102.842,-1.28342,0.0,0.0
3192,797.75,97.9994,104.827,127.697,106.243,120.637,0.00781667,0.501793,20.2683,101.471,-1.16648,0.0,0.0
3248,811.75,97.0918,104.267,123.777,105.956,123.272,0.00761222,0.497869,20.2736,100.13,-1.3896,0.0,0.0
3304,825.75,96.7897,103.763,129.993,105.878,122.738,0.00790833,0.490011,20.2823,98.8286,-1.35649,0.0,0.0
3360,839.75,96.4804,102.953,125.223,106.066,120.936,0.0077933,0.482904,20.2892,97.4974,-1.20444,0.0,0.0
3416,853.75,95.8914,102.548,126.933,106.432,123.372,0.00765964,0.474077,20.3034,96.2963,-1.35587,0.0,0.0
3472,867.75,95.5109,101.858,127.762,106.882,121.579,0.00758178,0.470735,20.3066,95.0652,-1.18278,0.0,0.0
3528,881.75,94.7175,101.455,132.081,107.334,124.965,0.00670494,0.465769,20.3109,93.8641,-1.39618,0.0,0.0
3584,895.75,94.3602,100.689,128.355,107.62,122.511,0.00652828,0.453692,20.3315,92.7131,-1.18978,0.0,0.0
3640,909.75,93.684,100.159,126.694,107.726,125.934,0.00628962,0.444638,20.3449,91.5821,-1.43361,0.0,0.0
3696,923.75,93.2123,99.4393,125.943,107.717,123.181,0.00573641,0.436919,20.3576,90.5311,-1.23153,0.0,0.0
3752,937.75,92.0024,98.464,134.141,107.53,122.104,0.00521692,0.428422,20.3654,89.5302,-1.16682,0.0,0.0
3808,951.75,91.6298,97.6729,126.559,107.212,123.399,0.00497475,0.420053,20.3777,88.4993,-1.29086,0.0,0.0
3864,965.75,90.7129,96.297,130.445,106.896,125.698,0.00522027,0.414963,20.384,87.4784,-1.48744,0.0,0.0
3920,979.75,90.119,96.3091,127.297,106.947,123.163,0.00447958,0.404927,20.3952,86.5576,-1.29603,0.0,0.0
3976,993.75,90.2817,95.7294,127.297,107.222,122.874,0.00436375,0.398646,20.4047,85.6267,-1.25085,0.0,0.0
4032,1007.75,88.895,94.9644,128.725,107.242,122.774,0.00377812,0.390688,20.4174,84.806,-1.2417,0.0,0.0
4088,1021.75,88.2761,94.2028,129.967,107.231,124.15,0.00378645,0.380605,20.4329,83.9652,-1.34496,0.0,0.0
4144,1035.75,87.8663,93.1298,127.626,107.24,125.635,0.00375397,0.368943,20.4503,83.1745,-1.45331,0.0,0.0
4200,1049.75,87.1162,92.3564,126.909,107.122,122.629,0.00343154,0.362164,20.4591,82.4839,-1.24115,0.0,0.0
4256,1063.75,86.2002,91.5728,132.311,106.843,121.869,0.00367271,0.353174,20.4739,81.6732,-1.208,0.0,0.0
4312,1077.75,85.3222,90.7832,130.195,107.307,124.784,0.00324604,0.340156,20.4943,80.9826,-1.38525,0.0,0.0
4368,1091.75,84.7581,89.7713,134.304,107.716,126.649,0.00343318,0.331817,20.506,80.302,-1.48649,0.0,0.0
4424,1105.75,83.7492,89.0227,133.158,107.365,125.78,0.00247601,0.319357,20.5239,79.7014,-1.45324,0.0,0.0
4480,1119.75,82.2592,87.096,130.718,106.225,125.725,0.00305517,0.313597,20.5372,79.1109,-1.54724,0.0,0.0
4536,1133.75,82.0759,87.008,131.347,105.99,127.065,0.00314746,0.307011,20.5481,78.5003,-1.6649,0.0,0.0
4592,1147.75,80.7598,85.5261,133.494,106.96,128.414,0.00307487,0.289804,20.5782,78.0299,-1.67823,0.0,0.0
4648,1161.75,79.3252,83.9686,136.647,107.047,126.558,0.00247054,0.273754,20.6093,77.4694,-1.53715,0.0,0.0
4704,1175.75,77.4748,82.1023,135.34,106.53,125.164,0.00304453,0.258645,20.6383,77.009,-1.47989,0.0,0.0
4760,1189.75,76.0787,80.0251,137.464,107.122,127.002,0.00301286,0.236075,20.6783,76.5886,-1.56281,0.0,0.0
4816,1203.75,72.917,76.7223,136.901,107.39,129.682,0.00358622,0.206769,20.7346,76.2183,-1.73155,0.0,0.0
4872,1217.75,70.0491,74.0999,141.497,107.536,128.414,0.00340877,0.180968,20.7823,75.9781,-1.62895,0.0,0.0
4928,1231.75,66.312,70.1899,141.787,106.096,125.336,0.00511087,0.16613,20.8148,75.7679,-1.52995,0.0,0.0
4984,1245.75,64.096,67.264,142.197,106.441,125.698,0.00551493,0.165081,20.8216,75.5777,-1.52664,0.0,0.0
5040,1259.75,62.3432,65.3365,140.946,107.148,126.133,0.00498033,0.162632,20.8253,75.3475,-1.49749,0.0,0.0
5096,1273.75,61.2939,63.7816,142.171,106.587,125.979,0.00524494,0.159762,20.8297,75.1573,-1.53451,0.0,0.0
5152,1287.75,60.4715,62.5412,142.928,106.969,123.869,0.00545686,0.158504,20.8309,74.9271,-1.34661,0.0,0.0
5208,1301.75,59.2421,61.7478,141.997,107.388,124.911,0.00543729,0.158619,20.8298,74.6869,-1.38764,0.0,0.0
5264,1315.75,58.256,60.5612,139.91,107.645,124.82,0.00534435,0.158364,20.8327,74.4867,-1.35901,0.0,0.0
5320,1329.75,58.1788,60.1048,143.663,107.109,124.132,0.00580319,0.157496,20.8321,74.2866,-1.35406,0.0,0.0
5376,1343.75,57.7922,59.4139,143.402,106.428,121.905,,,,74.0263,-1.24645,0.0,0.0
5399,1349.5,57.0959,59.4818,144.454,106.252,123.906,,,,73.9863,-1.41106,0.0,0.0