File: 01_Data/Composite_Deck_Board/Cone/Composite_Deck_Board_Cone_HF50Scalar_221209_R3.csv
LABORATORY,FSRI
TEST IDENT,TREX_HF50_3
OPERATOR,Dow
MATERIAL,TREX board
ORIENTATION,Horizontal
HEAT FLUX,50
SURF AREA,0.01
C FACTOR,0.0380612
SPEC HOLDER DIFF,-566
SPECIMEN MASS,146.48
SCAN TIME,0.25
O2 DELAY TIME,11
CO DELAY TIME,11
CO2 DELAY TIME,8
FLOW FACTOR,1
SCAN COUNT,7078
TIME TO IGN,26.5
END OF TEST SCAN,6598
END OF TEST TIME,1649.5
TEST STATUS,1
PRE TEST CMT,Dimensions: 101.24 x 101.63 x 13.03 mm