File: 01_Data/Composite_Deck_Board/Cone/Composite_Deck_Board_Cone_HF25Scan_221209_R2.csv
Names,Time,Stack TC,Smoke TC,Exh Press,Smoke Comp,Smoke Meas,CO Meter,CO2 Meter,O2 Meter,Sample Mass,Ext Coeff,Start Test,Flame Verif
Chan Gain,,500,500,1,1,1,1,1,1,1,1,1.0,1.0
Offset,,0,0,0.13786,0,0,0,0,0,0,0,0.0,0.0
Gain,,1,1,25.011,13.9274,292.346,1,1,1,1.00091,1.04463,1.0,1.0
Units,sec,C,C,Pa,%,%,%,%,%,g,/m,,
Baseline,,22.5753,23.2638,162.604,104.09,100.668,-0.000275746,0.0655686,20.944,-444.125,0.306422,,
104,25.75,20.5699,21.3346,160.319,102.953,100.565,-9.41783e-05,0.06574,20.9457,194.646,0.215072,0.0,0.0
208,51.75,20.6705,21.4761,162.931,103.936,100.869,-0.000643505,0.065488,20.942,194.586,0.274522,0.0,0.0
312,77.75,21.0984,21.7612,156.372,104.907,100.958,0.000360905,0.0656714,20.9404,194.516,0.351647,0.0,0.0
416,103.75,21.1793,22.0285,166.828,104.194,98.763,0.000324287,0.0661812,20.9381,194.416,0.49054,0.0,0.0
520,129.75,21.3795,21.7298,160.784,104.513,99.789,0.000426897,0.0675724,20.9396,194.236,0.423829,0.0,0.0
624,155.75,21.2624,22.1373,162.303,103.701,100.842,0.000486343,0.0747119,20.9305,193.996,0.256245,0.0,1.0
728,181.75,53.4756,52.5061,115.679,104.248,118.792,0.00781385,0.980161,19.5278,190.903,-1.1968,0.0,0.0
832,207.75,70.6942,75.6537,133.735,103.889,112.993,0.00453926,0.618309,20.1153,187.53,-0.769767,0.0,0.0
936,233.75,67.5215,74.9503,141.266,103.122,114.804,0.00349167,0.473022,20.342,185.068,-0.98336,0.0,0.0
1040,259.75,64.1931,71.8351,139.346,103.127,115.072,0.00295593,0.426248,20.4168,182.816,-1.00424,0.0,0.0
1144,285.75,61.6297,69.1311,143.989,104.332,114.001,0.00241695,0.400974,20.4542,180.734,-0.812145,0.0,0.0
1248,311.75,59.4939,66.0248,148.769,104.878,114.429,0.0025346,0.382247,20.4823,178.762,-0.798659,0.0,0.0
1352,337.75,57.7486,63.8947,141.419,104.839,117.686,0.00226367,0.367796,20.5051,176.84,-1.05924,0.0,0.0
1456,363.75,56.0341,61.8183,143,104.422,113.18,0.00247252,0.3566,20.5243,174.969,-0.738057,0.0,0.0
1560,389.75,55.2446,60.8218,145.388,104.253,114.269,0.00192499,0.346855,20.5398,173.157,-0.840617,0.0,0.0
1664,415.75,54.6965,59.643,143.186,104.451,114.394,0.00184118,0.341619,20.548,171.345,-0.833235,0.0,0.0
1768,441.75,54.2754,58.3692,142.995,103.634,113.43,0.00198505,0.342463,20.5468,169.504,-0.827636,0.0,0.0
1872,467.75,53.7524,57.6957,147.3,104.057,113.787,0.00159624,0.327744,20.5724,167.712,-0.819103,0.0,0.0
1976,493.75,53.812,57.6335,141.718,104.178,115.081,0.00136024,0.326368,20.5712,165.97,-0.91207,0.0,0.0
2080,519.75,53.0229,56.6501,148.29,103.696,112.859,0.00156426,0.320857,20.5824,164.219,-0.775944,0.0,0.0
2184,545.75,52.6005,56.4111,148.437,103.305,113.582,0.00192659,0.320895,20.5767,162.507,-0.869014,0.0,0.0
2288,571.75,52.622,56.0568,141.214,102.934,114.876,0.00165275,0.325957,20.5712,160.746,-1.00576,0.0,0.0
2392,597.75,52.4262,55.9378,148.067,102.952,113.76,0.00140553,0.325676,20.5726,159.014,-0.91482,0.0,0.0
2496,623.75,52.2788,55.7301,144.079,103.47,113.644,0.00144232,0.32488,20.5717,157.242,-0.859435,0.0,0.0
2600,649.75,52.7738,56.1876,144.681,104.365,116,0.00140766,0.325815,20.5752,155.481,-0.968515,0.0,0.0
2704,675.75,52.3557,55.8776,147.175,104.885,116.838,0.00153853,0.326609,20.5733,153.739,-0.988961,0.0,0.0
2808,701.75,53.1121,56.2923,142.152,104.752,116.829,0.00138259,0.332416,20.5644,151.918,-0.999929,0.0,0.0
2912,727.75,53.3414,56.4347,146.82,104.297,116.651,0.00171069,0.333764,20.5651,150.126,-1.02583,0.0,0.0
3016,753.75,53.7434,57.1379,147.15,104.074,116.312,0.00142039,0.337456,20.5589,148.344,-1.01875,0.0,0.0
3120,779.75,53.9831,57.5066,142.696,104.526,115.946,0.00126258,0.339032,20.5572,146.443,-0.950115,0.0,0.0
3224,805.75,54.1403,57.6867,143.83,104.438,115.955,0.00160663,0.340875,20.5544,144.611,-0.958537,0.0,0.0
3328,831.75,53.951,57.6892,143.202,103.957,115.696,0.00144304,0.340434,20.5561,142.759,-0.980417,0.0,0.0
3432,857.75,54.5346,57.5446,144.203,103.686,117.873,0.00153065,0.341676,20.552,140.908,-1.17513,0.0,0.0
3536,883.75,54.6782,57.7734,147.23,103.871,116.606,0.00157079,0.345118,20.5473,139.006,-1.05982,0.0,0.0
3640,909.75,54.7272,57.1285,143.591,104.022,116.678,0.00171685,0.346765,20.5437,137.114,-1.05205,0.0,0.0
3744,935.75,55.2886,58.2801,151.51,104.163,116.25,0.00146752,0.349365,20.5407,135.212,-1.00601,0.0,0.0
3848,961.75,54.9035,58.699,140.1,104.191,115.295,0.00149597,0.348136,20.5444,133.321,-0.927944,0.0,0.0
3952,987.75,55.7746,59.1786,138.091,104.173,116.169,0.00142604,0.349655,20.5419,131.419,-0.998742,0.0,0.0
4056,1013.75,55.622,59.438,141.138,104.184,119.658,0.00150494,0.351179,20.5405,129.507,-1.26892,0.0,0.0
4160,1039.75,56.2484,59.169,145.797,104.187,115.545,0.00122932,0.351758,20.5362,127.586,-0.948114,0.0,0.0
4264,1065.75,56.4006,59.555,142.536,104.024,119.229,0.00155855,0.355778,20.5297,125.744,-1.25013,0.0,0.0
4368,1091.75,56.3587,60.5778,138.162,104.106,119.015,0.00137233,0.355137,20.5315,123.872,-1.22644,0.0,0.0
4472,1117.75,57.269,60.337,143.122,104.192,118.498,0.00129177,0.354918,20.5297,121.98,-1.17899,0.0,0.0
4576,1143.75,56.5597,60.9857,138.691,104.564,118.756,0.00157497,0.354805,20.5294,120.089,-1.16629,0.0,0.0
4680,1169.75,57.5484,61.1851,145.728,102.884,116.303,0.00127278,0.347205,20.5373,118.297,-1.12339,0.0,0.0
4784,1195.75,56.8439,61.5383,146.636,104.186,118.409,0.00146727,0.347716,20.5373,116.455,-1.17258,0.0,0.0
4888,1221.75,57.7653,60.3473,144.623,104.468,119.443,0.00152605,0.341909,20.5446,114.664,-1.22757,0.0,0.0
4992,1247.75,56.7681,60.7761,143.322,104.458,118.721,0.00175953,0.337927,20.5456,113.012,-1.17278,0.0,0.0
5096,1273.75,56.5627,59.6695,144.529,103.925,117.24,0.00147358,0.336527,20.5468,111.331,-1.10467,0.0,0.0
5200,1299.75,55.678,60.3675,144.248,104.506,118.676,0.00140212,0.330293,20.5534,109.749,-1.16516,0.0,0.0
5304,1325.75,55.9201,59.5766,139.455,104.037,117.597,0.00137808,0.323433,20.5621,108.218,-1.12266,0.0,0.0
5408,1351.75,55.0353,58.8538,146.536,104.188,117.07,0.00126827,0.318237,20.5677,106.707,-1.06828,0.0,0.0
5512,1377.75,54.7746,58.4613,145.781,104.416,115.705,0.0013479,0.311678,20.5781,105.215,-0.940752,0.0,0.0
5616,1403.75,54.3682,57.8468,148.964,104.701,116.196,0.00179294,0.308018,20.5791,103.824,-0.954574,0.0,0.0
5720,1429.75,53.6244,56.4782,144.644,104.444,114.01,0.00148002,0.300394,20.5922,102.503,-0.803012,0.0,0.0
5824,1455.75,53.1235,56.4998,143.827,103.306,112.565,0.0012835,0.294002,20.6005,101.202,-0.786553,0.0,0.0
5928,1481.75,52.0975,55.3283,148.472,102.983,111.36,0.00134479,0.287167,20.6071,99.9606,-0.716675,0.0,0.0
6032,1507.75,51.602,54.3882,148.096,103.111,113.145,0.000916959,0.280722,20.6173,98.7995,-0.850923,0.0,0.0
6136,1533.75,50.6998,53.5803,146.51,103.297,111.887,0.00105547,0.278871,20.6179,97.6685,-0.731981,0.0,0.0
6240,1559.75,50.4284,52.7621,143.707,103.493,112.021,0.0011825,0.266023,20.6367,96.6175,-0.72557,0.0,0.0
6344,1585.75,49.5371,52.0079,147.744,103.721,110.557,0.001002,0.258439,20.6455,95.6567,-0.584944,0.0,0.0
6448,1611.75,48.7175,51.0435,148.731,103.801,110.334,0.00108301,0.25285,20.6533,94.7358,-0.559344,0.0,0.0
6552,1637.75,48.0623,50.484,149.004,103.836,111.682,0.000719772,0.246953,20.6584,93.825,-0.667438,0.0,0.0
6656,1663.75,47.4832,49.9311,150.369,103.775,111.191,0.0007066,0.241867,20.6658,92.9742,-0.632453,0.0,0.0
6760,1689.75,46.7708,49.1888,147.598,103.637,109.451,0.000538196,0.237702,20.6716,92.1835,-0.500151,0.0,0.0
6864,1715.75,46.2499,48.4497,148.332,103.335,110.682,0.00104667,0.234962,20.6772,91.4128,-0.629449,0.0,0.0
6968,1741.75,45.4863,47.6915,151.599,103.075,109.478,0.000928539,0.232082,20.6818,90.6321,-0.552208,0.0,0.0
7072,1767.75,44.9215,47.4197,153.859,103.001,109.603,0.000640146,0.229588,20.6835,89.8814,-0.569234,0.0,0.0
7176,1793.75,44.9672,47.3454,147.719,103.106,108.675,0.00071773,0.22833,20.6887,89.1407,-0.482071,0.0,0.0
7280,1819.75,44.6438,46.5899,150.803,103.476,109.175,0.000916361,0.225863,20.6893,88.4101,-0.491221,0.0,0.0
7384,1845.75,43.5764,45.7477,148.911,104.11,109.763,0.000717052,0.222646,20.695,87.7195,-0.484525,0.0,0.0
7488,1871.75,43.3865,45.4707,155.16,104.796,108.479,0.000891332,0.220735,20.6951,87.0188,-0.316496,0.0,0.0
7592,1897.75,42.9455,45.3154,152.183,104.854,109.344,0.000715029,0.218562,20.7006,86.3282,-0.384218,0.0,0.0
7696,1923.75,42.4255,44.4299,153.715,104.404,108.22,0.000766836,0.212277,20.7115,85.6176,-0.328982,0.0,0.0
7800,1949.75,42.0318,44.102,149.655,104.064,107.792,0.00120144,0.210914,20.7162,84.9069,-0.322467,0.0,0.0
7904,1975.75,41.3309,43.227,149.94,104.458,107.292,0.00158802,0.20888,20.7187,84.2663,-0.245341,0.0,0.0
8008,2001.75,41.1102,42.5593,150.092,103.611,106.239,0.00135367,0.203089,20.7278,83.6258,-0.22956,0.0,0.0
8112,2027.75,40.1147,42.3193,151.062,104.004,106.801,0.00165308,0.198595,20.7352,83.0352,-0.243244,0.0,0.0
8216,2053.75,39.3337,40.6614,152.22,104.273,106.935,0.0017882,0.189023,20.751,82.4447,-0.231007,0.0,0.0
8320,2079.75,38.2294,39.8414,153.29,104.086,106.605,0.00252254,0.183051,20.7614,81.8842,-0.219163,0.0,0.0
8424,2105.75,36.5782,38.9641,157.322,103.578,105.044,0.00266496,0.171842,20.7806,81.3937,-0.128755,0.0,0.0
8528,2131.75,36.206,37.3822,155.849,103.107,105.312,0.00366026,0.164313,20.7963,80.9133,-0.193832,0.0,0.0
8632,2157.75,34.991,35.8693,158.111,102.984,104.714,0.00351121,0.158423,20.8032,80.4429,-0.152669,0.0,0.0
8736,2183.75,33.972,34.9694,154.957,103.419,103.857,0.00466498,0.153028,20.8173,80.0025,-0.0387285,0.0,0.0
8840,2209.75,32.4686,33.8241,158.808,103.832,104.517,0.00466036,0.148522,20.8222,79.5721,-0.0602625,0.0,0.0
8944,2235.75,32.3305,33.1465,159.246,104.313,104.687,0.00516566,0.145,20.8278,79.1817,-0.0328237,0.0,0.0
9048,2261.75,31.2316,32.2584,160.066,104.808,104.509,0.00581513,0.138633,20.8378,78.7814,0.0262403,0.0,0.0
9152,2287.75,30.2088,31.2021,156.245,104.91,105.124,0.0070071,0.130446,20.8497,78.4611,-0.018664,0.0,0.0
9256,2313.75,28.6042,30.3949,163.559,104.335,104.125,0.00836276,0.122223,20.8613,78.1308,0.0184479,0.0,0.0
9360,2339.75,27.728,28.2508,161.432,104.436,104.071,0.0098946,0.117175,20.8712,77.8105,0.0320398,0.0,0.0
9464,2365.75,26.1482,27.0967,160.135,104.079,103.331,0.00925322,0.113652,20.8792,77.5302,0.0660939,0.0,0.0
9568,2391.75,25.8238,26.7215,157.07,103.906,103.26,0.00947108,0.11292,20.8797,77.24,0.0572204,0.0,0.0
9672,2417.75,25.9672,26.4108,156.063,104.271,103.358,0.00960856,0.112553,20.882,76.9597,0.0806571,0.0,0.0
9776,2443.75,25.4768,26.0579,159.52,103.723,103.188,0.00932724,0.111188,20.8841,76.6995,0.0473495,0.0,0.0
9880,2469.75,25.0541,25.7547,157.512,102.951,102.671,0.00922509,0.110642,20.8823,76.4693,0.0250094,0.0,0.0
9933,2483,24.3391,25.2453,159.982,102.956,101.582,,,,76.2991,0.12309,0.0,0.0