File: 01_Data/Composite_Deck_Board/Cone/Composite_Deck_Board_HRRPUA_25.csv
Time after Ignition,Composite_Deck_Board_R1,Composite_Deck_Board_R2,Composite_Deck_Board_R3,Mean,Std. Dev.
0.0,3.4,4.6,3.8,3.9,0.6
7.75,121.1,70.2,203.3,131.5,67.2
15.5,503.5,377.4,540.7,473.9,85.6
23.25,673.4,560.0,653.1,628.8,60.5
31.0,671.0,584.2,596.2,617.1,47.1
38.75,536.6,521.3,488.0,515.3,24.9
46.5,436.7,431.3,393.8,420.6,23.4
54.25,350.3,359.1,331.7,347.0,14.0
62.0,299.6,315.7,292.3,302.5,12.0
69.75,280.1,289.1,272.5,280.6,8.3
77.5,270.3,277.2,259.0,268.8,9.1
85.25,257.6,261.5,251.7,256.9,4.9
93.0,245.0,250.3,248.0,247.8,2.7
100.75,251.0,242.3,251.2,248.2,5.1
108.5,245.1,237.4,247.0,243.2,5.1
116.25,244.1,239.2,243.7,242.3,2.7
124.0,234.2,230.7,238.0,234.3,3.6
131.75,229.3,226.9,233.6,229.9,3.4
139.5,226.2,223.4,230.4,226.7,3.5
147.25,219.3,217.0,225.4,220.5,4.3
155.0,214.4,214.3,215.3,214.7,0.5
162.75,212.3,208.7,217.4,212.8,4.4
170.5,207.3,206.6,212.2,208.7,3.0
178.25,203.7,202.9,213.2,206.6,5.7
186.0,204.9,204.2,206.1,205.0,1.0
193.75,204.2,200.1,205.0,203.1,2.6
201.5,199.2,197.9,205.6,200.9,4.1
209.25,195.5,198.3,200.8,198.2,2.6
217.0,196.2,190.7,203.2,196.7,6.3
224.75,196.3,190.2,194.6,193.7,3.1
232.5,187.9,188.1,195.5,190.5,4.3
240.25,191.2,185.7,189.4,188.7,2.8
248.0,187.3,184.6,192.7,188.2,4.1
255.75,190.2,185.3,189.2,188.2,2.6
263.5,190.7,182.9,186.1,186.6,3.9
271.25,186.5,190.3,188.7,188.5,1.9
279.0,180.3,184.9,188.2,184.5,3.9
286.75,184.3,186.3,187.1,185.9,1.5
294.5,182.8,180.4,183.9,182.4,1.7
302.25,182.0,180.6,182.3,181.6,0.9
310.0,183.4,173.5,182.0,179.6,5.3
317.75,178.1,176.0,182.2,178.8,3.2
325.5,173.0,174.2,183.4,176.9,5.7
333.25,178.9,177.4,182.1,179.5,2.4
341.0,178.7,177.3,181.5,179.2,2.1
348.75,175.6,175.2,179.7,176.8,2.5
356.5,178.6,171.6,180.5,176.9,4.7
364.25,174.2,170.8,177.3,174.1,3.2
372.0,172.3,172.2,175.7,173.4,2.0
379.75,175.6,172.5,176.3,174.8,2.1
387.5,176.0,175.0,176.8,176.0,0.9
395.25,175.7,170.1,174.8,173.5,3.0
403.0,175.8,174.8,177.2,175.9,1.2
410.75,179.3,178.6,178.9,178.9,0.4
418.5,174.9,176.2,180.1,177.1,2.7
426.25,176.5,175.5,180.7,177.6,2.8
434.0,174.0,174.2,180.6,176.3,3.8
441.75,176.6,175.5,178.1,176.7,1.3
449.5,174.5,174.7,174.2,174.5,0.3
457.25,174.2,174.2,178.7,175.7,2.6
465.0,177.1,177.7,173.9,176.2,2.1
472.75,177.2,176.0,175.4,176.2,0.9
480.5,180.8,175.6,170.7,175.7,5.1
488.25,180.3,174.3,168.7,174.5,5.8
496.0,181.5,172.7,175.0,176.4,4.6
503.75,178.9,177.3,173.6,176.6,2.7
511.5,177.8,176.4,178.3,177.5,1.0
519.25,176.3,174.4,183.7,178.1,4.9
527.0,178.3,174.6,180.6,177.9,3.0
534.75,178.5,179.1,183.8,180.5,2.9
542.5,175.5,179.9,182.9,179.5,3.7
550.25,180.4,178.2,185.8,181.4,3.9
558.0,178.3,179.8,182.9,180.3,2.3
565.75,177.7,179.7,186.2,181.2,4.5
573.5,182.1,179.5,184.1,181.9,2.3
581.25,183.3,178.4,183.5,181.7,2.9
589.0,182.4,179.8,183.7,182.0,2.0
596.75,181.0,183.1,186.9,183.7,3.0
604.5,183.6,181.5,187.9,184.3,3.3
612.25,182.1,182.1,188.3,184.2,3.6
620.0,180.9,185.9,190.9,185.9,5.0
627.75,183.8,183.4,192.0,186.4,4.9
635.5,184.8,180.1,191.1,185.3,5.5
643.25,190.0,182.3,187.4,186.6,3.9
651.0,182.5,181.9,191.8,185.4,5.6
658.75,185.9,184.5,192.0,187.5,4.0
666.5,187.6,179.7,190.5,185.9,5.6
674.25,183.7,180.6,192.3,185.5,6.1
682.0,188.2,178.2,189.9,185.4,6.4
689.75,185.5,183.2,191.0,186.5,4.0
697.5,185.1,182.7,193.1,187.0,5.4
705.25,188.8,184.1,190.0,187.6,3.1
713.0,188.3,184.4,190.7,187.8,3.2
720.75,188.5,188.7,192.6,189.9,2.3
728.5,186.1,187.7,191.4,188.4,2.7
736.25,192.4,185.0,194.0,190.5,4.8
744.0,189.8,186.0,192.5,189.4,3.3
751.75,189.5,187.2,189.7,188.8,1.4
759.5,192.7,188.0,187.9,189.5,2.7
767.25,191.8,187.7,188.7,189.4,2.1
775.0,191.9,188.8,192.5,191.1,2.0
782.75,192.2,189.2,188.2,189.9,2.1
790.5,188.3,188.8,190.4,189.1,1.1
798.25,190.6,188.2,190.4,189.7,1.3
806.0,189.9,188.2,188.6,188.9,0.9
813.75,187.8,186.0,186.9,186.9,0.9
821.5,186.7,187.9,189.1,187.9,1.2
829.25,188.9,188.3,186.5,187.9,1.3
837.0,191.3,187.3,187.6,188.7,2.2
844.75,191.4,186.3,190.6,189.5,2.7
852.5,190.9,189.1,190.9,190.3,1.1
860.25,191.9,188.8,190.4,190.4,1.5
868.0,194.9,190.1,190.8,191.9,2.6
875.75,192.9,188.8,193.0,191.6,2.4
883.5,191.2,187.1,188.7,189.0,2.0
891.25,193.8,189.8,191.5,191.7,2.0
899.0,194.9,193.0,187.2,191.7,4.0
906.75,190.6,193.3,185.9,190.0,3.7
914.5,193.5,191.0,184.4,189.6,4.7
922.25,190.8,189.6,182.7,187.7,4.3
930.0,190.8,191.1,182.7,188.2,4.8
937.75,191.4,190.9,179.9,187.4,6.5
945.5,194.4,193.5,179.6,189.2,8.3
953.25,188.6,190.3,181.1,186.7,4.9
961.0,191.8,191.3,183.5,188.9,4.7
968.75,193.1,194.0,181.8,189.6,6.8
976.5,190.2,191.1,179.7,187.0,6.3
984.25,193.6,191.6,178.4,187.9,8.3
992.0,194.0,195.2,177.1,188.8,10.1
999.75,191.4,194.3,175.9,187.2,9.9
1007.5,192.6,188.1,177.3,186.0,7.9
1015.25,194.3,190.1,177.4,187.3,8.8
1023.0,191.4,190.7,179.9,187.3,6.4
1030.75,190.7,187.8,175.1,184.6,8.3
1038.5,190.7,188.0,173.0,183.9,9.5
1046.25,192.5,189.5,171.1,184.4,11.6
1054.0,191.1,187.6,170.7,183.1,10.9
1061.75,191.5,186.7,170.4,182.8,11.1
1069.5,193.0,187.1,171.1,183.8,11.3
1077.25,191.4,186.7,168.9,182.4,11.9
1085.0,191.7,186.8,167.9,182.1,12.6
1092.75,188.9,184.6,170.8,181.5,9.5
1100.5,189.2,185.3,172.0,182.2,9.0
1108.25,187.4,187.2,170.6,181.8,9.6
1116.0,187.0,188.0,168.1,181.0,11.2
1123.75,185.8,185.1,166.4,179.1,11.0
1131.5,182.2,184.7,165.7,177.5,10.3
1139.25,181.9,183.9,162.2,176.0,12.0
1147.0,184.0,180.6,162.3,175.6,11.7
1154.75,183.0,179.3,162.9,175.0,10.7
1162.5,179.6,181.9,162.9,174.8,10.4
1170.25,179.3,180.8,164.8,175.0,8.8
1178.0,182.7,179.9,159.5,174.0,12.7
1185.75,177.4,175.0,160.0,170.8,9.4
1193.5,178.6,176.4,156.5,170.5,12.2
1201.25,177.4,175.8,157.2,170.2,11.3
1209.0,179.4,171.5,155.2,168.7,12.3
1216.75,173.6,175.8,156.9,168.8,10.3
1224.5,175.9,173.9,156.6,168.8,10.6
1232.25,172.3,172.2,154.5,166.3,10.2
1240.0,172.1,171.4,154.4,166.0,10.1
1247.75,172.7,171.0,154.8,166.2,9.9
1255.5,170.3,169.4,153.0,164.2,9.7
1263.25,168.9,168.0,153.3,163.4,8.7
1271.0,166.9,163.5,154.6,161.7,6.4
1278.75,168.5,164.7,155.0,162.7,6.9
1286.5,167.0,166.0,154.3,162.5,7.1
1294.25,166.6,165.9,154.5,162.3,6.8
1302.0,164.6,162.4,153.6,160.2,5.8
1309.75,166.2,162.1,150.9,159.8,7.9
1317.5,166.3,159.7,151.9,159.3,7.2
1325.25,166.2,159.2,148.1,157.8,9.1
1333.0,166.9,159.0,148.9,158.3,9.0
1340.75,165.1,160.9,148.8,158.3,8.5
1348.5,165.1,155.2,149.9,156.7,7.7
1356.25,161.8,155.5,145.1,154.1,8.5
1364.0,161.9,154.8,143.1,153.3,9.5
1371.75,161.0,153.8,145.2,153.3,7.9
1379.5,161.8,155.1,146.3,154.4,7.8
1387.25,155.5,154.6,143.4,151.2,6.8
1395.0,156.8,148.5,145.8,150.4,5.7
1402.75,156.4,147.8,142.7,149.0,6.9
1410.5,154.3,147.8,141.3,147.8,6.5
1418.25,154.5,145.6,140.1,146.7,7.2
1426.0,152.5,143.5,139.2,145.1,6.8
1433.75,151.3,141.9,140.3,144.5,5.9
1441.5,150.5,140.3,140.7,143.8,5.7
1449.25,147.1,138.8,137.7,141.2,5.2
1457.0,145.9,138.5,137.1,140.5,4.8
1464.75,145.2,138.9,138.4,140.8,3.8
1472.5,145.0,141.4,133.7,140.0,5.8
1480.25,144.4,137.1,131.8,137.8,6.4
1488.0,143.0,136.7,132.3,137.3,5.4
1495.75,141.2,134.0,132.8,136.0,4.6
1503.5,139.3,135.7,129.9,135.0,4.8
1511.25,137.0,133.7,128.5,133.1,4.3
1519.0,137.2,133.6,126.1,132.3,5.7
1526.75,135.8,130.3,125.7,130.6,5.0
1534.5,133.1,131.3,126.5,130.3,3.4
1542.25,131.6,133.0,125.4,130.0,4.0
1550.0,131.9,130.5,122.0,128.1,5.4
1557.75,134.2,129.7,123.3,129.0,5.5
1565.5,132.9,129.8,123.4,128.7,4.8
1573.25,129.1,127.7,119.8,125.5,5.0
1581.0,131.2,127.2,118.8,125.7,6.3
1588.75,131.1,127.1,119.1,125.8,6.1
1596.5,127.7,127.8,118.0,124.5,5.6
1604.25,128.1,128.1,117.1,124.4,6.4
1612.0,126.6,126.6,117.9,123.7,5.0
1619.75,126.1,127.5,116.4,123.3,6.1
1627.5,124.7,124.1,114.3,121.0,5.9
1635.25,125.3,123.7,114.2,121.1,6.0
1643.0,124.5,125.6,113.7,121.3,6.6
1650.75,124.0,124.8,114.0,120.9,6.0
1658.5,124.4,122.1,115.2,120.6,4.8
1666.25,126.2,124.8,115.0,122.0,6.1
1674.0,122.9,123.4,113.2,119.8,5.7
1681.75,122.9,123.2,110.8,118.9,7.1
1689.5,120.3,119.7,112.1,117.4,4.6
1697.25,121.7,120.6,111.8,118.0,5.4
1705.0,120.9,122.3,109.9,117.7,6.8
1712.75,120.9,121.5,110.3,117.6,6.3
1720.5,120.7,121.8,109.7,117.4,6.7
1728.25,119.9,118.8,107.5,115.4,6.9
1736.0,118.8,119.6,106.6,115.0,7.3
1743.75,118.3,120.1,106.5,115.0,7.4
1751.5,119.5,117.2,108.2,114.9,6.0
1759.25,117.5,116.8,104.0,112.8,7.6
1767.0,116.4,115.7,103.8,112.0,7.1
1774.75,113.1,114.6,104.0,110.6,5.7
1782.5,109.5,115.7,104.4,109.9,5.7
1790.25,111.3,113.4,103.2,109.3,5.4
1798.0,110.1,114.1,102.5,108.9,5.9
1805.75,109.3,112.3,102.2,107.9,5.2
1813.5,108.8,110.9,99.6,106.4,6.0
1821.25,108.9,110.7,100.4,106.6,5.5
1829.0,105.0,108.9,100.9,105.0,4.0
1836.75,102.8,108.2,101.3,104.1,3.6
1844.5,101.7,106.6,99.5,102.6,3.6
1852.25,100.4,106.8,98.4,101.9,4.4
1860.0,100.8,106.4,98.9,102.0,3.9
1867.75,99.6,105.0,96.6,100.4,4.2
1875.5,97.6,102.2,96.1,98.6,3.2
1883.25,97.2,101.3,95.6,98.0,2.9
1891.0,94.8,99.3,92.4,95.5,3.5
1898.75,93.1,96.9,92.5,94.2,2.3
1906.5,93.7,95.2,91.6,93.5,1.8
1914.25,90.8,91.1,93.1,91.7,1.3
1922.0,90.9,91.2,89.3,90.5,1.0
1929.75,89.4,90.0,90.6,90.0,0.6
1937.5,89.2,85.7,88.9,88.0,1.9
1945.25,86.5,84.2,87.8,86.2,1.8
1953.0,86.3,81.5,89.4,85.7,4.0
1960.75,84.6,78.6,86.9,83.4,4.3
1968.5,83.9,76.9,86.1,82.3,4.8
1976.25,79.9,73.8,83.4,79.0,4.8
1984.0,77.2,73.3,81.7,77.4,4.2
1991.75,76.9,71.4,81.4,76.6,5.0
1999.5,75.4,70.3,79.4,75.0,4.6
2007.25,72.3,69.5,77.9,73.2,4.3
2015.0,72.6,67.0,77.6,72.4,5.3
2022.75,71.6,65.3,76.8,71.3,5.8
2030.5,69.5,64.7,73.0,69.1,4.2
2038.25,68.1,64.1,73.4,68.5,4.6
2046.0,68.9,62.6,72.9,68.1,5.2
2053.75,66.2,61.9,71.6,66.6,4.8
2061.5,65.4,61.1,69.3,65.3,4.1
2069.25,64.1,59.7,69.1,64.3,4.7
2077.0,63.4,59.4,67.6,63.5,4.1
2084.75,60.4,59.5,66.0,62.0,3.5
2092.5,58.6,56.8,64.3,59.9,3.9
2100.25,59.6,55.6,62.5,59.2,3.5
2108.0,57.4,53.6,63.3,58.1,4.9
2115.75,57.3,52.0,60.9,56.8,4.5
2123.5,56.7,51.1,60.0,55.9,4.5
2131.25,53.9,47.9,58.4,53.4,5.3
2139.0,53.5,46.9,58.6,53.0,5.9
2146.75,52.5,45.8,56.2,51.5,5.3
2154.5,51.8,44.9,55.3,50.7,5.3
2162.25,51.3,41.8,54.0,49.1,6.4
2170.0,50.1,40.7,54.9,48.6,7.2
2177.75,47.9,39.3,54.2,47.1,7.4
2185.5,46.0,37.9,53.9,45.9,8.0
2193.25,43.3,35.5,51.1,43.3,7.8
2201.0,42.0,34.6,50.6,42.4,8.0
2208.75,40.8,33.6,49.3,41.2,7.9
2216.5,38.9,,46.9,42.9,5.7
2224.25,38.5,,44.9,41.7,4.5
2232.0,36.2,,43.9,40.0,5.5
2239.75,36.1,,41.8,38.9,4.1
2247.5,34.2,,41.0,37.6,4.8
2248.25,33.2,,40.5,36.9,5.2