File: 01_Data/Composite_Deck_Board/Cone/Composite_Deck_Board_Cone_HF75Scalar_221209_R3.csv
LABORATORY,FSRI
TEST IDENT,TREX_HF75_3
OPERATOR,Dow
MATERIAL,TREX board
ORIENTATION,Horizontal
HEAT FLUX,75
SURF AREA,0.01
C FACTOR,0.0380612
SPEC HOLDER DIFF,-566
SPECIMEN MASS,146.26
SCAN TIME,0.25
O2 DELAY TIME,11
CO DELAY TIME,11
CO2 DELAY TIME,8
FLOW FACTOR,1
SCAN COUNT,5399
TIME TO IGN,10.75
END OF TEST SCAN,4919
END OF TEST TIME,1229.75
TEST STATUS,1
PRE TEST CMT,Dimensions: 101.39 x 101.22 x 13.15 mm