File: 01_Data/Composite_Deck_Board/Cone/Composite_Deck_Board_Cone_HF50Scan_221209_R1.csv
Names,Time,Stack TC,Smoke TC,Exh Press,Smoke Comp,Smoke Meas,CO Meter,CO2 Meter,O2 Meter,Sample Mass,Ext Coeff,Start Test,Flame Verif
Chan Gain,,500,500,1,1,1,1,1,1,1,1,1.0,1.0
Offset,,0,0,0.136389,0,0,0,0,0,0,0,0.0,0.0
Gain,,1,1,25.011,14.2696,296.664,1,1,1,1.0009,1.04656,1.0,1.0
Units,sec,C,C,Pa,%,%,%,%,%,g,/m,,
Baseline,,27.0873,28.5797,158.799,106.111,108.333,0.00102869,0.069699,20.9437,-443.608,-0.190176,,
75,18.5,26.7486,28.4882,156.15,106.678,107.374,0.00212369,0.0712135,20.9402,200.6,-0.0596907,0.0,0.0
150,37.25,35.4368,34.7605,119.369,106.963,124.105,0.00764575,0.632683,20.1109,199.479,-1.36464,0.0,0.0
225,56,85.9069,87.8196,109.74,106.293,126.097,0.0186368,1.54985,18.6427,195.565,-1.56843,0.0,0.0
300,74.75,105.386,114.953,121.924,106.537,121.054,0.0116225,1.02579,19.475,191.922,-1.17275,0.0,0.0
375,93.5,102.13,115.116,125.347,106.007,122.339,0.00868597,0.740989,19.9419,189.18,-1.31548,0.0,0.0
450,112.25,97.2701,111.144,135.082,106.366,120.067,0.00759235,0.641595,20.0912,186.797,-1.11233,0.0,0.0
525,131,92.335,105.493,126.381,106.215,124.476,0.00702073,0.57544,20.1936,184.645,-1.45642,0.0,0.0
600,149.75,88.2103,100.738,136.858,106.245,124.956,0.0065776,0.531235,20.264,182.614,-1.48918,0.0,0.0
675,168.5,84.0109,96.0195,134.529,106.361,125.001,0.00649686,0.505914,20.3025,180.712,-1.48246,0.0,0.0
750,187.25,82.3806,92.5162,132.92,106.133,122.52,0.00667909,0.491776,20.3233,178.8,-1.31816,0.0,0.0
825,206,80.5351,89.9379,134.374,106.099,120.384,0.0062898,0.480738,20.3408,176.959,-1.15956,0.0,0.0
900,224.75,79.4147,88.3769,140.08,106.543,121.09,0.00607549,0.468696,20.3562,175.157,-1.17497,0.0,0.0
975,243.5,78.4101,86.4543,134.476,106.939,125.997,0.00634534,0.467982,20.3594,173.335,-1.50557,0.0,0.0
1050,262.25,77.8799,85.5484,131.225,106.315,124.051,0.00593398,0.462104,20.3669,171.554,-1.4164,0.0,0.0
1125,281,77.3276,84.3391,130.885,105.073,118.836,0.00660406,0.457063,20.3733,169.772,-1.12998,0.0,0.0
1200,299.75,76.7213,83.8026,135.051,106.387,117.315,0.00581532,0.451171,20.3793,167.95,-0.89764,0.0,0.0
1275,318.5,76.4429,83.0499,131.442,106.091,119.216,0.00621327,0.449339,20.382,166.229,-1.07078,0.0,0.0
1350,337.25,76.6457,82.9579,133.645,106.492,122.24,0.00639971,0.446689,20.3879,164.487,-1.26612,0.0,0.0
1425,356,76.0156,82.6971,136.58,106.591,121.968,0.00615651,0.446901,20.39,162.676,-1.23711,0.0,0.0
1500,374.75,75.9075,82.2705,141.034,105.229,117.849,0.00583903,0.444319,20.3933,160.924,-1.03981,0.0,0.0
1575,393.5,76.0768,81.9366,130.313,106.255,120.158,0.00633562,0.445881,20.3929,159.173,-1.1288,0.0,0.0
1650,412.25,76.5732,82.8883,130.829,106.511,123.661,0.00576803,0.447419,20.3911,157.371,-1.37057,0.0,0.0
1725,431,76.9844,82.9989,131.841,106.834,123.761,0.00631064,0.449387,20.3862,155.629,-1.35019,0.0,0.0
1800,449.75,77.3305,83.5772,131.307,105.509,119.904,0.00575855,0.453508,20.3818,153.798,-1.17409,0.0,0.0
1875,468.5,77.4674,83.5938,133.965,105.786,119.995,0.00592173,0.455301,20.3794,151.986,-1.15699,0.0,0.0
1950,487.25,77.8568,83.6386,130.964,106.561,122.747,0.00554914,0.457423,20.3767,150.195,-1.29819,0.0,0.0
2025,506,77.8901,84.1857,136.982,106.389,122.629,0.00631666,0.459086,20.3746,148.333,-1.30418,0.0,0.0
2100,524.75,77.9992,84.0572,129.442,105.141,121.651,0.00573457,0.462971,20.3702,146.491,-1.33902,0.0,0.0
2175,543.5,78.6435,84.6771,130.548,106.2,123.1,0.00597609,0.465447,20.3668,144.62,-1.35571,0.0,0.0
2250,562.25,79.0375,84.9335,131.478,106.323,122.367,0.0056867,0.472196,20.3532,142.808,-1.29018,0.0,0.0
2325,581,79.1583,85.4965,136.704,105.805,120.972,0.0062168,0.478581,20.3436,140.906,-1.22983,0.0,0.0
2400,599.75,80.0062,85.7696,133.132,106.321,119.795,0.00617632,0.48055,20.34,139.045,-1.09541,0.0,0.0
2475,618.5,80.0465,86.0332,127.379,106.637,124.965,0.00615015,0.479696,20.3396,137.133,-1.45604,0.0,0.0
2550,637.25,80.637,86.736,135.238,106.163,121.597,0.00591261,0.479796,20.3394,135.221,-1.24611,0.0,0.0
2625,656,80.9002,86.0801,132.93,106.275,121.597,0.00630545,0.479845,20.3371,133.38,-1.23644,0.0,0.0
2700,674.75,80.8414,87.0053,133.997,106.377,121.697,0.00593206,0.483511,20.3301,131.508,-1.23512,0.0,0.0
2775,693.5,80.864,86.733,131.47,106.513,122.077,0.00644099,0.482906,20.3293,129.626,-1.25204,0.0,0.0
2850,712.25,81.068,87.0971,130.105,106.533,119.714,0.00585955,0.482591,20.328,127.784,-1.07087,0.0,0.0
2925,731,81.3691,87.4897,125.697,106.443,121.796,0.00597892,0.485711,20.3219,125.933,-1.23695,0.0,0.0
3000,749.75,81.7673,87.7724,132.481,106.348,121.144,0.00629405,0.486469,20.3161,124.041,-1.19588,0.0,0.0
3075,768.5,82.2065,88.099,129.341,106.213,122.004,0.00609735,0.493667,20.3057,122.22,-1.27252,0.0,0.0
3150,787.25,82.1873,88.3385,128.819,106.285,118.89,0.00566958,0.474144,20.3354,120.428,-1.02889,0.0,0.0
3225,806,81.3262,86.9194,131.472,106.585,119.841,0.00587346,0.458719,20.3615,118.686,-1.07608,0.0,0.0
3300,824.75,81.1264,87.016,128.831,106.641,120.746,0.00574983,0.451197,20.3686,117.005,-1.14042,0.0,0.0
3375,843.5,80.1282,85.9651,133.631,106.421,117.505,0.00563388,0.447222,20.3762,115.273,-0.909537,0.0,0.0
3450,862.25,79.9196,85.5714,129.435,105.942,118.863,0.00540401,0.450731,20.3696,113.602,-1.05648,0.0,0.0
3525,881,79.949,85.0589,135.927,105.884,119.406,0.00559827,0.447148,20.3719,111.93,-1.10336,0.0,0.0
3600,899.75,79.1968,84.5734,130.271,106.159,118.664,0.00563129,0.441369,20.3795,110.289,-1.02231,0.0,0.0
3675,918.5,78.933,84.4324,133.736,106.43,120.194,0.0054954,0.436408,20.3848,108.717,-1.11649,0.0,0.0
3750,937.25,79.007,84.1512,138.996,106.464,120.601,0.00555934,0.430247,20.393,107.166,-1.14463,0.0,0.0
3825,956,78.2528,83.2188,135.335,106.16,116.898,0.00540187,0.424838,20.3978,105.665,-0.884591,0.0,0.0
3900,974.75,77.6356,82.8535,138.136,105.716,116.409,0.00540576,0.419148,20.4029,104.193,-0.884572,0.0,0.0
3975,993.5,76.8137,82.2087,134.37,105.302,117.469,0.00537182,0.419534,20.3997,102.672,-1.00373,0.0,0.0
4050,1012.25,76.4269,81.5018,134.744,105.153,116.21,0.00509441,0.418206,20.4014,101.281,-0.917916,0.0,0.0
4125,1031,76.4428,81.3211,134.626,105.421,116.735,0.00563249,0.41359,20.4061,99.8895,-0.935876,0.0,0.0
4200,1049.75,76.4687,81.4922,136.098,105.845,114.916,0.00506685,0.4087,20.4074,98.5183,-0.754854,0.0,0.0
4275,1068.5,75.914,80.7055,131.677,106.232,115.586,0.00518185,0.405385,20.41,97.1871,-0.774703,0.0,0.0
4350,1087.25,75.5143,80.1766,136.899,106.607,117.948,0.00476219,0.397219,20.4205,95.9159,-0.928104,0.0,0.0
4425,1106,74.6149,79.5776,134.16,106.932,114.282,0.00446485,0.390359,20.4273,94.6748,-0.610254,0.0,0.0
4500,1124.75,74.0606,78.8545,134.665,107.111,117.46,0.00470541,0.385931,20.4343,93.4437,-0.846725,0.0,0.0
4575,1143.5,73.8012,78.2709,138.904,107.111,115.631,0.0041769,0.376977,20.4468,92.3127,-0.702593,0.0,0.0
4650,1162.25,73.5143,77.852,139.247,107.108,118.066,0.0039726,0.362784,20.4665,91.2117,-0.8942,0.0,0.0
4725,1181,72.4033,77.2219,134.21,106.833,117.043,0.00369248,0.347092,20.4927,90.2709,-0.837962,0.0,0.0
4800,1199.75,71.8039,75.967,137.781,105.96,116.853,0.00354278,0.334223,20.5134,89.26,-0.898337,0.0,0.0
4875,1218.5,71.0889,75.0292,140.077,105.184,119.243,0.00292522,0.319017,20.5362,88.3592,-1.1517,0.0,0.0
4950,1237.25,69.5452,73.8598,138.11,105.495,117.097,0.00289836,0.309292,20.5516,87.5084,-0.957905,0.0,0.0
5025,1256,68.6227,72.3849,142.264,106.46,120.257,0.00291472,0.299613,20.5688,86.7377,-1.11874,0.0,0.0
5100,1274.75,67.0518,70.882,140.139,105.842,119.705,0.00238513,0.289265,20.5864,85.977,-1.12989,0.0,0.0
5175,1293.5,66.3891,70.0527,139.801,106.461,118.863,0.0024249,0.282312,20.5969,85.2464,-1.01161,0.0,0.0
5250,1312.25,65.1654,68.9528,140.675,107.113,120.284,0.0023306,0.274585,20.6081,84.5558,-1.06466,0.0,0.0
5325,1331,64.3309,68.2321,144.92,105.939,117.333,0.00227832,0.268982,20.6208,83.9252,-0.937769,0.0,0.0
5400,1349.75,63.5382,66.8356,139.043,105.24,119.08,0.00211443,0.258507,20.638,83.2946,-1.13428,0.0,0.0
5475,1368.5,62.4438,66.0871,141.785,106.428,117.025,0.00219439,0.250871,20.6505,82.7241,-0.871409,0.0,0.0
5550,1387.25,61.1232,64.254,142.71,106.116,117.668,0.00212955,0.241615,20.6647,82.1636,-0.948632,0.0,0.0
5625,1406,59.9409,62.9834,146.062,106.747,118.555,0.00234242,0.231451,20.6851,81.6231,-0.963166,0.0,0.0
5700,1424.75,58.7753,61.6413,141.488,107.21,116.355,0.00252103,0.21821,20.7075,81.1327,-0.751485,0.0,0.0
5775,1443.5,56.3317,59.9905,146.684,106.202,116.572,0.0031768,0.20182,20.741,80.7123,-0.855308,0.0,0.0
5850,1462.25,54.6073,57.7643,145.94,105.721,115.133,0.00412824,0.183624,20.7745,80.312,-0.782966,0.0,0.0
5925,1481,52.2564,55.04,146.42,106.792,113.938,0.00539994,0.168052,20.8065,79.9516,-0.594623,0.0,0.0
6000,1499.75,50.0775,52.1976,147.201,106.233,113.811,0.00749357,0.154501,20.8306,79.5913,-0.63256,0.0,0.0
6075,1518.5,47.8846,50.1068,153.215,106.591,113.721,0.00888945,0.147415,20.8451,79.3411,-0.594372,0.0,0.0
6150,1537.25,46.5618,47.6847,151.376,106.939,113.693,0.00878603,0.147365,20.8452,79.0909,-0.562261,0.0,0.0
6225,1556,44.9354,46.5815,154.708,106.824,112.897,0.00865349,0.148467,20.8429,78.8406,-0.507542,0.0,0.0
6300,1574.75,44.344,45.755,152.366,106.62,113.666,0.00883017,0.14703,20.8447,78.5804,-0.587473,0.0,0.0
6375,1593.5,43.9183,44.7779,150.858,106.486,112.181,0.00881917,0.144879,20.848,78.3202,-0.478359,0.0,0.0
6450,1612.25,43.0203,44.2844,155.179,106.538,111.176,0.00858275,0.142671,20.8508,78.09,-0.391246,0.0,0.0
6525,1631,42.5812,43.7997,150.707,106.531,112.073,0.00906022,0.143803,20.8475,77.7797,-0.465598,0.0,0.0
6600,1649.75,42.5374,43.3489,148.365,106.476,111.91,0.00917336,0.145474,20.8437,77.5395,-0.456968,0.0,0.0
6675,1668.5,42.2132,43.3518,150.71,106.743,111.756,0.0098022,0.14426,20.8445,77.2993,-0.421347,0.0,0.0
6750,1687.25,41.1133,41.8673,149.875,106.925,111.819,0.00974919,0.142526,20.846,77.049,-0.41091,0.0,0.0
6825,1706,41.2709,42.4308,150.829,106.934,112.489,0.0100053,0.142079,20.8474,76.8188,-0.464964,0.0,0.0
6900,1724.75,40.6923,41.5777,152.954,106.741,112.688,0.0104988,0.141486,20.8479,76.5786,-0.497782,0.0,0.0
6975,1743.5,40.326,41.5673,151.201,106.291,110.407,0.0106255,0.141317,20.847,76.3284,-0.348782,0.0,0.0
7050,1762.25,39.764,41.1349,149.587,106.186,111.05,0.0105844,0.141534,20.8461,76.0982,-0.411143,0.0,0.0
7125,1781,39.9804,41.3172,155.262,106.409,110.579,0.0109676,0.142011,20.8441,75.878,-0.352848,0.0,0.0
7175,1793.5,39.7912,41.0315,152.819,106.562,111.376,,,,75.7379,-0.405615,0.0,0.0