File: 01_Data/Composite_Deck_Board/Cone/Composite_Deck_Board_Cone_HF25Scalar_221209_R3.csv
LABORATORY,FSRI
TEST IDENT,TREX_HF25_3
OPERATOR,Dow
MATERIAL,TREX board
ORIENTATION,Horizontal
HEAT FLUX,25
SURF AREA,0.01
C FACTOR,0.0380612
SPEC HOLDER DIFF,-566
SPECIMEN MASS,146.22
SCAN TIME,0.25
O2 DELAY TIME,11
CO DELAY TIME,11
CO2 DELAY TIME,8
FLOW FACTOR,1
SCAN COUNT,10516
TIME TO IGN,171.75
END OF TEST SCAN,10036
END OF TEST TIME,2509
TEST STATUS,1
PRE TEST CMT,Dimensions: 101.08 x 101.70 x 13.02 mm