File: 01_Data/Composite_Deck_Board/Cone/Composite_Deck_Board_Cone_HF75Scan_221209_R2.csv
Names,Time,Stack TC,Smoke TC,Exh Press,Smoke Comp,Smoke Meas,CO Meter,CO2 Meter,O2 Meter,Sample Mass,Ext Coeff,Start Test,Flame Verif
Chan Gain,,500,500,1,1,1,1,1,1,1,1,1.0,1.0
Offset,,0,0,0.136389,0,0,0,0,0,0,0,0.0,0.0
Gain,,1,1,25.011,14.2696,296.664,1,1,1,1.0009,1.04656,1.0,1.0
Units,sec,C,C,Pa,%,%,%,%,%,g,/m,,
Baseline,,45.8519,47.7238,149.877,106.771,119.559,0.000746741,0.0688293,20.9456,-446.254,-1.03839,,
55,13.5,43.6494,45.9493,140.636,106.466,125.49,0.00335936,0.111825,20.8856,198.698,-1.50924,0.0,1.0
110,27.25,81.7599,81.1481,89.1282,106.537,135.114,0.0308298,2.1845,17.6911,195.735,-2.18151,0.0,0.0
165,41,132.033,144.462,96.116,106.667,127.328,0.0249135,2.11519,17.7855,191.562,-1.62542,0.0,0.0
220,54.75,136.724,153.505,102.738,106.932,134.453,0.0149158,1.26326,19.1805,188.569,-2.10252,0.0,0.0
275,68.5,133.506,152.554,115.547,107.042,136.164,0.0123366,0.982994,19.5886,186.047,-2.20917,0.0,0.0
330,82.25,129.132,148.224,116.477,106.736,134.489,0.0110475,0.855966,19.7753,183.885,-2.1218,0.0,0.0
385,96,124.443,142.565,119.986,106.333,131.32,0.0101115,0.768091,19.9049,181.773,-1.93766,0.0,0.0
440,109.75,119.444,137.792,117.293,107.142,131.655,0.0094843,0.701048,20.0005,179.891,-1.89146,0.0,0.0
495,123.5,115.776,132.494,121.884,106.702,131.311,0.00947396,0.66479,20.0535,178.04,-1.9052,0.0,0.0
550,137.25,112.448,128.572,117.852,107.467,135.711,0.009546,0.636009,20.0988,176.278,-2.14218,0.0,0.0
605,151,110.237,124.799,123.495,107.482,133.493,0.00907381,0.619412,20.1234,174.586,-1.98959,0.0,0.0
660,164.75,108.448,121.862,119.128,106.284,135.168,0.00970112,0.611133,20.1301,172.895,-2.20699,0.0,0.0
715,178.5,106.524,119.804,123.169,105.81,130.65,0.00892226,0.604772,20.1432,171.263,-1.93593,0.0,0.0
770,192.25,105.402,117.677,126.068,106.72,133.937,0.00888157,0.591884,20.1637,169.602,-2.08545,0.0,0.0
825,206,104.881,116.8,129.606,106.972,132.633,0.00920003,0.591305,20.1615,168.061,-1.97398,0.0,0.0
880,219.75,104.307,115.471,122.251,106.707,132.733,0.0095582,0.587555,20.1664,166.409,-2.00359,0.0,0.0
935,233.5,103.699,114.35,124.95,106.834,130.053,0.00959576,0.585833,20.1691,164.818,-1.80541,0.0,0.0
990,247.25,103.373,113.971,123.779,107.631,128.894,0.00917492,0.580905,20.1752,163.136,-1.65506,0.0,0.0
1045,261,103.071,113.366,122.783,106.014,132.434,0.0095232,0.579587,20.1818,161.505,-2.04278,0.0,0.0
1100,274.75,103.489,112.588,118.748,106.502,138.273,0.00939084,0.572605,20.19,159.913,-2.39672,0.0,0.0
1155,288.5,103.006,112.009,127.622,107.038,134.553,0.00925397,0.569779,20.1948,158.252,-2.1002,0.0,0.0
1210,302.25,102.179,111.471,119.9,106.478,129.89,0.0091111,0.562649,20.2087,156.6,-1.82456,0.0,0.0
1265,316,101.433,110.461,128.296,107.013,135.014,0.00870182,0.533322,20.251,155.089,-2.13374,0.0,0.0
1320,329.75,99.7395,108.582,128.426,107.133,135.087,0.00735929,0.489312,20.3275,153.648,-2.12844,0.0,0.0
1375,343.5,97.4974,105.974,128.015,107.597,136.499,0.00612816,0.48568,20.34,152.186,-2.18426,0.0,0.0
1430,357.25,97.9281,106.112,127.399,107.388,137.893,0.0066095,0.517925,20.2872,150.685,-2.29537,0.0,0.0
1485,371,98.598,106.718,128.894,106.781,134.634,0.00682333,0.554617,20.2323,149.104,-2.12778,0.0,0.0
1540,384.75,100.123,107.884,122.026,106.233,129.736,0.00713069,0.578918,20.1888,147.522,-1.83484,0.0,0.0
1595,398.5,101.353,109.486,124.591,105.968,131.04,0.00752723,0.591154,20.1644,145.891,-1.94958,0.0,0.0
1650,412.25,102.617,110.361,123.344,105.843,139.134,0.00780649,0.604476,20.1465,144.259,-2.51058,0.0,0.0
1705,426,103.889,112.047,118.878,105.792,134.109,0.00815563,0.609183,20.1365,142.668,-2.17737,0.0,0.0
1760,439.75,105.009,113.295,124.991,105.785,130.931,0.00791196,0.61543,20.1243,141.006,-1.95778,0.0,0.0
1815,453.5,105.822,114.298,118.918,105.806,135.141,0.00807031,0.612661,20.1282,139.325,-2.24654,0.0,0.0
1870,467.25,106.272,114.379,120.146,105.791,133.457,0.00803707,0.613777,20.125,137.733,-2.13275,0.0,0.0
1925,481,105.766,114.426,124.018,105.801,136.363,0.00805521,0.610652,20.1285,136.032,-2.32965,0.0,0.0
1980,494.75,105.738,114.834,118.592,105.794,134.58,0.00792044,0.604994,20.1379,134.39,-2.20939,0.0,0.0
2035,508.5,106.124,115.202,120.757,105.804,134.679,0.0082718,0.594811,20.1539,132.809,-2.21531,0.0,0.0
2090,522.25,106.181,114.838,121.691,105.825,133.883,0.00757782,0.589779,20.1621,131.198,-2.15903,0.0,0.0
2145,536,105.813,114.547,125.247,105.91,131.04,0.00763543,0.577659,20.1801,129.656,-1.95456,0.0,0.0
2200,549.75,104.755,113.587,121.895,106.031,131.728,0.00769233,0.57159,20.1881,128.075,-1.99222,0.0,0.0
2255,563.5,104.427,112.853,122.585,106.25,133.004,0.0074963,0.565967,20.199,126.543,-2.06178,0.0,0.0
2310,577.25,103.638,112.261,119.3,106.464,133.032,0.00757772,0.563065,20.2056,125.012,-2.04516,0.0,0.0
2365,591,103.616,112.073,125.004,106.739,133.104,0.00719276,0.561549,20.2066,123.491,-2.02649,0.0,0.0
2420,604.75,103.529,111.82,134.345,107.039,132.968,0.00771217,0.556943,20.2087,122.019,-1.99139,0.0,0.0
2475,618.5,103.53,112.264,127.289,107.281,135.195,0.00761048,0.559231,20.205,120.498,-2.12314,0.0,0.0
2530,632.25,103.126,111.733,120.739,107.472,131.339,0.00740153,0.558984,20.2055,118.987,-1.84113,0.0,0.0
2585,646,102.926,111.176,126.821,107.583,135.286,0.00752568,0.554177,20.2111,117.525,-2.10346,0.0,0.0
2640,659.75,102.717,110.948,124.327,107.622,131.818,0.00773597,0.553067,20.2105,116.024,-1.86179,0.0,0.0
2695,673.5,102.602,110.203,127.895,107.568,135.177,0.00759753,0.545366,20.2196,114.553,-2.09735,0.0,0.0
2750,687.25,102.049,110.033,120.835,107.449,132.054,0.00763944,0.54565,20.2204,113.071,-1.89296,0.0,0.0
2805,701,101.767,109.827,129.579,107.286,132.235,0.00773323,0.543221,20.2207,111.63,-1.91943,0.0,0.0
2860,714.75,101.558,109.441,126.262,107.141,131.764,0.00759789,0.547277,20.2148,110.139,-1.8991,0.0,0.0
2915,728.5,101.916,109.616,122.348,107.005,131.882,0.00785404,0.541807,20.2192,108.757,-1.91899,0.0,0.0
2970,742.25,101.74,109.371,129.911,106.875,132.841,0.00750537,0.541893,20.2202,107.316,-1.99673,0.0,0.0
3025,756,101.611,109.02,127.686,106.767,131.809,0.00721385,0.539258,20.2211,105.925,-1.93436,0.0,0.0
3080,769.75,101.234,109.179,123.173,106.675,128.378,0.00775434,0.531986,20.2296,104.574,-1.70016,0.0,0.0
3135,783.5,100.945,108.434,123.939,106.855,131.013,0.00726827,0.527351,20.2347,103.162,-1.87118,0.0,0.0
3190,797.25,100.481,108.017,124.855,107.029,130.967,0.00703038,0.521803,20.2428,101.811,-1.85306,0.0,0.0
3245,811,100.615,107.648,126.563,107.095,133.846,0.00750661,0.516288,20.2498,100.55,-2.04697,0.0,0.0
3300,824.75,99.5723,107.296,123.018,107.074,131.637,0.00730303,0.508843,20.2566,99.2389,-1.89602,0.0,0.0
3355,838.5,99.0205,105.929,124.443,106.982,125.97,0.00708614,0.503955,20.2627,97.9478,-1.49993,0.0,0.0
3410,852.25,98.5116,105.411,130.018,106.824,127.183,0.00677995,0.493516,20.2781,96.7567,-1.60145,0.0,0.0
3465,866,97.9733,105.329,125.382,106.705,129.066,0.00651814,0.486732,20.2855,95.5756,-1.74661,0.0,0.0
3520,879.75,97.6268,104.421,132.509,106.591,131.067,0.0063083,0.472506,20.3052,94.3946,-1.89769,0.0,0.0
3575,893.5,96.3,103.019,124.104,106.435,128.324,0.00586891,0.466007,20.3128,93.2836,-1.71691,0.0,0.0
3630,907.25,95.7696,102.415,124.344,106.327,128.885,0.00582802,0.45275,20.3346,92.2026,-1.7663,0.0,0.0
3685,921,94.9396,101.421,129.56,106.406,131.04,0.00638878,0.444347,20.346,91.1517,-1.91174,0.0,0.0
3740,934.75,93.9735,100.137,127.33,106.585,126.06,0.00545651,0.43681,20.3558,90.1608,-1.54063,0.0,0.0
3795,948.5,93.2417,99.7571,129.081,106.767,127.364,0.00559279,0.426214,20.3683,89.2099,-1.61946,0.0,0.0
3850,962.25,92.5917,98.7423,131.463,106.935,132.054,0.00513065,0.417046,20.3795,88.2491,-1.93693,0.0,0.0
3905,976,91.3578,97.7943,129.809,107.03,129.763,0.00483458,0.408864,20.3943,87.3282,-1.76815,0.0,0.0
3960,989.75,90.5306,96.7793,129.483,107.044,125.481,0.00493835,0.399733,20.4059,86.4475,-1.45885,0.0,0.0
4015,1003.5,89.8148,95.9558,128.899,106.952,127.69,0.00452234,0.390295,20.4181,85.6167,-1.62702,0.0,0.0
4070,1017.25,89.0361,94.8616,135.333,106.743,129.392,0.00396593,0.381186,20.4315,84.816,-1.76654,0.0,0.0
4125,1031,88.3076,93.8048,130.763,106.492,128.478,0.00383333,0.36998,20.447,84.0353,-1.72299,0.0,0.0
4180,1044.75,87.002,92.8028,132.069,106.205,126.386,0.00367558,0.35786,20.4604,83.3147,-1.59714,0.0,0.0
4235,1058.5,86.4778,91.9467,134.426,105.99,122.792,0.00359909,0.345835,20.4777,82.6541,-1.35089,0.0,0.0
4290,1072.25,85.2136,90.929,135.419,105.84,125.744,0.00331153,0.333239,20.4995,82.0435,-1.58193,0.0,0.0
4345,1086,84.1605,89.7962,134.32,105.771,121.516,0.00310277,0.324002,20.5149,81.433,-1.27395,0.0,0.0
4400,1099.75,83.4131,88.2998,136.772,105.809,124.612,0.00351392,0.312231,20.534,80.8424,-1.50161,0.0,0.0
4455,1113.5,81.3608,86.3071,136.286,106.038,121.09,0.00340061,0.304006,20.5499,80.2619,-1.21853,0.0,0.0
4510,1127.25,80.299,85.7785,137.379,106.424,124.286,0.00265096,0.292533,20.57,79.7715,-1.42434,0.0,0.0
4565,1141,79.1659,84.1219,141.428,106.851,126.042,0.0029781,0.277596,20.598,79.241,-1.51642,0.0,0.0
4620,1154.75,77.8157,82.3731,134.044,107.213,126.015,0.00317059,0.262546,20.6258,78.8306,-1.48337,0.0,0.0
4675,1168.5,75.9261,80.1585,139.775,107.516,126.205,0.00266173,0.243874,20.6624,78.4303,-1.47133,0.0,0.0
4730,1182.25,73.8286,77.8832,138.89,107.609,127.21,0.00325542,0.218682,20.7108,78.0599,-1.53622,0.0,0.0
4785,1196,70.6592,74.8197,141.658,107.443,127.998,0.00388429,0.195628,20.7548,77.7497,-1.60702,0.0,0.0
4840,1209.75,67.7915,71.2903,142.402,107.083,125.843,0.0048997,0.172545,20.7994,77.5195,-1.48202,0.0,0.0
4895,1223.5,64.6477,67.9912,143.527,106.697,126.305,0.00528838,0.167585,20.8116,77.3393,-1.54874,0.0,0.0
4950,1237.25,63.2192,65.3031,144.129,107.057,126.513,0.00501637,0.164575,20.8197,77.0791,-1.533,0.0,0.0
5005,1251,61.2189,63.5832,144.756,107.082,126.269,0.00506331,0.163547,20.8182,76.8889,-1.51305,0.0,0.0
5060,1264.75,60.0421,62.4809,144.711,106.557,125.508,0.00555448,0.162164,20.8196,76.6687,-1.50276,0.0,0.0
5115,1278.5,58.7135,60.8418,145.482,106.411,125.888,0.00567393,0.162054,20.8199,76.4785,-1.54311,0.0,0.0
5170,1292.25,58.2676,59.8934,148.59,106.835,124.539,0.00574261,0.161817,20.8196,76.2783,-1.40769,0.0,0.0
5225,1306,57.8623,59.2251,145.614,107.049,124.087,0.00582311,0.161379,20.822,76.0782,-1.35586,0.0,0.0
5280,1319.75,56.9629,58.7176,144.456,107.022,127.264,0.00619565,0.16145,20.8245,75.898,-1.59032,0.0,0.0
5335,1333.5,56.8506,58.1168,143.167,106.965,125.273,,,,75.7379,-1.4504,0.0,0.0
5357,1339,56.7433,57.9669,146.704,106.963,125.074,,,,75.5877,-1.43594,0.0,0.0