File: 01_Data/Composite_Deck_Board/Cone/Composite_Deck_Board_Cone_HF25Scalar_221209_R1.csv
LABORATORY,FSRI
TEST IDENT,TREX_HF25_1
OPERATOR,Dow
MATERIAL,TREX board
ORIENTATION,Horizontal
HEAT FLUX,25
SURF AREA,0.01
C FACTOR,0.039055
SPEC HOLDER DIFF,-566
SPECIMEN MASS,146.16
SCAN TIME,0.25
O2 DELAY TIME,11
CO DELAY TIME,11
CO2 DELAY TIME,8
FLOW FACTOR,1
SCAN COUNT,10153
TIME TO IGN,170
END OF TEST SCAN,9673
END OF TEST TIME,2418.25
TEST STATUS,1
PRE TEST CMT,Dimensions: 101.11 x 101.51 x 13.10 mm
POST TEST CMT,Burning along edges during decay phase.