File: 01_Data/Composite_Deck_Board/Cone/Composite_Deck_Board_Cone_HF50Scalar_221209_R2.csv
LABORATORY,FSRI
TEST IDENT,TREX_HF50_2
OPERATOR,Dow
MATERIAL,TREX board
ORIENTATION,Horizontal
HEAT FLUX,50
SURF AREA,0.01
C FACTOR,0.0380612
SPEC HOLDER DIFF,-566
SPECIMEN MASS,146.5
SCAN TIME,0.25
O2 DELAY TIME,11
CO DELAY TIME,11
CO2 DELAY TIME,8
FLOW FACTOR,1
SCAN COUNT,6958
TIME TO IGN,25.25
END OF TEST SCAN,6478
END OF TEST TIME,1619.5
TEST STATUS,1
PRE TEST CMT,Dimensions: 101.21 x 101.59 x 13.11 mm