File: 01_Data/Composite_Deck_Board/Cone/Composite_Deck_Board_HRRPUA_50.csv
Time after Ignition,Composite_Deck_Board_R1,Composite_Deck_Board_R2,Composite_Deck_Board_R3,Mean,Std. Dev.
0.0,14.0,21.4,23.9,19.8,5.1
5.75,117.3,92.6,98.8,102.9,12.8
11.5,367.7,325.9,328.9,340.8,23.3
17.25,603.0,557.2,582.7,581.0,23.0
23.0,805.0,754.9,761.1,773.7,27.3
28.75,807.0,831.8,839.2,826.0,16.9
34.5,746.5,800.0,779.8,775.4,27.0
40.25,693.1,697.0,693.8,694.6,2.0
46.0,602.5,613.9,596.7,604.4,8.7
51.75,500.7,523.2,522.1,515.3,12.7
57.5,450.0,454.4,458.4,454.2,4.2
63.25,422.3,425.1,417.0,421.5,4.1
69.0,392.3,395.9,387.6,391.9,4.2
74.75,379.5,373.4,372.6,375.2,3.8
80.5,352.1,353.2,358.2,354.5,3.2
86.25,342.9,330.3,334.9,336.0,6.3
92.0,327.6,330.8,329.1,329.2,1.6
97.75,321.9,317.0,317.0,318.6,2.8
103.5,308.6,307.0,304.7,306.7,2.0
109.25,301.1,298.1,299.7,299.6,1.5
115.0,290.9,290.0,292.4,291.1,1.2
120.75,282.3,288.3,287.7,286.1,3.3
126.5,282.3,282.1,278.6,281.0,2.1
132.25,268.1,270.2,271.1,269.8,1.5
138.0,274.8,271.1,264.7,270.2,5.1
143.75,264.5,267.3,262.9,264.9,2.2
149.5,261.6,258.2,261.9,260.6,2.1
155.25,260.3,257.9,256.9,258.4,1.8
161.0,260.0,257.2,259.2,258.8,1.5
166.75,258.3,258.4,255.8,257.5,1.5
172.5,252.2,250.4,251.7,251.4,0.9
178.25,256.3,248.5,251.1,252.0,4.0
184.0,253.1,246.2,252.5,250.6,3.8
189.75,252.3,250.6,242.8,248.6,5.1
195.5,243.3,250.2,248.4,247.3,3.6
201.25,248.4,247.6,249.3,248.4,0.8
207.0,245.0,243.3,245.3,244.5,1.0
212.75,249.0,241.2,241.4,243.8,4.4
218.5,246.6,238.1,241.9,242.2,4.2
224.25,246.9,239.9,239.1,242.0,4.3
230.0,243.7,243.3,240.8,242.6,1.6
235.75,244.4,241.0,244.4,243.3,1.9
241.5,243.3,235.8,242.2,240.4,4.0
247.25,241.2,239.4,240.0,240.2,0.9
253.0,241.4,238.0,244.4,241.3,3.2
258.75,239.4,235.2,240.4,238.3,2.8
264.5,240.6,240.2,237.4,239.4,1.7
270.25,238.7,233.9,239.2,237.2,2.9
276.0,234.9,239.1,235.9,236.6,2.2
281.75,243.2,237.4,232.2,237.6,5.5
287.5,239.6,235.6,234.0,236.4,2.9
293.25,237.7,237.2,234.9,236.6,1.5
299.0,240.1,234.0,228.9,234.4,5.6
304.75,236.5,240.1,235.7,237.4,2.3
310.5,237.1,233.4,233.1,234.5,2.3
316.25,236.5,237.0,227.6,233.7,5.3
322.0,235.3,235.1,229.0,233.1,3.6
327.75,235.8,235.3,233.7,234.9,1.1
333.5,236.6,233.8,226.9,232.4,5.0
339.25,236.4,235.9,227.8,233.4,4.8
345.0,240.3,236.4,228.0,234.9,6.3
350.75,237.4,234.2,226.3,232.6,5.7
356.5,236.5,231.9,223.9,230.8,6.4
362.25,234.0,234.6,228.1,232.2,3.6
368.0,233.5,233.5,219.4,228.8,8.2
373.75,235.7,229.8,224.8,230.1,5.5
379.5,236.3,234.9,223.0,231.4,7.3
385.25,238.8,236.3,224.9,233.3,7.4
391.0,231.0,238.4,225.5,231.7,6.5
396.75,234.2,233.7,228.7,232.2,3.0
402.5,234.1,230.9,227.6,230.8,3.3
408.25,239.1,236.8,224.0,233.3,8.1
414.0,241.4,238.5,223.6,234.5,9.6
419.75,241.0,237.1,222.5,233.5,9.8
425.5,233.8,239.6,226.1,233.2,6.8
431.25,240.6,236.3,223.8,233.6,8.8
437.0,236.5,238.7,220.0,231.7,10.2
442.75,236.7,237.5,224.1,232.8,7.5
448.5,239.9,239.2,224.6,234.6,8.6
454.25,239.5,236.0,220.3,231.9,10.2
460.0,239.1,238.9,223.4,233.8,9.0
465.75,237.7,236.5,223.6,232.6,7.8
471.5,238.0,240.9,222.9,233.9,9.6
477.25,240.7,244.0,224.7,236.5,10.3
483.0,241.6,241.7,229.8,237.7,6.8
488.75,241.2,244.4,222.8,236.1,11.7
494.5,242.9,244.9,228.6,238.8,8.9
500.25,244.1,243.5,225.5,237.7,10.6
506.0,244.0,246.1,224.6,238.2,11.9
511.75,240.8,249.6,226.5,239.0,11.7
517.5,240.3,243.3,227.7,237.1,8.3
523.25,247.6,249.0,229.7,242.1,10.7
529.0,246.7,247.2,231.1,241.7,9.2
534.75,249.7,253.6,229.5,244.3,12.9
540.5,250.1,252.0,233.7,245.3,10.1
546.25,250.4,256.3,233.8,246.8,11.7
552.0,254.2,259.7,234.2,249.4,13.4
557.75,253.9,260.7,241.0,251.9,10.0
563.5,256.5,258.9,240.4,251.9,10.1
569.25,256.2,262.7,243.1,254.0,10.0
575.0,254.0,262.6,238.1,251.6,12.4
580.75,254.8,269.3,245.6,256.6,11.9
586.5,258.4,259.8,246.7,255.0,7.2
592.25,248.7,263.1,248.5,253.4,8.3
598.0,255.9,260.5,248.6,255.0,6.0
603.75,256.4,267.1,245.9,256.5,10.6
609.5,255.5,260.4,251.6,255.8,4.4
615.25,255.0,267.0,250.0,257.3,8.8
621.0,254.1,259.5,250.4,254.7,4.6
626.75,254.6,266.0,250.9,257.2,7.9
632.5,253.8,263.2,254.3,257.1,5.3
638.25,257.3,263.0,254.3,258.2,4.4
644.0,259.6,263.5,252.5,258.6,5.6
649.75,255.2,265.1,254.3,258.2,6.0
655.5,256.1,262.3,258.6,259.0,3.1
661.25,257.7,267.5,255.0,260.1,6.5
667.0,261.3,265.7,259.0,262.0,3.4
672.75,258.7,263.6,256.5,259.6,3.6
678.5,255.3,271.0,256.3,260.9,8.8
684.25,252.8,267.5,255.7,258.7,7.8
690.0,261.2,268.3,259.2,262.9,4.8
695.75,258.8,265.6,254.0,259.5,5.8
701.5,257.4,267.3,251.5,258.8,8.0
707.25,256.8,261.9,250.0,256.3,6.0
713.0,261.6,266.1,257.4,261.7,4.4
718.75,262.1,265.4,255.9,261.1,4.8
724.5,260.3,264.2,255.7,260.1,4.2
730.25,266.3,260.5,252.2,259.7,7.1
736.0,268.2,259.4,253.3,260.3,7.5
741.75,265.3,262.8,252.6,260.2,6.7
747.5,262.7,261.1,256.3,260.0,3.3
753.25,253.3,259.3,256.2,256.3,3.0
759.0,250.6,256.0,265.1,257.3,7.3
764.75,252.2,253.9,254.2,253.4,1.1
770.5,250.1,250.3,253.2,251.2,1.8
776.25,251.3,248.0,256.6,252.0,4.3
782.0,245.5,249.0,253.3,249.3,3.9
787.75,244.1,239.2,249.2,244.2,5.0
793.5,241.7,238.6,256.9,245.7,9.8
799.25,244.1,237.9,250.0,244.0,6.1
805.0,239.8,241.4,247.9,243.1,4.3
810.75,239.6,240.7,250.5,243.6,6.0
816.5,241.4,244.0,247.4,244.3,3.0
822.25,243.6,239.0,241.5,241.4,2.3
828.0,243.3,246.4,242.6,244.1,2.0
833.75,242.9,246.4,238.0,242.4,4.2
839.5,245.3,248.6,245.6,246.5,1.8
845.25,242.2,248.9,243.1,244.7,3.7
851.0,243.2,248.7,235.9,242.6,6.4
856.75,238.6,246.3,240.9,241.9,4.0
862.5,241.1,248.2,236.0,241.8,6.1
868.25,237.5,245.7,240.5,241.2,4.2
874.0,235.4,241.2,239.6,238.7,3.0
879.75,239.2,246.7,237.3,241.1,5.0
885.5,241.5,245.5,238.3,241.7,3.6
891.25,235.2,239.3,239.1,237.9,2.3
897.0,239.4,241.2,236.1,238.9,2.6
902.75,236.7,242.1,236.5,238.4,3.2
908.5,231.1,242.3,234.2,235.9,5.8
914.25,229.9,244.3,230.1,234.8,8.2
920.0,230.7,241.9,232.5,235.1,6.0
925.75,230.4,243.1,226.3,233.3,8.8
931.5,231.6,242.3,226.2,233.4,8.2
937.25,233.6,240.6,224.8,233.0,7.9
943.0,228.6,239.9,224.8,231.1,7.8
948.75,231.4,244.3,224.3,233.3,10.2
954.5,229.7,242.2,224.9,232.3,9.0
960.25,231.1,239.3,221.6,230.6,8.9
966.0,232.5,240.2,219.9,230.9,10.3
971.75,230.3,242.3,222.1,231.5,10.1
977.5,227.8,239.6,217.6,228.3,11.0
983.25,230.9,239.9,219.9,230.2,10.0
989.0,233.4,238.1,223.7,231.7,7.3
994.75,228.5,238.0,220.4,229.0,8.8
1000.5,231.8,238.3,219.5,229.9,9.5
1006.25,226.5,234.7,219.2,226.8,7.7
1012.0,227.5,235.8,216.6,226.6,9.7
1017.75,229.3,237.6,219.3,228.7,9.2
1023.5,229.7,238.9,227.9,232.2,5.9
1029.25,231.6,236.1,218.2,228.6,9.3
1035.0,229.8,236.2,219.4,228.5,8.5
1040.75,227.1,232.9,219.5,226.5,6.7
1046.5,225.7,229.3,215.7,223.6,7.1
1052.25,225.5,228.0,218.2,223.9,5.1
1058.0,223.9,232.0,220.6,225.5,5.9
1063.75,222.0,225.9,216.4,221.4,4.8
1069.5,219.5,226.4,217.8,221.2,4.6
1075.25,218.5,228.1,217.8,221.5,5.8
1081.0,221.0,227.3,218.4,222.3,4.6
1086.75,221.8,224.0,217.4,221.0,3.3
1092.5,218.5,230.1,217.1,221.9,7.1
1098.25,218.7,227.7,217.3,221.2,5.6
1104.0,215.7,225.8,211.8,217.7,7.2
1109.75,215.9,222.4,217.4,218.6,3.4
1115.5,212.8,223.3,208.4,214.8,7.6
1121.25,213.2,219.5,214.5,215.8,3.4
1127.0,211.5,222.2,212.2,215.3,6.0
1132.75,207.0,220.3,206.0,211.1,8.0
1138.5,201.3,221.3,206.2,209.6,10.4
1144.25,199.8,213.2,202.8,205.2,7.1
1150.0,197.9,209.7,200.6,202.7,6.2
1155.75,193.7,210.8,199.4,201.3,8.7
1161.5,194.3,204.3,195.6,198.1,5.4
1167.25,191.2,201.4,195.1,195.9,5.2
1173.0,187.0,201.7,192.1,193.6,7.5
1178.75,185.3,200.8,190.2,192.1,7.9
1184.5,183.4,198.7,182.4,188.2,9.2
1190.25,179.0,193.7,181.7,184.8,7.8
1196.0,174.4,195.8,177.9,182.7,11.5
1201.75,172.2,188.6,173.3,178.1,9.2
1207.5,174.0,186.1,172.8,177.6,7.3
1213.25,168.5,184.4,172.4,175.1,8.3
1219.0,165.3,181.8,169.8,172.3,8.5
1224.75,163.9,181.9,167.3,171.0,9.6
1230.5,163.1,179.7,167.4,170.1,8.6
1236.25,160.1,178.3,165.2,167.9,9.4
1242.0,158.9,175.6,167.1,167.2,8.3
1247.75,156.0,174.5,163.5,164.7,9.3
1253.5,156.5,169.7,162.9,163.0,6.6
1259.25,154.5,168.1,159.0,160.5,6.9
1265.0,153.4,165.6,159.1,159.4,6.1
1270.75,156.0,166.9,157.2,160.0,6.0
1276.5,150.5,166.4,155.6,157.5,8.1
1282.25,150.7,167.2,152.5,156.8,9.0
1288.0,149.9,162.5,154.3,155.6,6.4
1293.75,148.2,161.4,149.6,153.1,7.2
1299.5,147.5,158.9,148.1,151.5,6.4
1305.25,145.5,159.3,147.8,150.9,7.4
1311.0,139.8,155.5,146.1,147.1,7.9
1316.75,140.2,153.6,146.1,146.7,6.7
1322.5,137.9,150.0,142.7,143.5,6.1
1328.25,136.3,149.0,140.9,142.0,6.4
1334.0,135.5,147.4,140.5,141.1,6.0
1339.75,133.2,145.5,138.9,139.2,6.2
1345.5,130.7,142.6,136.6,136.6,5.9
1351.25,129.5,139.0,137.5,135.4,5.1
1357.0,129.0,138.0,134.0,133.7,4.5
1362.75,125.4,136.3,130.6,130.8,5.5
1368.5,124.3,131.8,130.0,128.7,3.9
1374.25,119.8,131.8,125.1,125.6,6.0
1380.0,118.2,127.1,126.1,123.8,4.9
1385.75,113.3,124.7,123.8,120.6,6.3
1391.5,112.2,122.6,122.7,119.2,6.0
1397.25,108.1,119.5,117.9,115.2,6.2
1403.0,103.2,117.8,117.1,112.7,8.2
1408.75,99.3,114.9,115.9,110.0,9.3
1414.5,95.7,112.0,115.1,107.6,10.4
1420.25,91.2,105.8,114.0,103.7,11.6
1426.0,87.4,102.1,106.6,98.7,10.0
1431.75,82.4,96.7,106.8,95.3,12.2
1437.5,76.5,95.0,105.9,92.5,14.8
1443.25,72.4,92.9,104.3,89.9,16.2
1449.0,68.4,87.8,99.5,85.2,15.7
1454.75,63.6,84.4,96.2,81.4,16.5
1460.5,62.6,80.9,94.3,79.3,15.9
1466.25,60.1,77.8,91.4,76.4,15.7
1472.0,53.8,74.4,89.2,72.4,17.8
1477.75,51.6,74.1,84.5,70.1,16.8
1483.5,48.2,69.1,81.6,66.3,16.9
1489.25,46.9,65.7,77.8,63.5,15.6
1495.0,46.6,64.4,75.0,62.0,14.3
1500.75,46.3,61.0,73.5,60.2,13.6
1506.5,46.3,60.1,71.4,59.3,12.5
1512.25,46.7,59.6,67.6,57.9,10.5
1518.0,47.8,60.0,65.0,57.6,8.8
1523.75,48.1,62.7,62.9,57.9,8.5
1529.5,47.8,61.1,60.4,56.5,7.5
1535.25,46.6,58.9,55.7,53.8,6.4
1541.0,48.0,58.7,53.8,53.5,5.3
1546.75,47.6,57.3,50.6,51.8,5.0
1552.5,46.9,57.3,48.6,50.9,5.6
1558.25,45.5,56.5,47.9,50.0,5.8
1564.0,46.4,55.1,48.1,49.9,4.6
1569.75,46.0,55.6,49.2,50.3,4.9
1575.5,44.6,55.3,47.4,49.1,5.6
1581.25,44.0,56.1,47.3,49.1,6.2
1587.0,44.4,56.3,47.3,49.3,6.2
1592.75,45.1,56.1,47.0,49.4,5.9
1598.5,45.9,,45.6,45.8,0.2
1604.25,45.8,,45.3,45.5,0.3
1610.0,47.5,,46.2,46.8,0.9
1615.75,47.5,,45.9,46.7,1.1
1621.5,48.0,,46.6,47.3,1.0
1627.25,47.4,,,47.4,
1633.0,49.4,,,49.4,
1638.75,48.5,,,48.5,
1644.5,48.0,,,48.0,
1647.5,47.2,,,47.2,