File: 01_Data/Composite_Deck_Board/Cone/Composite_Deck_Board_Cone_HF50Scan_221209_R3.csv
Names,Time,Stack TC,Smoke TC,Exh Press,Smoke Comp,Smoke Meas,CO Meter,CO2 Meter,O2 Meter,Sample Mass,Ext Coeff,Start Test,Flame Verif
Chan Gain,,500,500,1,1,1,1,1,1,1,1,1.0,1.0
Offset,,0,0,0.136389,0,0,0,0,0,0,0,0.0,0.0
Gain,,1,1,25.011,14.2696,296.664,1,1,1,1.0009,1.04656,1.0,1.0
Units,sec,C,C,Pa,%,%,%,%,%,g,/m,,
Baseline,,35.0454,36.1877,155.243,106.186,115.499,0.00067381,0.07153,20.9423,-444.798,-0.771646,,
73,18,32.4681,34.0398,157.467,106.671,113.259,0.00146431,0.0745055,20.9349,199.058,-0.550162,0.0,0.0
146,36.25,38.3574,38.4052,132.214,106.566,125.001,0.00544611,0.424855,20.3568,198.168,-1.46481,0.0,0.0
219,54.5,83.8059,85.5662,102.409,106.906,132.099,0.0169791,1.51512,18.6874,194.574,-1.94258,0.0,0.0
292,72.75,106.817,115.836,114.058,106.304,131.646,0.012681,1.15113,19.3203,191.011,-1.96293,0.0,0.0
365,91,106.217,118.787,120.332,105.765,129.926,0.00890116,0.787595,19.8779,188.199,-1.88883,0.0,0.0
438,109.25,102.087,115.537,123.102,105.699,128.451,0.00775075,0.670056,20.0524,185.867,-1.78971,0.0,0.0
511,127.5,96.789,110.217,127.421,105.89,127.799,0.00697256,0.592125,20.1757,183.755,-1.72637,0.0,0.0
584,145.75,91.9335,104.744,128.001,106.436,133.756,0.00704209,0.546722,20.239,181.803,-2.09745,0.0,0.0
657,164,87.9424,99.3494,128.248,106.904,130.705,0.00668962,0.512243,20.2933,179.941,-1.84536,0.0,0.0
730,182.25,85.1099,95.83,131.463,106.465,130.098,0.00638956,0.48696,20.3305,178.15,-1.84043,0.0,0.0
803,200.5,83.2793,93.4538,133.068,107.075,132.869,0.00635683,0.476721,20.3457,176.418,-1.98141,0.0,0.0
876,218.75,81.7295,90.4836,133.92,106.757,129.754,0.00594348,0.472605,20.355,174.707,-1.79092,0.0,0.0
949,237,81.2295,89.7247,135.448,107.564,133.294,0.00576154,0.464771,20.3657,172.945,-1.96889,0.0,0.0
1022,255.25,80.2101,87.9821,134.483,106.851,130.841,0.0058725,0.458484,20.3722,171.203,-1.85942,0.0,0.0
1095,273.5,79.8812,87.2481,132.527,105.636,129.555,0.00620105,0.456032,20.3759,169.492,-1.8738,0.0,0.0
1168,291.75,79.2658,86.1031,134.587,106.921,130.922,0.00622139,0.452042,20.3795,167.83,-1.85911,0.0,0.0
1241,310,78.9587,85.6459,132.446,106.259,131.32,0.00582811,0.448678,20.3859,166.179,-1.94401,0.0,0.0
1314,328.25,78.4787,84.7809,133.52,106.733,131.918,0.00604508,0.443988,20.3936,164.497,-1.94485,0.0,0.0
1387,346.5,78.2208,84.7161,129.307,107.429,131.157,0.00586088,0.437001,20.4075,162.776,-1.83208,0.0,0.0
1460,364.75,77.8931,84.6699,137.788,105.692,130.062,0.00585399,0.43767,20.403,161.184,-1.90477,0.0,0.0
1533,383,77.8597,83.9452,131.301,106.974,130.759,0.00569117,0.433334,20.4091,159.543,-1.84312,0.0,0.0
1606,401.25,77.4737,84.0548,137.551,107.116,127.563,0.00581331,0.432619,20.4142,158.002,-1.60382,0.0,0.0
1679,419.5,77.5551,83.4538,138.512,107.521,129.419,0.00626631,0.433477,20.4102,156.23,-1.70174,0.0,0.0
1752,437.75,77.3283,83.3224,133.924,106.401,127.69,0.00553514,0.433259,20.4127,154.558,-1.67442,0.0,0.0
1825,456,77.4575,83.4986,131.596,105.811,128.369,0.00535028,0.430095,20.4169,152.937,-1.77413,0.0,0.0
1898,474.25,77.1548,82.9578,136.03,106.734,130.967,0.00503611,0.432365,20.4172,151.266,-1.87834,0.0,0.0
1971,492.5,77.1042,82.4214,135.201,106.966,134.272,0.00516992,0.429456,20.4208,149.574,-2.0872,0.0,0.0
2044,510.75,76.7345,82.172,128.921,106.666,130.098,0.00538428,0.43573,20.4108,147.913,-1.82314,0.0,0.0
2117,529,77.0842,82.4455,137.896,106.297,131.058,0.00475337,0.435904,20.4099,146.231,-1.92237,0.0,0.0
2190,547.25,77.2253,82.6029,130.811,106.561,127.509,0.0055996,0.442748,20.4025,144.54,-1.64754,0.0,0.0
2263,565.5,77.3523,82.683,132.407,106.988,131.402,0.00563679,0.452522,20.3863,142.808,-1.88698,0.0,0.0
2336,583.75,77.8707,83.4424,133.729,107.087,132.434,0.00489494,0.460118,20.3753,141.096,-1.95029,0.0,0.0
2409,602,78.1806,83.9906,130.947,107.064,130.424,0.00544985,0.463199,20.3697,139.305,-1.81184,0.0,0.0
2482,620.25,79.2078,84.7808,133.621,107.082,133.837,0.00543454,0.475243,20.3492,137.523,-2.04746,0.0,0.0
2555,638.5,80.0912,85.6123,132.228,107.061,130.985,0.00561633,0.478464,20.3442,135.772,-1.8516,0.0,0.0
2628,656.75,80.7336,86.0422,131.228,107.047,135.639,0.00571118,0.479515,20.3417,133.99,-2.17328,0.0,0.0
2701,675,81.017,87.188,128.027,106.939,132.253,0.00558535,0.483653,20.3337,132.258,-1.95043,0.0,0.0
2774,693.25,81.5677,87.7281,133.639,106.68,131.176,0.00599759,0.484467,20.3313,130.427,-1.89757,0.0,0.0
2847,711.5,82.0775,87.7741,134.049,106.221,132.941,0.00558958,0.488905,20.3219,128.655,-2.05989,0.0,0.0
2920,729.75,81.8472,88.3867,135.397,106.412,132.099,0.00580764,0.48033,20.3363,126.884,-1.98509,0.0,0.0
2993,748,81.9454,88.8264,129.377,106.771,129.99,0.00544871,0.483069,20.3331,125.112,-1.80636,0.0,0.0
3066,766.25,82.5641,88.1132,135.114,106.99,131.456,0.00580019,0.479154,20.3346,123.351,-1.89055,0.0,0.0
3139,784.5,82.2512,88.677,130.414,106.843,130.207,0.00571342,0.480552,20.3306,121.619,-1.81552,0.0,0.0
3212,802.75,82.3972,87.9605,133.963,106.391,128.306,0.00589296,0.479451,20.3324,119.847,-1.71941,0.0,0.0
3285,821,81.9179,88.7459,132.619,105.834,131.483,0.00566968,0.469321,20.3474,118.146,-1.99223,0.0,0.0
3358,839.25,82.5213,87.9701,136.773,105.73,129.664,0.00509232,0.460772,20.3595,116.484,-1.87328,0.0,0.0
3431,857.5,81.158,86.7922,134.438,106.149,128.079,0.00517925,0.45351,20.3688,114.853,-1.72411,0.0,0.0
3504,875.75,80.7504,86.7187,132.501,106.906,130.216,0.00521511,0.450476,20.3735,113.271,-1.81077,0.0,0.0
3577,894,80.6486,86.7253,135.554,107.458,132.552,0.00552446,0.447953,20.375,111.7,-1.92673,0.0,0.0
3650,912.25,80.5273,86.2571,129.428,107.563,129.971,0.00535808,0.442675,20.3794,110.139,-1.73727,0.0,0.0
3723,930.5,80.0136,85.5213,133.679,107.185,131.8,0.00532955,0.437055,20.3867,108.607,-1.8979,0.0,0.0
3796,948.75,79.59,84.8711,135.948,106.74,131.954,0.00492278,0.427631,20.4016,107.126,-1.94673,0.0,0.0
3869,967,78.7364,83.9654,134.876,107.047,129.148,0.00486062,0.420316,20.4119,105.685,-1.723,0.0,0.0
3942,985.25,78.1812,83.1633,134.932,106.989,127.699,0.00527985,0.415536,20.4191,104.263,-1.62449,0.0,0.0
4015,1003.5,77.1153,82.1847,130.624,106.332,126.296,0.00493971,0.409692,20.427,102.892,-1.57957,0.0,0.0
4088,1021.75,76.7766,82.2389,139.373,106.429,129.003,0.0048787,0.407391,20.4281,101.501,-1.76584,0.0,0.0
4161,1040,76.5396,81.2066,135.615,106.797,126.957,0.00449421,0.403621,20.4287,100.19,-1.58746,0.0,0.0
4234,1058.25,75.9001,80.7414,133.209,106.968,126.73,0.00465787,0.40316,20.4269,98.8786,-1.55634,0.0,0.0
4307,1076.5,75.9318,80.9697,131.861,106.87,125.3,0.00485775,0.400092,20.4254,97.5674,-1.46054,0.0,0.0
4380,1094.75,75.4791,80.2762,131.975,106.589,126.323,0.00480926,0.396634,20.4292,96.3663,-1.55935,0.0,0.0
4453,1113,75.1882,79.5921,137.681,106.204,125.227,0.00427304,0.389286,20.4373,95.1452,-1.51261,0.0,0.0
4526,1131.25,74.4099,79.0806,132.143,105.82,125.997,0.0046261,0.381953,20.4476,93.9942,-1.60211,0.0,0.0
4599,1149.5,74.2504,78.6776,134.364,105.643,126.133,0.00443387,0.376112,20.4555,92.7831,-1.62739,0.0,0.0
4672,1167.75,73.5935,78.0895,136.959,105.929,126.64,0.00420222,0.366438,20.4682,91.7222,-1.63939,0.0,0.0
4745,1186,73.0677,77.6663,136.099,106.334,126.106,0.00342415,0.356292,20.4846,90.7213,-1.56559,0.0,0.0
4818,1204.25,71.8925,76.9487,139.191,106.299,129.555,0.00310807,0.341794,20.5079,89.7404,-1.81634,0.0,0.0
4891,1222.5,71.5998,75.8744,137.274,105.915,128.478,0.00314139,0.327805,20.5325,88.8696,-1.77291,0.0,0.0
4964,1240.75,70.3092,74.7996,133.714,105.655,127.753,0.00271838,0.316823,20.547,87.9888,-1.74357,0.0,0.0
5037,1259,69.7819,73.699,140.203,105.945,126.73,0.00293181,0.307701,20.5612,87.1581,-1.64455,0.0,0.0
5110,1277.25,68.6423,72.5981,140.736,106.759,129.148,0.00247673,0.300977,20.5727,86.3774,-1.74776,0.0,0.0
5183,1295.5,67.8356,71.6332,136.96,106.829,130.406,0.00214172,0.293041,20.5854,85.6267,-1.83075,0.0,0.0
5256,1313.75,66.7237,70.9048,134.397,106.585,127.889,0.00205255,0.284796,20.5958,84.9761,-1.67285,0.0,0.0
5329,1332,65.9073,69.7194,142.219,106.889,128.767,0.00241418,0.276918,20.6084,84.2555,-1.7095,0.0,0.0
5402,1350.25,65.3259,68.6206,136.431,107.38,129.926,0.00237837,0.2696,20.6206,83.6049,-1.74969,0.0,0.0
5475,1368.5,64.7647,68.39,144.902,107.224,127.971,0.00198927,0.263646,20.6318,82.9543,-1.6238,0.0,0.0
5548,1386.75,63.7409,66.7579,141.254,105.738,127.944,0.00233172,0.254133,20.646,82.4038,-1.75003,0.0,0.0
5621,1405,61.9353,65.8725,144.806,106.682,126.314,0.0021104,0.245351,20.6615,81.8233,-1.55071,0.0,0.0
5694,1423.25,61.6576,64.8028,143.003,106.483,128.939,0.00196585,0.237592,20.6761,81.2528,-1.75671,0.0,0.0
5767,1441.5,60.1769,63.3191,143.749,106.802,127.781,0.00221004,0.230311,20.689,80.7724,-1.64635,0.0,0.0
5840,1459.75,59.0075,62.3159,148.217,107.499,126.83,0.00222863,0.220674,20.7075,80.312,-1.51807,0.0,0.0
5913,1478,57.4627,60.5081,147.471,105.723,126.549,0.00257714,0.210326,20.7273,79.8515,-1.65073,0.0,0.0
5986,1496.25,56.353,59.5973,147.496,107.023,126.649,0.00273205,0.198703,20.7482,79.4812,-1.54577,0.0,0.0
6059,1514.5,54.8347,57.5102,143.883,106.562,125.345,0.00316944,0.185328,20.7735,79.0608,-1.49038,0.0,0.0
6132,1532.75,52.7928,55.713,149.178,106.767,124.413,0.00409725,0.174651,20.7904,78.7305,-1.40421,0.0,0.0
6205,1551,51.128,53.6379,153.426,107.563,123.534,0.00555828,0.165936,20.8096,78.4103,-1.27099,0.0,0.0
6278,1569.25,49.2605,51.3315,150.551,106.848,123.281,0.00723493,0.154506,20.8304,78.08,-1.31329,0.0,0.0
6351,1587.5,47.0873,49.2459,154.935,106.27,122.004,0.00843704,0.148743,20.8415,77.8297,-1.26759,0.0,0.0
6424,1605.75,45.5878,47.4507,150.657,106.102,120.846,0.00859351,0.147351,20.8434,77.6095,-1.19451,0.0,0.0
6497,1624,45.0309,46.8149,150.988,105.855,120.918,0.00877184,0.145383,20.8455,77.3193,-1.2214,0.0,0.0
6570,1642.25,44.6411,46.0226,148.577,105.79,119.569,0.00864958,0.145314,20.8453,77.0991,-1.124,0.0,0.0
6643,1660.5,43.1237,44.5106,152.417,105.801,119.56,0.00861098,0.145461,20.8455,76.8789,-1.1224,0.0,0.0
6716,1678.75,42.7866,43.9659,153.662,105.863,119.297,0.00890075,0.144777,20.8466,76.5886,-1.09685,0.0,0.0
6789,1697,42.863,43.5079,154.419,106.04,120.067,0.00894269,0.144765,20.8472,76.3684,-1.14049,0.0,0.0
6862,1715.25,42.1967,42.9161,146.987,106.451,121.443,0.00915874,0.143835,20.8464,76.1482,-1.20959,0.0,0.0
6935,1733.5,41.8586,43.1178,150.277,107.182,122.14,0.00926981,0.14161,20.8492,75.918,-1.19929,0.0,0.0
7008,1751.75,41.1003,42.6246,150.741,107.616,122.367,0.00955294,0.142014,20.8481,75.6678,-1.17925,0.0,0.0
7078,1769.25,41.1631,42.6341,150.2,107.257,122.765,,,,75.4876,-1.23975,0.0,0.0