File: 01_Data/Composite_Deck_Board/Cone/Composite_Deck_Board_Cone_HF25Scan_221209_R1.csv
Names,Time,Stack TC,Smoke TC,Exh Press,Smoke Comp,Smoke Meas,CO Meter,CO2 Meter,O2 Meter,Sample Mass,Ext Coeff,Start Test,Flame Verif
Chan Gain,,500,500,1,1,1,1,1,1,1,1,1.0,1.0
Offset,,0,0,0.13786,0,0,0,0,0,0,0,0.0,0.0
Gain,,1,1,25.011,13.9274,292.346,1,1,1,1.00091,1.04463,1.0,1.0
Units,sec,C,C,Pa,%,%,%,%,%,g,/m,,
Baseline,,22.9948,23.5572,162.611,103.538,101.547,-0.000319877,0.0653036,20.9384,-444.155,0.177978,,
107,26.5,21,21.8572,159.3,104.889,103.081,-0.000444364,0.0719725,20.9325,197.229,0.159322,0.0,0.0
214,53.25,21.217,21.7602,165.28,104.807,102.769,-0.000475727,0.0695318,20.9359,197.169,0.179991,0.0,0.0
321,80,20.3822,21.8391,163.065,104.57,101.707,0.000536281,0.067762,20.9327,197.089,0.254352,0.0,0.0
428,106.75,21.5215,22.0387,157.053,104.266,100.949,0.000269335,0.0724141,20.928,196.968,0.2963,0.0,0.0
535,133.5,21.6356,22.265,161.48,104.064,99.3251,0.000466539,0.0719495,20.9336,196.788,0.427092,0.0,0.0
642,160.25,21.825,22.3042,161.464,104.366,99.2983,0.000446021,0.0685393,20.9368,196.558,0.456133,0.0,0.0
749,187,37.1589,35.285,129.183,104.212,112.743,0.0107373,0.829852,19.6654,194.656,-0.721076,0.0,0.0
856,213.75,69.0293,72.397,135.215,104.382,113.948,0.00809762,0.774582,19.8684,190.232,-0.803475,0.0,0.0
963,240.5,65.885,72.8433,136.049,104.785,119.345,0.00393338,0.485944,20.3298,187.51,-1.19223,0.0,0.0
1070,267.25,62.2933,69.0278,140.637,102.795,114.242,0.00308254,0.441688,20.3916,185.058,-0.967514,0.0,0.0
1177,294,59.9687,66.7031,141.183,104.16,114.876,0.00306202,0.41694,20.4279,182.776,-0.897324,0.0,0.0
1284,320.75,57.7825,64.2563,140.743,104.554,116.035,0.00273492,0.390365,20.4745,180.614,-0.954742,0.0,0.0
1391,347.5,56.2805,61.9074,145.914,104.551,117.677,0.00268937,0.370567,20.5033,178.552,-1.08373,0.0,0.0
1498,374.25,54.8838,60.2392,149.846,103.79,116.134,0.00242697,0.362809,20.5116,176.56,-1.02968,0.0,0.0
1605,401,54.5839,58.9822,144.301,104.553,119.122,0.00229893,0.353069,20.5301,174.628,-1.19544,0.0,0.0
1712,427.75,53.7574,58.6257,141.197,103.83,116.151,0.0020002,0.35025,20.5333,172.706,-1.02759,0.0,0.0
1819,454.5,53.3145,57.517,140.601,104.081,115.402,0.00180895,0.341168,20.5454,170.875,-0.946136,0.0,0.0
1926,481.25,53.5742,57.1091,145.507,104.821,115.232,0.00147209,0.331945,20.5591,169.073,-0.867785,0.0,0.0
2033,508,52.4072,56.8003,143.025,103.081,115.036,0.00152427,0.332606,20.5586,167.171,-1.00552,0.0,0.0
2140,534.75,52.8321,56.3169,144.168,103.89,113.957,0.00194752,0.330236,20.5672,165.33,-0.847465,0.0,0.0
2247,561.5,52.5209,56.1286,144.001,104.413,115.589,0.00113738,0.328102,20.569,163.508,-0.931785,0.0,0.0
2354,588.25,52.3278,55.8356,146.376,104.784,115.919,0.0012453,0.329533,20.5671,161.636,-0.925448,0.0,0.0
2461,615,52.6883,55.9788,150.203,104.543,114.831,0.00131127,0.328607,20.5702,159.825,-0.860137,0.0,0.0
2568,641.75,52.0814,55.6353,144.044,103.291,113.573,0.00167658,0.330527,20.5617,157.943,-0.869539,0.0,0.0
2675,668.5,52.8014,55.6335,145.011,102.999,112.404,0.00114021,0.334993,20.5588,156.101,-0.800693,0.0,0.0
2782,695.25,52.888,56.0794,146.367,103.539,114.858,0.00160452,0.334606,20.5615,154.2,-0.950656,0.0,0.0
2889,722,52.8318,56.237,145.556,103.987,115.027,0.0011601,0.336696,20.5599,152.338,-0.924607,0.0,0.0
2996,748.75,53.2032,56.3721,143.875,104.246,114.929,0.00152647,0.338639,20.5525,150.446,-0.894005,0.0,0.0
3103,775.5,53.5122,56.7114,143.331,104.265,116.847,0.00133101,0.341386,20.5509,148.535,-1.04404,0.0,0.0
3210,802.25,53.4704,57.0792,148.72,104.235,115.518,0.0012713,0.344311,20.5468,146.613,-0.941805,0.0,0.0
3317,829,54.0491,57.3255,139.786,104.227,116.615,0.00127397,0.346979,20.5413,144.691,-1.02915,0.0,0.0
3424,855.75,54.3422,57.565,141.713,104.262,115.839,0.00152338,0.346312,20.5425,142.769,-0.964894,0.0,0.0
3531,882.5,54.1154,57.4739,149.028,104.257,115.946,0.0011581,0.348527,20.5392,140.818,-0.973769,0.0,0.0
3638,909.25,54.5736,58.064,142.264,104.089,115.215,0.00130659,0.350426,20.5341,138.856,-0.930573,0.0,0.0
3745,936,54.8026,58.0393,141.216,103.659,114.447,0.00153942,0.352872,20.5286,136.904,-0.907291,0.0,0.0
3852,962.75,55.2938,57.9425,147.095,103.219,114.67,0.00139944,0.351567,20.5331,134.972,-0.964103,0.0,0.0
3959,989.5,55.394,58.097,144.249,102.961,113.769,0.00134198,0.350812,20.5361,133.01,-0.914745,0.0,0.0
4066,1016.25,55.2094,58.728,142.128,103.055,114.108,0.00130362,0.354625,20.5298,131.009,-0.933654,0.0,0.0
4173,1043,55.6774,58.7936,143.977,103.605,115.937,0.00115608,0.354211,20.5298,129.077,-1.03055,0.0,0.0
4280,1069.75,55.7666,58.9518,142.492,104.43,117.008,0.00126666,0.355702,20.5253,127.105,-1.0421,0.0,0.0
4387,1096.5,55.9459,58.81,142.361,104.883,117.311,0.00136315,0.354105,20.5275,125.163,-1.02619,0.0,0.0
4494,1123.25,55.5398,59.3904,140.548,104.913,116.615,0.00111746,0.353487,20.5298,123.232,-0.969002,0.0,0.0
4601,1150,55.3587,58.9668,143.193,104.714,117.391,0.00124456,0.353773,20.5267,121.29,-1.04718,0.0,0.0
4708,1176.75,55.734,58.8809,145.115,104.228,116.481,0.00128812,0.352199,20.5268,119.378,-1.01856,0.0,0.0
4815,1203.5,55.4741,58.8643,145.438,104.402,114.046,0.00143823,0.34861,20.5325,117.496,-0.809609,0.0,0.0
4922,1230.25,55.6382,58.7942,140.501,104.384,116.464,0.00121456,0.349979,20.5299,115.645,-1.00345,0.0,0.0
5029,1257,55.7518,58.937,142.534,103.617,113.502,0.00126341,0.346464,20.5334,113.823,-0.834903,0.0,0.0
5136,1283.75,55.3981,58.9223,142.013,103.906,114.528,0.00120483,0.341321,20.5386,112.092,-0.89184,0.0,0.0
5243,1310.5,54.767,58.4071,143.086,104.219,114.661,0.00159279,0.332228,20.5487,110.39,-0.875032,0.0,0.0
5350,1337.25,54.3124,57.6839,148.722,104.119,113.787,0.00138432,0.327048,20.5558,108.678,-0.813677,0.0,0.0
5457,1364,53.7166,57.7415,148.076,103.616,113.091,0.00109657,0.326189,20.5554,107.107,-0.80186,0.0,0.0
5564,1390.75,53.4106,56.822,145.701,103.016,112.618,0.00148419,0.316831,20.5692,105.536,-0.81662,0.0,0.0
5671,1417.5,53.5158,56.4689,146.409,103.007,113.448,0.00120537,0.312542,20.5709,104.084,-0.884754,0.0,0.0
5778,1444.25,53.0389,55.5005,145.441,103.548,112.476,0.0014736,0.305846,20.5825,102.633,-0.757785,0.0,0.0
5885,1471,52.2916,55.2158,145.386,104.34,111.931,0.000965535,0.300727,20.5862,101.282,-0.643571,0.0,0.0
5992,1497.75,51.7438,54.4934,147.291,104.859,112.913,0.00100654,0.296179,20.5899,99.9405,-0.678063,0.0,0.0
6099,1524.5,51.5917,53.7559,153.198,104.85,113.261,0.00108814,0.291214,20.5984,98.6394,-0.707074,0.0,0.0
6206,1551.25,50.831,53.6721,150.892,104.526,112.279,0.00131466,0.286696,20.6037,97.4583,-0.65564,0.0,0.0
6313,1578,49.6749,52.8296,145.794,104.277,112.868,0.000775822,0.275531,20.6148,96.3072,-0.725506,0.0,0.0
6420,1604.75,49.4672,51.9105,144.737,104.028,111.699,0.000683032,0.271502,20.6206,95.2062,-0.651963,0.0,0.0
6527,1631.5,48.5686,51.5305,148.135,104.435,114.287,0.0010741,0.263768,20.633,94.1753,-0.826035,0.0,0.0
6634,1658.25,48.4291,50.2651,150.147,104.505,113.653,0.00062131,0.256891,20.6424,93.1644,-0.768992,0.0,0.0
6741,1685,47.7438,49.7506,148.981,104.081,112.128,0.000622924,0.249241,20.6536,92.2736,-0.682348,0.0,0.0
6848,1711.75,46.5768,49.1316,147.958,103.667,111.209,0.000727976,0.242558,20.6626,91.3928,-0.643462,0.0,0.0
6955,1738.5,46.3882,48.1054,150.365,103.965,111.744,0.000780385,0.238716,20.6654,90.552,-0.661165,0.0,0.0
7062,1765.25,45.6569,47.5558,154.514,104.224,111.236,0.000344102,0.234654,20.6735,89.7413,-0.596582,0.0,0.0
7169,1792,44.9504,47.2875,146.099,104.009,111.699,0.00056455,0.232095,20.6777,88.9606,-0.653686,0.0,0.0
7276,1818.75,44.2675,46.7124,153.211,103.527,110.691,0.0008057,0.229471,20.6824,88.1799,-0.613131,0.0,0.0
7383,1845.5,44.2025,45.9508,151.24,103.044,110.763,0.000962852,0.228515,20.6843,87.4292,-0.661949,0.0,0.0
7490,1872.25,43.3643,45.6687,154.729,102.89,109.076,0.000848421,0.224634,20.6907,86.6685,-0.53507,0.0,0.0
7597,1899,43.1993,45.1687,143.997,103.332,109.737,0.000779448,0.222699,20.6923,85.9579,-0.551044,0.0,0.0
7704,1925.75,42.7233,44.9918,151.861,104.182,109.407,0.000702269,0.218613,20.6994,85.2272,-0.448401,0.0,0.0
7811,1952.5,42.2562,43.9686,147.135,104.781,111.352,0.000856095,0.21291,20.7121,84.5566,-0.557346,0.0,0.0
7918,1979.25,41.7055,43.2522,153.339,104.873,110.326,0.00090698,0.208797,20.7155,83.866,-0.464423,0.0,0.0
8025,2006,40.5704,42.7314,156.572,104.495,109.46,0.00122223,0.202373,20.7275,83.2254,-0.425336,0.0,0.0
8132,2032.75,40.4215,42.1143,155.359,104.106,108.693,0.00136073,0.198622,20.7342,82.5948,-0.395121,0.0,0.0
8239,2059.5,39.8914,41.0281,155.687,104.298,109.21,0.00161587,0.192566,20.7457,81.9843,-0.421747,0.0,0.0
8346,2086.25,38.4939,40.4084,154.696,104.543,108.202,0.00198581,0.186775,20.7542,81.4137,-0.315243,0.0,0.0
8453,2113,38.1149,39.4531,156.924,104.334,106.784,0.00218716,0.181397,20.7627,80.8633,-0.212662,0.0,0.0
8560,2139.75,37.1403,38.3393,153.636,103.652,106.453,0.00249185,0.176052,20.7712,80.3128,-0.244402,0.0,0.0
8667,2166.5,36.0853,37.5022,154.145,103.811,107.417,0.00283695,0.167571,20.7866,79.7923,-0.31289,0.0,0.0
8774,2193.25,35.1889,36.4453,154.02,104.021,106.677,0.00337221,0.162314,20.7981,79.3519,-0.231024,0.0,0.0
8881,2220,33.8408,35.6242,156.42,104.176,106.65,0.00391203,0.156831,20.8068,78.8614,-0.215031,0.0,0.0
8988,2246.75,33.1642,34.6853,157.959,104.018,106.739,0.00410379,0.15326,20.8133,78.401,-0.236649,0.0,0.0
9095,2273.5,32.838,33.4034,159.356,103.647,104.062,0.00403676,0.149129,20.8219,78.0107,-0.0366894,0.0,0.0
9202,2300.25,31.4878,33.1267,158.588,103.469,105.285,0.00455012,0.14317,20.8315,77.5603,-0.159451,0.0,0.0
9309,2327,30.7716,32.221,158.146,103.501,106.391,0.00502447,0.138498,20.8374,77.1999,-0.252335,0.0,0.0
9416,2353.75,30.1247,31.3692,156.745,104.067,105.856,0.00645561,0.132146,20.8484,76.8396,-0.156202,0.0,0.0
9523,2380.5,29.3273,31.0672,158.111,103.888,106.373,0.00749959,0.122769,20.8626,76.5493,-0.216582,0.0,0.0
9630,2407.25,28.5006,29.8508,159.015,104.528,105.99,0.00881539,0.119068,20.8691,76.2291,-0.127263,0.0,0.0
9737,2434,27.5316,28.2337,158.972,104.698,105.909,0.00909913,0.114988,20.876,75.8687,-0.105426,0.0,0.0
9844,2460.75,26.969,28.0224,163.238,103.457,104.464,0.00915755,0.113743,20.8776,75.5985,-0.0887869,0.0,0.0
9951,2487.5,26.0671,27.1501,156.952,103.977,106.462,0.00920369,0.111795,20.8823,75.2982,-0.21647,0.0,0.0
10058,2514.25,26.2152,27.0523,163.756,104.425,104.883,0.00889184,0.112634,20.8821,75.018,-0.0400988,0.0,0.0
10153,2538,25.5568,26.8575,157.297,104.905,105.677,,,,74.7777,-0.0672365,0.0,0.0