File: 01_Data/Composite_Deck_Board/Cone/Composite_Deck_Board_Cone_HF25Scan_221209_R3.csv
Names,Time,Stack TC,Smoke TC,Exh Press,Smoke Comp,Smoke Meas,CO Meter,CO2 Meter,O2 Meter,Sample Mass,Ext Coeff,Start Test,Flame Verif
Chan Gain,,500,500,1,1,1,1,1,1,1,1,1.0,1.0
Offset,,0,0,0.136389,0,0,0,0,0,0,0,0.0,0.0
Gain,,1,1,25.011,14.2696,296.664,1,1,1,1.0009,1.04656,1.0,1.0
Units,sec,C,C,Pa,%,%,%,%,%,g,/m,,
Baseline,,15.0973,15.8994,165.536,106.398,106.403,0.00115394,0.0709541,20.9388,-442.873,-0.000423558,,
110,27.25,15.2776,15.9277,166.366,105.557,107.41,0.000864709,0.0731573,20.941,200.76,-0.159758,0.0,0.0
220,54.75,15.6548,16.1953,167.693,106.569,107.437,0.000517504,0.0705781,20.9463,200.72,-0.0744817,0.0,0.0
330,82.25,16.1454,16.7161,165.301,105.209,106.098,0.00158594,0.067845,20.9467,200.61,-0.077215,0.0,0.0
440,109.75,16.8559,16.83,170.889,106.191,106.007,0.00146809,0.0718673,20.9416,200.49,0.0159116,0.0,0.0
550,137.25,16.8472,17.2944,164.731,106.535,106.125,0.00159189,0.0721814,20.94,200.279,0.035455,0.0,0.0
660,164.75,17.0094,17.8182,164.955,106.781,104.749,0.00205144,0.0718439,20.9428,200.009,0.176415,0.0,0.0
770,192.25,42.6768,40.3713,115.53,106.898,119.18,0.0136296,1.0663,19.3942,197.227,-0.998463,0.0,0.0
880,219.75,65.2641,69.9709,135.632,105.972,115.83,0.00835142,0.643255,20.0808,193.193,-0.816591,0.0,0.0
990,247.25,62.0337,68.1818,142.343,105.32,113.494,0.00550159,0.47582,20.349,190.401,-0.686182,0.0,0.0
1100,274.75,57.8249,65.2809,146.624,105.1,113.974,0.00522016,0.451344,20.3826,187.858,-0.744103,0.0,0.0
1210,302.25,55.9062,63.4211,140.973,105.015,114.508,0.00450901,0.424358,20.4252,185.426,-0.794523,0.0,0.0
1320,329.75,53.9887,60.8741,142.851,105.146,114.888,0.00362803,0.40209,20.4595,183.124,-0.813468,0.0,0.0
1430,357.25,53.2893,59.2614,146.169,105.748,117.604,0.00343204,0.384852,20.485,180.932,-0.975613,0.0,0.0
1540,384.75,52.4976,57.5509,143.972,106.556,118.374,0.00295103,0.373787,20.5031,178.86,-0.965553,0.0,0.0
1650,412.25,51.3368,56.5824,142.874,106.937,118.591,0.00346038,0.361612,20.5201,176.818,-0.949618,0.0,0.0
1760,439.75,50.7585,55.7085,143.095,106.989,120.755,0.0030066,0.356748,20.5297,174.847,-1.11116,0.0,0.0
1870,467.25,50.7646,55.2848,144.091,106.761,118.917,0.00272531,0.350297,20.5382,172.895,-0.98993,0.0,0.0
1980,494.75,50.7288,55.1487,151.291,106.158,117.84,0.00258982,0.346905,20.5437,170.963,-0.958389,0.0,0.0
2090,522.25,50.4841,54.2106,143.738,106.581,118.899,0.0026562,0.340975,20.5541,169.051,-1.00409,0.0,0.0
2200,549.75,50.0219,54.1957,146.088,105.949,116.708,0.00259529,0.33998,20.5569,167.18,-0.887893,0.0,0.0
2310,577.25,49.9199,53.8939,148.516,105.932,116.762,0.00236087,0.340514,20.5555,165.268,-0.893674,0.0,0.0
2420,604.75,50.51,53.6776,149.351,106.291,118.836,0.00294128,0.341998,20.5515,163.346,-1.02413,0.0,0.0
2530,632.25,50.1506,53.7054,148.82,106.089,116.88,0.00263005,0.338865,20.5584,161.465,-0.889347,0.0,0.0
2640,659.75,50.3986,53.6889,145.074,105.421,117.55,0.00231079,0.333627,20.5691,159.543,-0.999769,0.0,0.0
2750,687.25,50.8491,53.727,145.117,104.995,116.174,0.00244168,0.344653,20.5485,157.621,-0.928789,0.0,0.0
2860,714.75,51.481,54.6882,142.262,106.442,118.691,0.00272223,0.3492,20.5423,155.679,-0.999929,0.0,0.0
2970,742.25,51.5286,55.029,147.509,106.875,119.515,0.00245913,0.352649,20.5381,153.668,-1.02614,0.0,0.0
3080,769.75,52.0655,55.9344,145.895,106.352,119.75,0.00300421,0.360511,20.5314,151.636,-1.08927,0.0,0.0
3190,797.25,52.5206,55.6121,145.833,105.907,117.767,0.00250147,0.363406,20.5255,149.584,-0.9745,0.0,0.0
3300,824.75,53.2653,56.5283,145.898,106.033,117.514,0.00264353,0.363641,20.5252,147.522,-0.943815,0.0,0.0
3410,852.25,53.6554,57.1372,148.506,106.274,119.651,0.00241222,0.36781,20.5214,145.44,-1.0884,0.0,0.0
3520,879.75,53.9942,57.2649,141.85,105.718,121.588,0.00274553,0.365386,20.5215,143.358,-1.28395,0.0,0.0
3630,907.25,53.9183,57.8484,142.419,104.894,116.88,0.00281687,0.366922,20.5179,141.287,-0.9933,0.0,0.0
3740,934.75,54.2163,57.9855,144.632,105.773,119.515,0.00245532,0.361793,20.5275,139.225,-1.12134,0.0,0.0
3850,962.25,53.873,56.925,144.035,106.784,122.692,0.00270729,0.364564,20.5219,137.173,-1.27487,0.0,0.0
3960,989.75,54.5229,57.8825,146.867,106.921,119.252,0.00243822,0.362586,20.5266,135.131,-1.00202,0.0,0.0
4070,1017.25,54.2688,58.1451,142.79,106.322,120.538,0.00275667,0.362399,20.5266,133.079,-1.15209,0.0,0.0
4180,1044.75,54.5502,57.7887,145.244,106.578,120.293,0.002748,0.36284,20.5206,131.057,-1.11137,0.0,0.0
4290,1072.25,54.512,58.0904,140.933,106.53,119.641,0.00281873,0.359392,20.528,129.056,-1.06558,0.0,0.0
4400,1099.75,54.4024,58.0635,143.804,106.58,120.483,0.0025938,0.352455,20.5403,127.104,-1.12568,0.0,0.0
4510,1127.25,54.8943,58.3121,142.228,106.602,122.276,0.00257917,0.351826,20.5407,125.172,-1.25939,0.0,0.0
4620,1154.75,55.1415,58.519,144.424,106.355,122.765,0.00279341,0.346445,20.5443,123.25,-1.31727,0.0,0.0
4730,1182.25,55.1095,58.0208,146.117,105.174,120.221,0.00247402,0.343044,20.5507,121.379,-1.22754,0.0,0.0
4840,1209.75,54.4799,57.9347,144.378,106.094,121.153,0.00278928,0.338244,20.5566,119.587,-1.21855,0.0,0.0
4950,1237.25,53.7448,57.6249,144.301,106.08,119.804,0.00233139,0.331905,20.566,117.796,-1.11696,0.0,0.0
5060,1264.75,53.4652,56.7173,148.607,106.078,119.986,0.00252057,0.327815,20.5698,116.044,-1.13101,0.0,0.0
5170,1292.25,54.0149,57.2603,147.575,106.192,120.864,0.00233127,0.325918,20.5713,114.362,-1.18809,0.0,0.0
5280,1319.75,52.7579,56.5263,142.664,106.223,120.511,0.00234745,0.318941,20.5838,112.751,-1.15852,0.0,0.0
5390,1347.25,53.3315,56.2411,143.712,105.216,118.845,0.0024881,0.312942,20.5869,111.16,-1.11817,0.0,0.0
5500,1374.75,52.1084,55.7316,144.624,106.17,117.958,0.00236987,0.306343,20.5972,109.608,-0.966499,0.0,0.0
5610,1402.25,51.7956,55.2279,151.465,106.438,117.876,0.00226922,0.299288,20.606,108.147,-0.937064,0.0,0.0
5720,1429.75,51.2065,53.9691,148.226,106.779,119.596,0.00246841,0.297294,20.6076,106.706,-1.04067,0.0,0.0
5830,1457.25,50.9064,53.6917,148.801,106.997,116.12,0.00223993,0.293159,20.6099,105.324,-0.751109,0.0,0.0
5940,1484.75,50.3272,53.1282,148.884,106.931,115.278,0.00219005,0.290183,20.6126,103.973,-0.689982,0.0,0.0
6050,1512.25,49.5907,52.4014,140.843,106.356,115.812,0.00225081,0.28469,20.6193,102.682,-0.781943,0.0,0.0
6160,1539.75,48.5489,51.6274,150.811,105.703,115.604,0.00216508,0.278728,20.6265,101.441,-0.821941,0.0,0.0
6270,1567.25,48.3241,50.3752,144.844,105.377,114.599,0.00212341,0.27436,20.6299,100.26,-0.770122,0.0,0.0
6380,1594.75,47.9474,50.534,153.111,105.184,113.313,0.00232128,0.267022,20.6405,99.1488,-0.683375,0.0,0.0
6490,1622.25,46.3221,49.1433,151.263,105.161,113.965,0.00203632,0.261841,20.6459,98.0979,-0.738087,0.0,0.0
6600,1649.75,46.2997,48.3505,146.372,105.27,113.594,0.00234064,0.253556,20.6588,97.097,-0.6986,0.0,0.0
6710,1677.25,45.4954,47.9441,150.657,105.58,112.381,0.00194883,0.249217,20.6625,96.1662,-0.573029,0.0,0.0
6820,1704.75,45.394,47.3754,146.366,106.059,113.693,0.00221576,0.242745,20.6722,95.2453,-0.638126,0.0,0.0
6930,1732.25,44.1398,46.5321,149.232,106.747,113.105,0.00215491,0.236097,20.681,94.4346,-0.531122,0.0,0.0
7040,1759.75,43.546,45.5015,150.518,107.02,113.295,0.00237613,0.232173,20.69,93.6439,-0.523051,0.0,0.0
7150,1787.25,42.7463,44.9186,148.953,106.935,113.902,0.00198055,0.22661,20.6977,92.8732,-0.579396,0.0,0.0
7260,1814.75,41.9899,44.2627,149.709,106.293,112.652,0.00236076,0.224462,20.6999,92.1225,-0.533413,0.0,0.0
7370,1842.25,41.7011,43.6451,147.12,106.546,113.947,0.002313,0.221926,20.7031,91.3919,-0.616528,0.0,0.0
7480,1869.75,41.4565,43.7603,152.774,105.811,112.833,0.00208814,0.219608,20.7056,90.6712,-0.589887,0.0,0.0
7590,1897.25,40.4446,42.5269,152.44,106.289,111.312,0.00244125,0.214856,20.7144,89.9706,-0.423942,0.0,0.0
7700,1924.75,40.1895,41.7773,150.774,106.077,112.009,0.00207016,0.212214,20.7186,89.3,-0.499554,0.0,0.0
7810,1952.25,39.7996,41.4281,152.575,105.061,109.13,0.00251438,0.20981,20.722,88.6194,-0.348892,0.0,0.0
7920,1979.75,38.9784,40.6972,151.32,105.923,110.099,0.00294849,0.205115,20.73,87.9888,-0.355025,0.0,0.0
8030,2007.25,38.2023,40.2766,151.217,107.052,112.009,0.00258711,0.20266,20.7338,87.3583,-0.415558,0.0,0.0
8140,2034.75,38.0859,39.7945,152.163,106.306,110.117,0.00293178,0.199945,20.7377,86.7377,-0.323382,0.0,0.0
8250,2062.25,37.2613,38.9081,155.306,106.547,109.013,0.00310842,0.194887,20.7477,86.1372,-0.210062,0.0,0.0
8360,2089.75,36.8767,38.4917,154.524,105.969,109.828,0.00311422,0.192195,20.752,85.5567,-0.328313,0.0,0.0
8470,2117.25,36.4386,37.7722,151.028,106.289,108.288,0.00351304,0.188667,20.7589,84.9962,-0.171104,0.0,0.0
8580,2144.75,35.4034,36.7528,154.583,105.216,108.913,0.00358657,0.18166,20.768,84.4256,-0.317058,0.0,0.0
8690,2172.25,34.4373,35.6949,155.811,105.535,108.995,0.00409771,0.177355,20.7777,83.9252,-0.296077,0.0,0.0
8800,2199.75,34.0205,35.3451,159.863,106.976,109.637,0.0042693,0.171563,20.7873,83.4047,-0.225559,0.0,0.0
8910,2227.25,33.1531,34.3454,159.392,106.507,108.261,0.0048588,0.166305,20.7945,82.9243,-0.150014,0.0,0.0
9020,2254.75,32.0285,33.2102,159.755,106.667,107.401,0.00517197,0.160236,20.8044,82.4739,-0.062987,0.0,0.0
9130,2282.25,31.5065,32.1231,155.951,105.815,106.831,0.00577295,0.155056,20.8132,82.0335,-0.0877076,0.0,0.0
9240,2309.75,30.3706,32.0053,157.557,106.334,107.347,0.00622794,0.149677,20.8217,81.6131,-0.0870215,0.0,0.0
9350,2337.25,29.8493,30.802,160.131,105.719,106.65,0.00623102,0.147753,20.828,81.2028,-0.0804878,0.0,0.0
9460,2364.75,29.1929,30.0049,155.5,105.012,105.681,0.00684595,0.142663,20.8348,80.8024,-0.0583387,0.0,0.0
9570,2392.25,28.9457,29.7321,156.781,105.073,106.949,0.00677108,0.136351,20.8479,80.4521,-0.162383,0.0,0.0
9680,2419.75,27.9617,29.0378,160.286,105.707,107.329,0.00750814,0.130164,20.8578,80.1218,-0.13981,0.0,0.0
9790,2447.25,28.3816,29.358,164.526,106.328,107.247,0.0089151,0.123565,20.868,79.7715,-0.0789898,0.0,0.0
9900,2474.75,27.0601,28.3133,163.552,105.732,106.894,0.00935839,0.121622,20.8723,79.4212,-0.100332,0.0,0.0
10010,2502.25,26.6461,27.7735,161.035,106.143,108.225,0.00974093,0.120552,20.8765,79.0909,-0.178301,0.0,0.0
10120,2529.75,25.0371,25.7837,159.047,106.868,107.972,0.00983813,0.120217,20.8755,78.7706,-0.0943498,0.0,0.0
10230,2557.25,25.4788,26.3794,162.715,105.218,106.116,0.0094854,0.116796,20.8815,78.4803,-0.077945,0.0,0.0
10340,2584.75,25.0575,25.9205,159.653,105.834,106.577,0.00959546,0.116902,20.8822,78.1901,-0.0642356,0.0,0.0
10450,2612.25,24.7952,25.2752,162.996,106.949,108.189,0.00957609,0.116089,20.8825,77.8998,-0.105775,0.0,0.0
10516,2628.75,24.8403,25.6629,157.857,105.541,105.817,,,,77.7297,-0.0239505,0.0,0.0