File: 01_Data/Camelback_Sofa/Furniture_Calorimeter/Camelback_Sofa_R1.csv
Time (s),Convective HRR,TCPlume1,TCPlume2,TCPlume3,DPPlume1,DPPlume2,DPPlume3,HF1,HF2,HF3,HF4,HF5,HF6,RAD2,RAD1,Load Cell,Heat Release Rate,Total Heat Released
-119,0.0,-6.99851,-5.93275,7.97246,-0.00411971,-0.0424816,-0.0688749,-0.21079,-1.11956,-0.0207027,0.0219214,-0.359065,-0.172583,0.613177,2.88169,34.2528,0.0,0.0
-93,0.0,-6.77553,-6.29584,7.42533,0.0186675,0.0182799,-0.0081105,0.591573,1.57652,-0.0207027,-0.840321,0.0158878,-0.172583,0.447131,2.88169,34.2528,0.0,0.0
-67,0.0,-7.53059,-6.1122,8.25573,-0.0117154,0.0258751,-0.0308971,1.39394,-0.220866,-0.0207027,0.0219214,0.765793,0.110261,0.447131,2.88169,34.232,0.0,0.0
-41,0.0,-6.53105,-6.32497,7.66468,0.10222,0.0410655,0.0526539,-0.21079,-0.220866,-0.0207027,-1.70256,0.39084,-0.172583,0.779224,4.79872,34.232,0.0,0.0
-15,0.0,-6.61505,-6.40893,7.7355,-0.00411971,-0.0348864,0.0222717,-0.21079,0.67783,0.793602,-1.70256,-0.359065,-0.172583,0.945271,2.88169,34.232,0.0,0.0
11,0.0,-6.27504,-6.53782,7.76236,0.0186675,0.0866367,-0.106853,1.39394,-0.220866,0.793602,0.0219214,-0.359065,-0.0311607,0.613177,2.88169,34.2528,0.0,0.0
37,0.0,-6.90039,-6.30338,7.68583,0.0110717,-0.0880527,-0.0764704,0.591573,-0.220866,0.793602,0.0219214,0.39084,-0.0311607,0.945271,0.964651,34.232,0.0,0.0
63,7.97756,-5.77915,-5.61236,8.28661,0.0110717,0.0866367,-0.0460882,0.591573,1.57652,0.793602,0.0219214,-0.359065,0.110261,0.945271,2.88169,34.1075,60.7462,0.632945
89,50.4638,0.103154,-3.51646,10.3077,0.504794,0.0714463,0.0222717,4.60339,1.57652,1.60791,0.884164,0.765793,0.675948,1.60946,4.79872,34.0659,217.823,3.91113
115,151.614,6.61313,0.448865,14.9227,0.43118,0.8221,0.0336092,8.06856,5.43434,5.50957,4.56452,1.31579,1.70795,1.98568,7.87154,33.5627,509.596,12.8927
141,293.834,26.5277,15.4275,23.4581,1.69732,0.755013,0.151396,15.0341,7.86739,9.75095,6.05762,3.01551,2.51443,2.77179,11.5083,32.7577,997.51,30.8312
167,600.67,67.1955,51.8283,58.0123,6.65733,0.815775,1.39707,27.8719,15.057,17.0797,13.8178,6.76503,4.63576,4.76435,21.0935,31.3871,1494.68,63.2227
193,944.886,156.832,157.076,147.874,4.95589,13.1656,5.04293,52.7452,25.8413,27.6656,22.4402,13.5142,9.16125,9.24761,41.2224,29.1028,2523.58,112.31
219,1516.32,274.74,360.518,425.651,9.04239,15.8922,8.05076,74.409,30.3348,32.5515,28.4759,21.3882,15.101,14.5611,67.1023,25.7802,2779.23,183.837
245,1506.28,194.126,249.564,364.627,3.01898,9.3072,5.99237,38.3027,16.8543,17.0797,16.4045,13.5142,10.0098,9.41366,41.2224,22.7692,1411.52,238.463
271,863.199,113.671,146.209,273.452,2.95821,4.87161,3.50103,14.2318,6.9687,6.49373,6.05762,4.51532,3.22154,3.10388,15.3424,21.4194,628.182,264.2
297,545.769,65.6027,92.8051,211.849,1.24917,1.81834,0.872973,8.61521,3.37392,3.23651,5.19538,1.89065,1.80732,1.94155,10.5498,20.6302,393.574,277.522
323,333.075,47.935,67.8698,169.623,0.512389,4.74249,0.721062,5.40575,2.47522,1.60791,1.74641,1.5157,0.958792,1.60946,6.71575,19.945,265.782,285.76
349,282.858,37.6205,55.615,137.96,2.23662,2.35,0.8274,3.80103,1.57652,2.42221,1.74641,1.5157,0.81737,1.11132,5.75724,19.6335,198.643,291.753
375,232.271,29.0884,42.7538,115.649,0.823814,0.815775,0.857782,2.1963,2.47522,0.793602,1.74641,0.765793,0.675948,1.11132,4.79872,19.322,158.597,296.656
401,181.845,23.065,34.8609,97.4068,2.13787,2.57786,1.66291,2.99866,-0.220866,-0.0207027,1.74641,0.39084,0.534526,1.11132,5.75724,18.7198,121.457,300.482
427,140.233,19.7468,30.3061,83.7303,0.528978,0.846677,0.097895,3.36737,0.607132,0.793601,0.962336,0.181504,0.511091,1.04861,3.50147,18.6305,102.904,303.571
453,150.09,16.8626,25.2546,72.7449,1.12764,1.43858,1.18439,2.99866,-0.220866,1.60791,0.884164,0.765793,0.534526,0.945271,4.79872,18.4706,81.6785,306.059
479,122.695,14.4477,20.6202,63.335,0.284518,1.81074,1.6857,2.99866,1.57652,1.60791,0.884164,0.765793,0.251683,0.779224,4.79872,18.3252,70.7851,308.254
505,100.782,11.1831,16.4948,56.3613,0.337688,0.451206,0.834995,2.1963,1.57652,0.793602,1.74641,0.39084,0.251683,1.11132,3.8402,17.9722,98.5705,310.532
531,108.39,10.3272,15.9845,50.9952,0.390858,0.792989,0.379262,2.1963,0.67783,0.793602,0.884164,1.14074,0.110261,0.779224,3.8402,17.9722,97.2309,313.062
557,95.3676,7.46523,13.6654,46.0761,1.53781,0.230945,0.128609,1.39394,1.57652,0.793602,1.74641,0.765793,0.251683,0.779224,3.8402,17.7853,71.3204,315.269
583,96.4889,8.12122,11.6102,40.8778,0.93775,1.18034,0.698275,-1.01315,-0.220866,-0.0207027,0.0219214,0.0158878,0.251683,0.779224,4.79872,17.6399,56.0197,316.948
609,86.9213,7.38465,9.19316,36.5388,0.178178,0.375254,0.409645,1.39394,0.67783,1.60791,2.60865,0.39084,0.251683,0.613177,2.88169,17.4946,51.0004,318.264
635,84.1793,7.12253,8.74002,33.9611,0.383262,0.405635,0.629915,1.39394,-0.220866,0.793602,0.0219214,0.765793,0.393105,0.779224,2.88169,17.3077,67.0053,319.743
661,76.9632,6.09502,7.44523,31.1892,0.0946247,0.0866367,0.181778,0.591573,-0.220866,-0.0207027,-0.840321,0.0158878,0.110261,0.945271,2.88169,17.1623,73.8991,321.456
687,73.4885,4.77812,6.39661,29.3308,0.269326,0.322088,0.189374,1.39394,1.57652,1.60791,0.0219214,0.39084,-0.0311607,0.613177,3.8402,16.9962,53.1444,323.19
713,69.6922,4.24785,5.17748,26.8487,0.482007,0.139803,0.166587,2.1963,1.57652,-0.0207027,0.884164,0.765793,0.534526,1.11132,4.79872,17.0169,40.2766,324.318
739,65.1124,2.60722,3.99638,25.2681,0.0566461,-0.0272912,-0.0688749,0.591573,0.67783,-0.0207027,-1.70256,0.39084,0.110261,0.945271,3.8402,16.7885,53.3607,325.453
765,64.4029,3.07237,4.92091,24.2151,0.314901,1.38541,0.295711,2.1963,0.67783,0.793602,0.884164,0.0158878,0.110261,0.613177,2.88169,16.7885,67.1915,327.226
791,63.2507,3.42836,5.42996,23.8858,0.535177,0.230945,0.394453,2.1963,0.67783,0.793602,1.74641,0.39084,0.251683,0.779224,4.79872,16.6432,54.2283,328.824
817,60.6289,2.52086,3.98659,22.4203,0.679495,0.352468,0.569151,0.591573,0.67783,0.793602,1.74641,-0.359065,0.110261,0.613177,2.88169,16.477,38.6382,330.014
843,63.8891,2.79457,4.98769,21.7058,0.747857,1.93227,0.174183,0.591573,-0.220866,-0.835007,0.884164,0.39084,-0.0311607,0.779224,4.79872,16.477,40.4628,331.003
869,59.4819,1.65736,4.15683,21.0344,0.656708,0.253731,0.356476,1.39394,0.67783,-0.0207027,1.74641,0.39084,0.110261,0.447131,3.8402,16.2901,48.8444,332.107
895,57.5962,1.47163,2.78416,19.6736,0.482007,0.215755,0.166587,1.39394,1.57652,-0.0207027,0.884164,0.39084,0.251683,0.779224,3.8402,16.2901,58.885,333.62
921,48.7505,1.77222,2.319,19.0221,0.474411,1.02844,0.607129,1.39394,1.57652,-0.0207027,1.74641,0.39084,0.110261,0.613177,0.964651,16.1448,63.7892,335.272
947,54.2978,0.25803,2.68069,19.305,0.125008,0.481586,0.234947,2.1963,-0.220866,-0.0207027,0.0219214,0.39084,0.251683,0.779224,2.88169,16.124,38.7287,336.628
973,56.2829,0.296307,1.26406,17.2898,0.208561,0.306897,0.424836,-1.01315,0.67783,-0.835007,0.0219214,0.0158878,0.110261,0.613177,2.88169,15.9994,26.4673,337.364
999,45.6349,0.673397,0.760676,16.4087,0.178178,-0.0348864,0.113418,2.1963,1.57652,2.42221,1.74641,0.39084,0.110261,0.779224,2.88169,15.9786,30.6429,338.085
1025,44.3083,-0.350145,0.963482,16.5342,0.428837,0.299302,0.0298672,0.591573,0.67783,0.793602,-0.840321,0.0158878,-0.0311607,0.613177,2.88169,15.854,36.9965,338.96
1051,41.3266,1.11158,1.04575,16.8064,0.223752,0.451206,0.1438,0.591573,-0.220866,0.793602,0.0219214,0.0158878,0.110261,0.779224,3.8402,15.771,62.2668,340.306
1077,47.2177,0.192869,0.356681,16.121,-0.0269069,-0.0424816,-0.015706,1.39394,-0.220866,-0.0207027,1.74641,-0.359065,0.251683,0.613177,3.8402,15.8125,47.453,341.694
1103,42.0354,-1.07607,-0.372151,15.321,-0.0117154,-0.0728623,0.00708059,1.39394,-0.220866,-0.835007,-0.840321,0.39084,0.110261,0.779224,3.8402,15.6671,25.7131,342.585
1129,39.6363,-1.46186,-0.911154,14.6348,0.0794332,-0.0121008,1.04767,2.1963,0.67783,0.793602,0.884164,0.0158878,0.251683,0.779224,2.88169,15.6464,31.1762,343.265
1155,38.6762,-1.49472,0.209264,15.479,0.307305,0.276516,0.128609,0.591573,-0.220866,-0.0207027,0.0219214,0.0158878,-0.0311607,0.447131,2.88169,15.6464,63.4028,344.388
1181,45.1538,0.0568527,0.833136,15.2236,0.390858,0.519562,0.272925,-1.01315,-0.220866,-0.0207027,0.884164,0.0158878,0.110261,0.613177,4.79872,15.4595,62.3323,345.998
1207,37.5434,-0.0581851,0.833136,15.6809,0.140199,0.337278,0.257734,1.39394,-0.220866,-0.0207027,0.884164,0.0158878,-0.0311607,1.11132,3.8402,15.4803,35.6568,347.19
1233,36.0803,-1.10889,-0.212616,15.2885,0.489602,0.253731,0.128609,1.39394,-0.220866,-0.0207027,0.0219214,0.39084,0.110261,0.447131,3.8402,15.2934,35.2931,347.984
1259,40.617,-1.52184,-0.816897,14.4993,0.087029,0.117017,0.151396,1.39394,0.67783,-0.835007,0.0219214,0.39084,0.110261,0.613177,1.92317,15.3141,47.4736,349.032
1285,36.8178,0.154593,0.0504606,14.8636,0.519985,0.770204,0.128609,-0.21079,-0.220866,0.793602,0.884164,0.0158878,0.110261,0.613177,4.79872,11.6593,52.9474,350.421
1311,36.8504,-0.981764,-0.662844,14.4231,0.231348,0.519562,0.637511,0.591573,-0.220866,0.793602,0.0219214,0.39084,0.110261,0.613177,2.88169,15.1688,71.9691,352.023
1337,41.1266,-0.717814,0.712595,14.3793,0.147795,0.0942318,0.174183,0.591573,-0.220866,-0.0207027,-0.840321,0.39084,0.110261,0.779224,2.88169,15.1272,57.2361,353.723
1363,40.8351,0.0511578,1.05714,15.0274,0.193369,0.352468,0.341285,0.591573,0.67783,-0.0207027,0.884164,-0.359065,-0.0311607,0.779224,2.88169,14.9611,54.1757,355.287
1389,38.5221,-0.44265,0.412046,14.5375,0.200965,0.132208,-0.0916615,-0.21079,-0.220866,-0.0207027,0.884164,0.765793,-0.0311607,0.945271,2.88169,14.9611,61.2361,356.728
1415,39.9602,-1.05886,0.0292699,14.69,0.413645,-0.00450562,0.00708059,2.1963,-0.220866,0.793602,0.0219214,-0.359065,0.251683,0.945271,2.88169,14.878,60.9941,358.443
1441,35.7711,-0.800573,0.515494,14.8693,-0.0117154,0.192969,0.4856,0.591573,0.67783,-0.0207027,0.0219214,0.0158878,0.110261,0.779224,2.88169,14.795,37.9,359.854
1467,30.2458,-0.712084,-0.124305,15.1093,0.474411,0.717037,0.0754405,0.591573,-0.220866,0.793602,-0.840321,-0.359065,0.110261,0.613177,3.8402,14.8157,50.8484,360.931
1484,34.0221,-2.84287,-0.0147538,14.6843,0.140199,0.534753,0.00708059,0.591573,-1.11956,-0.835007,0.884164,0.0158878,-0.172583,0.779224,3.8402,14.795,0.0,360.997