File: 01_Data/Camelback_Sofa/Furniture_Calorimeter/Camelback_Sofa_R2.csv
Time (s),Convective HRR,TCPlume1,TCPlume2,TCPlume3,DPPlume1,DPPlume2,DPPlume3,HF1,HF2,HF3,HF4,HF5,HF6,RAD2,RAD1,Load Cell,Heat Release Rate,Total Heat Released
-120,0.0,-4.86408,-5.00916,7.65417,-0.0171063,-0.0862277,-0.0100848,-0.256217,-1.02708,-0.773247,0.927454,0.0693189,-0.175886,0.613177,2.88169,38.1984,0.0,0.0
-95,0.0,-6.20177,-5.60556,8.06368,-0.00191489,0.0125097,-0.0100848,-0.256217,-0.128385,-1.58755,-0.797031,0.444271,0.248379,0.779224,2.88169,38.2399,0.0,0.0
-70,0.0,-5.59471,-5.27202,7.89353,0.028468,0.0201049,0.0127018,0.546147,-0.128385,0.0410574,0.927454,0.0693189,-0.0344641,0.613177,3.8402,38.2607,0.0,0.0
-45,0.0,-4.93785,-5.12192,7.50517,-0.0626807,0.0201049,0.172208,0.546147,-0.128385,-0.773247,-0.797031,0.0693189,0.106958,0.447131,2.88169,38.0115,0.0,0.0
-20,0.0,-5.95172,-5.5898,7.77304,0.028468,0.0808664,-0.0480626,-0.256217,-0.128385,0.0410574,0.927454,0.0693189,0.248379,0.613177,2.88169,38.1984,0.0,0.0
5,0.0,-5.99657,-5.5566,7.69081,0.0664466,0.00491453,-0.0784448,1.34851,-0.128385,-0.773247,-0.797031,-0.305633,0.106958,0.447131,3.8402,38.2607,0.0,0.0
30,0.0,-5.90274,-5.77493,7.40012,0.0360637,-0.0938229,-0.0708492,-0.256217,0.77031,0.0410574,-0.797031,-0.305633,0.106958,0.779224,2.88169,38.2191,0.0,0.0
55,0.0,-4.53277,-5.45703,8.05634,-0.00951061,-0.0786325,-0.040467,-0.256217,-0.128385,-0.773247,0.0652116,0.444271,0.106958,0.613177,3.8402,38.2399,24.7763,0.116505
80,17.2473,-4.50545,-4.76721,8.7718,0.0664466,0.0504857,0.0202973,0.546147,0.77031,0.0410574,1.7897,0.444271,0.248379,0.779224,3.8402,38.0738,76.9441,1.53129
105,47.7261,-0.183271,-1.86862,10.5957,0.332297,0.240365,0.0202973,2.95324,1.66901,2.48397,0.927454,0.444271,0.389801,0.779224,4.79872,38.0738,149.894,4.56195
130,99.831,4.98006,-0.332056,13.8357,1.33493,-0.116608,0.0582751,6.16269,2.5677,4.11258,1.7897,1.56913,0.955488,1.27736,5.75724,37.7,320.281,10.4347
155,196.341,12.119,2.95032,18.1664,0.165191,0.0201049,0.0127018,8.56978,4.36509,4.11258,4.37643,1.94408,1.37975,1.44341,7.67427,37.2016,436.983,19.1824
180,258.85,18.057,8.0735,22.7911,4.27448,0.40746,0.377288,10.9769,7.06118,6.55549,5.23867,3.06894,1.6626,2.60574,9.5913,36.7447,526.402,31.451
205,346.853,45.5441,31.1476,37.6497,1.04629,6.25576,0.415266,16.5934,9.75726,10.627,6.10091,3.81884,2.51113,2.93783,13.4254,35.8518,763.63,48.7626
230,511.765,68.6459,60.8742,59.2467,1.95019,5.26079,1.47105,25.4194,13.352,13.0699,7.8254,5.6936,3.78392,4.10016,20.135,34.8966,1015.59,71.6469
255,801.954,114.332,123.705,123.714,4.28207,4.49367,5.89165,31.036,16.0481,15.5128,11.2744,7.19341,4.77388,5.26249,25.8861,33.4014,1274.47,100.617
280,782.868,146.981,171.057,193.15,4.73782,6.0203,4.72954,39.0596,15.1494,16.3271,12.9989,9.44313,5.76383,6.42481,32.5957,31.7401,1442.31,135.116
305,847.843,142.569,164.59,215.993,4.31246,5.43547,7.54748,41.4667,17.8455,17.9558,15.5856,10.9429,7.88516,7.75319,39.3053,29.7258,1390.62,170.934
330,862.226,135.335,160.904,222.91,4.4112,8.63305,7.99562,34.2454,12.4534,16.3271,12.1366,9.06818,6.75378,6.59086,34.5127,28.0645,1462.35,205.994
355,880.035,134.363,164.754,229.396,3.78076,9.60523,3.53703,31.8383,11.5547,12.2556,11.2744,8.31827,6.18809,5.76063,30.6787,26.424,1364.53,238.852
380,778.299,105.322,133.079,200.861,4.44918,2.93666,3.57501,16.5934,7.06118,6.55549,7.8254,4.9437,3.6425,3.76807,18.218,24.9911,722.929,264.749
405,536.995,71.44,92.7363,165.57,5.39864,5.82283,4.14468,10.1745,5.26379,4.92688,3.51418,3.06894,1.80402,2.1076,11.5083,23.9321,464.663,279.164
430,368.749,51.8912,66.9152,136.091,1.50204,3.22527,1.63055,6.96505,3.4664,2.48397,3.51418,2.69399,1.23833,1.60946,8.63279,23.4752,314.604,288.395
455,315.698,40.678,54.2133,114.776,2.2844,1.79738,0.141826,5.36033,1.66901,1.66967,3.51418,1.56913,1.09691,1.27736,6.71575,22.7484,260.353,296.288
480,241.242,31.4136,45.0878,99.8556,2.1021,0.703672,3.54463,3.7556,1.66901,1.66967,2.65194,1.56913,0.672645,1.11132,7.67427,22.4369,209.809,302.262
505,176.243,25.9264,35.3731,85.9544,1.08427,0.620125,1.74449,3.7556,0.77031,1.66967,1.7897,0.819224,0.531223,0.945271,4.79872,22.0839,178.619,306.989
530,173.373,21.8086,30.3896,74.5505,1.12225,0.506197,0.415266,2.95324,0.77031,0.855362,2.65194,1.56913,0.248379,0.945271,5.75724,21.7931,155.272,311.64
555,138.069,19.0614,25.4371,65.1434,1.2134,0.468221,0.54439,1.34851,-1.02708,0.0410574,0.0652116,0.819224,0.389801,0.945271,3.8402,21.5024,144.562,315.07
580,119.096,14.3593,19.887,56.8489,0.476616,0.278341,0.643132,2.15087,-1.02708,0.855362,0.0652116,1.19418,0.248379,0.945271,1.92317,21.2948,100.576,317.802
605,117.755,11.6179,17.0802,50.3219,0.385467,0.316317,0.377288,1.34851,-0.128385,0.855362,1.7897,0.444271,0.389801,0.945271,3.8402,21.2117,103.464,320.541
630,103.109,10.8158,15.2527,45.9885,0.651317,0.726458,0.308928,2.15087,0.77031,0.855362,0.0652116,0.444271,0.248379,0.779224,2.88169,20.9833,128.92,323.461
655,107.249,11.1823,15.4277,43.2254,1.06908,0.582149,0.103848,-0.256217,-0.128385,1.66967,0.927454,0.819224,0.248379,0.613177,2.88169,20.7964,116.44,326.555
680,87.1634,9.61002,12.6767,38.6754,0.41585,0.164414,0.47603,2.15087,-0.128385,1.66967,0.0652116,0.819224,0.248379,0.945271,3.8402,20.6302,119.74,329.477
705,93.2965,8.3214,10.8934,35.547,0.41585,0.855576,0.308928,0.546147,0.77031,0.0410574,1.7897,0.444271,0.389801,0.779224,4.79872,20.298,99.4852,332.104
730,80.7238,8.25061,11.7776,33.9044,1.11466,0.734053,0.863403,1.34851,0.77031,0.855362,0.927454,0.444271,0.248379,0.945271,4.79872,20.2772,72.6957,334.149
755,81.587,7.77044,9.04346,31.0684,0.355084,0.863171,-0.040467,1.34851,0.77031,1.66967,1.7897,0.444271,0.531223,0.945271,1.92317,20.0903,96.4254,336.08
780,90.4423,6.93445,7.63405,28.8164,0.985529,0.908742,0.529199,1.34851,-0.128385,0.855362,0.0652116,0.819224,-0.0344641,0.613177,3.8402,19.945,81.6319,338.235
805,71.5504,7.24055,8.16958,27.7611,1.0387,0.521387,0.703896,2.15087,0.77031,0.855362,1.7897,0.0693189,0.248379,0.613177,3.8402,19.8204,93.096,340.439
830,72.9431,6.75452,7.45415,26.6784,0.46902,0.604934,1.01531,-0.256217,-0.128385,-0.773247,0.0652116,0.444271,0.389801,0.613177,5.75724,19.6127,69.5209,342.515
855,80.0833,6.60146,6.80369,25.5455,0.590552,1.31129,0.551986,1.34851,-0.128385,0.855362,0.0652116,0.0693189,0.248379,0.945271,2.88169,19.6335,62.213,344.091
880,70.1578,6.45977,7.3125,24.9142,0.552573,0.847981,0.232973,0.546147,1.66901,0.855362,1.7897,0.444271,-0.0344641,0.779224,3.8402,19.4881,45.6612,345.472
905,60.0694,5.055,5.83142,23.4122,0.377871,0.650506,0.179804,2.15087,-0.128385,1.66967,0.927454,0.444271,0.248379,0.779224,3.8402,19.2597,60.1081,346.799
930,59.2236,5.13156,5.06585,21.442,0.248744,0.209985,0.043084,1.34851,0.77031,1.66967,0.0652116,-0.305633,-0.0344641,0.779224,4.79872,19.1143,62.7871,348.347
955,61.4995,4.52475,4.65044,21.22,0.476616,0.339103,0.688705,1.34851,-1.92578,0.0410574,0.927454,0.0693189,0.248379,0.613177,3.8402,18.9897,71.9554,349.822
980,56.9642,2.22756,4.727,20.9166,0.62853,0.794814,0.40767,1.34851,0.77031,0.0410574,0.927454,0.444271,0.248379,0.613177,3.8402,18.9897,64.6845,351.193
1005,58.8812,4.10362,5.14811,19.6259,0.339893,0.247961,0.27095,0.546147,0.77031,0.0410574,0.927454,0.0693189,0.248379,0.613177,2.88169,18.8028,66.249,352.971
1030,64.4393,3.85271,4.20811,19.6428,0.286723,0.597339,0.0506795,2.15087,-1.02708,0.855362,0.0652116,0.0693189,0.248379,0.779224,2.88169,18.6367,62.7895,354.552
1055,57.5682,2.95502,4.34416,19.5879,0.643722,0.453031,0.134231,-1.05858,-0.128385,2.48397,-0.797031,0.444271,0.106958,0.613177,3.8402,18.6159,58.0813,356.221
1080,50.1799,2.09672,3.39029,18.4413,0.188317,0.212049,0.4795,0.612634,1.7762,1.77624,-0.136506,0.441377,-0.0539189,0.551839,3.25807,18.4491,37.0636,357.381
1105,51.0218,-0.0908908,3.48065,18.883,0.301914,0.415055,0.111444,0.546147,-0.128385,0.0410574,0.0652116,1.19418,0.248379,0.779224,3.8402,18.3252,35.5402,358.323
1130,52.0837,2.43608,3.02119,17.9325,0.385467,0.0884616,0.521603,0.546147,1.66901,-0.773247,0.0652116,0.0693189,0.106958,0.779224,4.79872,18.2837,40.438,359.332
1155,46.8718,2.16238,3.16864,17.9649,0.119617,-0.0482518,0.0127018,1.34851,-0.128385,0.855362,-0.797031,0.0693189,-0.175886,0.779224,3.8402,18.1175,58.0137,360.591
1180,52.103,2.88984,3.3218,17.7366,0.248744,-0.0786325,0.0886572,1.34851,0.77031,0.0410574,2.65194,0.0693189,0.248379,0.613177,4.79872,16.124,55.7028,361.903
1205,50.15,1.89437,3.24522,17.4323,0.271531,0.969504,0.40767,0.546147,0.77031,0.855362,0.927454,0.0693189,0.106958,0.613177,2.88169,17.7853,28.2708,363.037
1230,40.4622,1.5441,2.74177,17.1603,0.241148,0.0125097,0.210186,2.15087,0.77031,1.66967,0.0652116,0.0693189,0.106958,0.945271,4.79872,17.6399,29.2166,363.777
1255,46.6403,1.67035,2.48514,17.0193,0.25634,0.597339,0.240568,0.546147,-0.128385,0.0410574,-0.797031,-0.305633,0.248379,0.779224,4.79872,17.4115,23.0447,364.505
1280,40.5549,0.849307,2.81265,17.0024,0.613339,0.415055,0.111444,2.15087,0.77031,0.0410574,0.0652116,-0.305633,0.106958,0.945271,1.92317,17.453,23.54,365.077
1305,38.8384,0.975544,2.32629,16.4046,0.491807,0.293532,0.643132,1.34851,-0.128385,0.0410574,0.927454,0.444271,0.106958,0.613177,3.8402,17.4738,16.5934,365.558
1330,34.4752,0.324786,2.01999,16.3284,0.241148,0.194794,0.40767,1.34851,-0.128385,0.0410574,-0.797031,-0.305633,0.248379,0.613177,2.88169,17.3284,5.45773,365.948
1355,31.4332,0.504786,1.20458,15.86,0.127212,0.126438,0.0962528,-0.256217,0.77031,-0.773247,0.0652116,0.444271,0.248379,0.613177,2.88169,17.3077,0.0,365.959
1380,28.3212,0.20426,1.05714,16.0562,0.157595,0.187199,0.043084,0.546147,-0.128385,0.855362,0.927454,0.0693189,0.106958,0.447131,0.964651,17.3077,14.5432,366.048
1405,31.5496,0.466507,0.706899,15.7077,0.46902,0.42265,0.232973,1.34851,-1.02708,0.0410574,0.927454,0.444271,0.106958,0.779224,3.8402,17.3284,10.0803,366.417
1430,33.058,-0.613765,0.586359,15.4353,0.332297,0.83279,0.529199,0.546147,-1.02708,0.855362,0.927454,0.444271,0.106958,0.447131,2.88169,17.1623,0.0,366.514
1455,31.4896,-0.0369162,0.39496,15.1304,-0.00951061,0.0580809,0.149422,1.34851,0.77031,1.66967,0.0652116,0.444271,-0.0344641,0.779224,1.92317,17.1623,4.67187,366.559
1480,24.0373,-1.11463,-0.14146,14.7111,0.157595,0.172009,0.696301,-1.05858,-1.92578,-0.773247,0.927454,0.819224,0.106958,0.613177,4.79872,16.9962,0.0,366.664
1485,23.74,-1.11463,0.0504606,15.0542,0.142404,0.134033,0.0582751,1.34851,0.77031,0.855362,-0.797031,0.444271,0.248379,0.779224,4.79872,16.9546,0.0,366.664