File: 01_Data/Rebond_Foam_Carpet_Pad/Cone/Rebond_Foam_Carpet_Pad_HRRPUA_50.csv
Time after Ignition,Rebond_Foam_Carpet_Pad_R1,Rebond_Foam_Carpet_Pad_R2,Rebond_Foam_Carpet_Pad_R3,Mean,Std. Dev.
0.0,64.7,57.1,18.8,46.9,24.6
0.25,71.1,62.2,22.2,51.8,26.0
0.5,79.3,73.4,25.2,59.3,29.6
0.75,87.0,82.5,36.9,68.8,27.7
1.0,96.6,94.5,47.5,79.5,27.8
1.25,103.0,99.3,55.7,86.0,26.3
1.5,114.2,112.4,63.8,96.8,28.6
1.75,121.2,122.1,79.9,107.7,24.1
2.0,130.5,132.8,92.1,118.5,22.9
2.25,138.5,138.6,105.9,127.7,18.9
2.5,144.5,147.4,117.6,136.5,16.4
2.75,153.9,164.1,130.1,149.4,17.5
3.0,168.6,177.9,142.1,162.9,18.6
3.25,170.1,188.2,155.3,171.2,16.5
3.5,178.9,199.9,164.5,181.1,17.8
3.75,185.9,225.4,174.3,195.2,26.8
4.0,193.3,237.8,185.5,205.6,28.2
4.25,201.9,235.0,199.0,212.0,20.0
4.5,207.3,247.4,211.6,222.1,22.0
4.75,212.8,254.6,217.3,228.2,22.9
5.0,223.5,260.1,225.1,236.2,20.7
5.25,232.7,276.5,229.8,246.3,26.1
5.5,236.5,285.7,243.4,255.2,26.6
5.75,246.3,295.7,244.9,262.3,28.9
6.0,247.0,296.7,251.9,265.2,27.4
6.25,248.4,305.8,262.2,272.1,30.0
6.5,257.9,314.0,268.8,280.2,29.8
6.75,256.0,324.5,275.5,285.4,35.3
7.0,268.1,325.7,282.8,292.2,29.9
7.25,274.1,332.4,285.2,297.3,30.9
7.5,273.6,340.6,292.0,302.1,34.6
7.75,284.9,334.2,295.8,305.0,25.9
8.0,289.6,342.4,302.5,311.5,27.5
8.25,288.1,343.3,304.1,311.8,28.4
8.5,289.4,351.6,311.4,317.5,31.5
8.75,298.5,355.0,323.1,325.6,28.3
9.0,300.0,360.8,328.2,329.7,30.4
9.25,302.0,358.2,328.2,329.5,28.1
9.5,305.0,359.0,338.7,334.2,27.3
9.75,316.3,373.2,354.0,347.8,28.9
10.0,313.8,371.0,340.3,341.7,28.6
10.25,311.4,363.8,356.9,344.0,28.5
10.5,311.8,367.4,359.6,346.3,30.1
10.75,320.6,388.0,372.0,360.2,35.2
11.0,322.7,380.1,370.4,357.7,30.7
11.25,325.5,394.4,380.4,366.8,36.4
11.5,317.7,389.8,377.5,361.7,38.5
11.75,324.8,391.8,386.3,367.6,37.1
12.0,328.0,392.8,399.4,373.4,39.5
12.25,327.8,398.1,390.0,372.0,38.4
12.5,329.4,403.9,394.4,375.9,40.6
12.75,333.4,414.2,411.1,386.2,45.8
13.0,335.4,406.8,419.9,387.4,45.5
13.25,340.0,426.9,437.1,401.3,53.3
13.5,343.9,417.6,441.0,400.9,50.7
13.75,352.1,426.1,449.4,409.2,50.8
14.0,353.7,439.0,464.6,419.1,58.1
14.25,363.5,453.3,484.8,433.9,62.9
14.5,365.1,462.5,501.2,442.9,70.1
14.75,366.8,474.0,489.3,443.4,66.7
15.0,368.3,483.3,526.9,459.5,82.0
15.25,371.3,497.4,546.8,471.8,90.5
15.5,367.3,494.2,584.9,482.1,109.3
15.75,369.4,545.5,557.1,490.7,105.2
16.0,386.6,516.4,592.7,498.6,104.2
16.25,373.4,533.3,633.5,513.4,131.2
16.5,391.2,544.8,651.1,529.0,130.6
16.75,394.7,584.8,670.8,550.1,141.3
17.0,397.2,645.6,663.5,568.7,148.9
17.25,409.5,625.9,728.0,587.8,162.6
17.5,412.7,633.6,716.5,587.6,157.0
17.75,412.2,671.0,749.9,611.0,176.6
18.0,433.2,691.1,750.8,625.0,168.8
18.25,439.7,731.8,785.6,652.4,186.1
18.5,461.2,723.3,761.8,648.8,163.6
18.75,462.4,777.3,870.1,703.2,213.7
19.0,472.1,725.8,834.1,677.3,185.8
19.25,485.4,776.6,813.0,691.6,179.6
19.5,508.4,828.7,826.3,721.1,184.2
19.75,526.5,845.0,931.9,767.8,213.4
20.0,533.6,829.2,854.5,739.1,178.4
20.25,553.4,842.6,847.5,747.8,168.4
20.5,588.3,842.9,928.5,786.6,176.9
20.75,622.8,874.0,938.2,811.7,166.7
21.0,647.6,821.5,956.3,808.5,154.8
21.25,633.1,922.4,950.3,835.3,175.6
21.5,641.6,952.7,967.6,853.9,184.1
21.75,668.2,1011.0,1019.7,899.7,200.5
22.0,703.9,905.9,1009.9,873.2,155.6
22.25,700.4,1013.4,1188.9,967.6,247.4
22.5,719.0,995.2,1127.8,947.3,208.6
22.75,722.7,1048.0,1083.0,951.2,198.7
23.0,774.6,1082.3,1102.9,986.6,183.9
23.25,789.0,1054.3,1085.4,976.2,162.9
23.5,854.1,1137.2,1086.9,1026.1,151.0
23.75,831.9,1102.0,1132.6,1022.2,165.5
24.0,822.9,1093.8,1201.7,1039.5,195.2
24.25,874.4,1096.6,1193.8,1054.9,163.7
24.5,838.0,1083.7,1210.4,1044.0,189.4
24.75,887.3,1237.5,1193.1,1106.0,190.7
25.0,917.1,1077.3,1222.7,1072.4,152.8
25.25,937.5,1217.5,1144.3,1099.8,145.2
25.5,942.7,1191.2,1195.3,1109.8,144.7
25.75,972.0,1215.7,1189.3,1125.7,133.8
26.0,996.8,1315.1,1274.8,1195.6,173.3
26.25,933.6,1271.2,1197.7,1134.1,177.5
26.5,991.8,1178.3,1236.0,1135.4,127.6
26.75,992.7,1206.3,1161.5,1120.1,112.6
27.0,988.1,1209.5,1165.9,1121.2,117.3
27.25,982.0,1275.0,1190.4,1149.1,150.8
27.5,1043.9,1193.3,1168.6,1135.3,80.1
27.75,1033.1,1175.2,1159.5,1122.6,77.9
28.0,1083.3,1227.6,1168.5,1159.8,72.5
28.25,1120.8,1240.0,1163.7,1174.8,60.4
28.5,1073.1,1144.5,1145.6,1121.1,41.5
28.75,1116.0,1259.1,1122.9,1166.0,80.7
29.0,1060.8,1213.2,1073.7,1115.9,84.5
29.25,1117.5,1256.8,1024.9,1133.1,116.8
29.5,1097.9,1261.4,1009.4,1122.9,127.9
29.75,1084.5,1161.5,974.5,1073.5,94.0
30.0,1118.1,1222.2,945.6,1095.3,139.7
30.25,1089.5,1187.6,918.9,1065.3,136.0
30.5,1097.5,1157.1,906.2,1053.6,131.1
30.75,1087.2,1158.8,880.0,1042.0,144.8
31.0,1052.4,1146.4,841.3,1013.3,156.3
31.25,1094.7,1130.7,794.7,1006.7,184.5
31.5,1111.4,1092.9,769.4,991.2,192.3
31.75,1042.9,1115.3,720.6,959.6,210.1
32.0,1061.5,1062.6,698.4,940.8,209.9
32.25,1039.3,1029.6,662.5,910.4,214.8
32.5,1023.2,1042.4,652.9,906.2,219.5
32.75,981.6,1006.2,621.0,869.6,215.7
33.0,971.6,978.6,573.9,841.4,231.6
33.25,959.6,921.4,547.1,809.4,227.9
33.5,963.7,894.2,533.7,797.2,230.8
33.75,895.4,887.3,508.0,763.6,221.4
34.0,865.7,835.8,479.1,726.8,215.1
34.25,893.1,814.5,451.7,719.7,235.4
34.5,848.1,786.8,430.7,688.5,225.4
34.75,825.9,777.0,413.6,672.2,225.3
35.0,829.4,727.0,389.4,648.6,230.2
35.25,803.4,700.2,363.1,622.2,230.3
35.5,790.4,660.0,350.9,600.4,225.7
35.75,754.6,632.7,330.6,572.6,218.3
36.0,731.5,599.4,307.2,546.0,217.1
36.25,699.6,562.4,283.4,515.1,212.1
36.5,705.2,532.7,267.1,501.7,220.7
36.75,679.9,515.7,253.1,482.9,215.3
37.0,646.6,476.6,236.6,453.3,206.0
37.25,638.2,449.0,219.5,435.6,209.7
37.5,621.0,428.5,204.9,418.1,208.2
37.75,601.5,400.7,193.9,398.7,203.8
38.0,574.3,372.1,183.4,376.6,195.5
38.25,549.4,346.6,172.4,356.1,188.7
38.5,545.4,328.5,162.6,345.5,191.9
38.75,526.0,310.9,152.8,329.9,187.3
39.0,501.3,290.7,142.3,311.4,180.4
39.25,489.5,271.8,135.2,298.9,178.7
39.5,462.0,253.5,125.9,280.5,169.7
39.75,447.3,240.2,120.2,269.2,165.5
40.0,438.1,223.9,113.7,258.5,164.9
40.25,413.0,211.9,106.4,243.8,155.8
40.5,398.8,197.4,100.8,232.3,152.0
40.75,384.0,186.1,96.2,222.1,147.2
41.0,371.3,176.8,90.1,212.7,144.0
41.25,346.9,169.4,85.9,200.8,133.3
41.5,336.1,159.8,81.7,192.5,130.3
41.75,317.7,147.4,78.5,181.2,123.2
42.0,309.4,141.3,75.3,175.3,120.7
42.25,306.0,136.3,71.0,171.1,121.3
42.5,289.6,129.2,68.1,162.3,114.4
42.75,278.8,122.0,65.1,155.3,110.6
43.0,257.5,117.3,63.0,145.9,100.4
43.25,251.0,109.7,60.9,140.5,98.7
43.5,237.1,106.4,59.1,134.2,92.2
43.75,227.1,100.5,58.0,128.5,88.0
44.0,214.7,96.4,55.4,122.2,82.7
44.25,203.4,93.4,56.2,117.6,76.5
44.5,191.0,88.3,54.9,111.4,70.9
44.75,180.7,84.9,53.5,106.3,66.3
45.0,174.9,80.4,52.4,102.6,64.2
45.25,164.4,78.0,50.9,97.8,59.3
45.5,153.4,75.5,49.3,92.7,54.1
45.75,145.9,72.4,48.5,88.9,50.8
46.0,138.7,67.6,47.1,84.4,48.1
46.25,132.6,66.5,45.5,81.5,45.5
46.5,124.9,63.9,44.7,77.8,41.9
46.75,119.8,,43.1,81.4,54.3
47.0,113.8,,42.7,78.3,50.2
47.25,106.9,,41.1,74.0,46.5
47.5,101.6,,41.1,71.4,42.8
47.75,96.7,,39.6,68.1,40.4
48.0,92.2,,38.5,65.4,37.9
48.25,89.2,,37.7,63.5,36.4
48.5,83.8,,36.6,60.2,33.3
48.75,80.5,,36.3,58.4,31.3
49.0,77.0,,34.7,55.9,29.9
49.25,73.5,,34.4,53.9,27.6
49.5,71.0,,,71.0,
49.75,67.8,,,67.8,
50.0,65.7,,,65.7,
50.25,63.3,,,63.3,
50.5,60.7,,,60.7,
50.75,58.3,,,58.3,
51.0,56.7,,,56.7,
51.25,54.5,,,54.5,
51.5,52.4,,,52.4,
51.75,50.7,,,50.7,
52.0,48.8,,,48.8,
52.25,46.8,,,46.8,
52.5,45.3,,,45.3,
52.75,43.7,,,43.7,
53.0,42.6,,,42.6,
53.25,41.2,,,41.2,
53.5,39.4,,,39.4,
53.75,39.1,,,39.1,
54.0,38.0,,,38.0,
54.25,36.5,,,36.5,
54.5,35.6,,,35.6,
54.75,34.5,,,34.5,
55.0,33.8,,,33.8,
55.25,32.6,,,32.6,
55.5,31.3,,,31.3,
55.75,31.0,,,31.0,
56.0,30.2,,,30.2,
56.25,29.6,,,29.6,
56.5,28.9,,,28.9,
56.75,28.3,,,28.3,
57.0,27.7,,,27.7,
57.25,27.3,,,27.3,
57.5,26.8,,,26.8,
57.75,26.6,,,26.6,
58.0,26.2,,,26.2,
58.25,25.2,,,25.2,
58.5,24.5,,,24.5,
58.75,24.4,,,24.4,
59.0,23.9,,,23.9,
59.25,23.4,,,23.4,
59.5,23.3,,,23.3,
59.75,23.0,,,23.0,
60.0,22.6,,,22.6,
60.25,22.0,,,22.0,
60.5,21.9,,,21.9,
60.75,21.1,,,21.1,
61.0,21.1,,,21.1,
61.25,20.5,,,20.5,
61.5,20.1,,,20.1,
61.75,20.2,,,20.2,
62.0,19.7,,,19.7,
62.25,19.3,,,19.3,
62.5,19.3,,,19.3,
62.75,18.9,,,18.9,
63.0,18.7,,,18.7,
63.25,18.4,,,18.4,
63.5,18.2,,,18.2,
63.75,18.1,,,18.1,
64.0,17.9,,,17.9,
64.25,17.9,,,17.9,
64.5,18.1,,,18.1,
64.75,17.9,,,17.9,
65.0,17.6,,,17.6,
65.25,17.4,,,17.4,
65.5,17.2,,,17.2,
65.75,16.7,,,16.7,
66.0,16.3,,,16.3,
66.25,16.3,,,16.3,
66.5,16.2,,,16.2,
66.75,15.6,,,15.6,
67.0,15.4,,,15.4,
67.25,15.1,,,15.1,
67.5,14.8,,,14.8,
67.75,14.7,,,14.7,
68.0,14.5,,,14.5,
68.25,14.4,,,14.4,
68.5,14.1,,,14.1,