File: 01_Data/Gypsum_Wallboard/HFM/Gypsum_Wallboard_Density_Wet_R2.csv
,Lightweight_Gypsum_Wallboard_WET_2
Sample Mass [g],307.4
Sample Volume [cm3],519.8
Sample Density [kg/m3],591