File: 01_Data/Gypsum_Wallboard/HFM/Gypsum_Wallboard_Density_Dry_R2.csv
,Lightweight_Gypsum_Wallboard_DRY_2
Sample Mass [g],256.7
Sample Volume [cm3],519.8
Sample Density [kg/m3],494