File: 01_Data/Gypsum_Wallboard/HFM/Gypsum_Wallboard_Density_Dry_R3.csv
,Lightweight_Gypsum_Wallboard_DRY_3
Sample Mass [g],256.9
Sample Volume [cm3],519.4
Sample Density [kg/m3],495