File: 01_Data/Particleboard/FTIR/IS/Particleboard_IS_S_220927_R6.dpt
7497.03,0.71987
7473.89,0.70949
7450.74,0.70502
7427.6,0.70095
7404.45,0.68595
7381.31,0.68758
7358.16,0.68292
7335.02,0.66593
7311.87,0.66704
7288.73,0.65319
7265.58,0.66710
7242.44,0.65947
7219.29,0.65758
7196.15,0.64772
7173,0.63983
7149.86,0.63888
7126.71,0.62855
7103.57,0.60621
7080.42,0.59757
7057.28,0.57745
7034.13,0.55179
7010.99,0.53750
6987.84,0.52831
6964.7,0.51697
6941.55,0.51024
6918.41,0.50920
6895.26,0.50705
6872.12,0.50067
6848.97,0.49469
6825.83,0.50210
6802.68,0.49278
6779.54,0.48911
6756.39,0.48327
6733.25,0.47528
6710.1,0.47453
6686.96,0.48309
6663.82,0.48768
6640.67,0.48841
6617.53,0.49444
6594.38,0.49705
6571.24,0.49914
6548.09,0.50376
6524.95,0.50563
6501.8,0.51158
6478.66,0.51548
6455.51,0.51569
6432.37,0.52041
6409.22,0.52495
6386.08,0.52247
6362.93,0.52788
6339.79,0.52871
6316.64,0.52789
6293.5,0.53488
6270.35,0.54050
6247.21,0.54545
6224.06,0.54743
6200.92,0.55799
6177.77,0.56531
6154.63,0.57206
6131.48,0.57277
6108.34,0.57542
6085.19,0.57915
6062.05,0.57655
6038.9,0.57430
6015.76,0.56527
5992.61,0.55949
5969.47,0.55456
5946.32,0.55525
5923.18,0.55312
5900.03,0.54928
5876.89,0.54600
5853.74,0.54425
5830.6,0.54025
5807.45,0.53686
5784.31,0.53923
5761.16,0.54134
5738.02,0.54266
5714.87,0.54203
5691.73,0.54386
5668.58,0.54404
5645.44,0.54136
5622.29,0.54347
5599.15,0.54338
5576,0.54478
5552.86,0.54601
5529.71,0.54844
5506.57,0.55006
5483.42,0.55250
5460.28,0.55283
5437.13,0.55822
5413.99,0.56108
5390.84,0.56566
5367.7,0.56630
5344.55,0.56331
5321.41,0.55326
5298.26,0.53271
5275.12,0.50015
5251.97,0.45769
5228.83,0.42653
5205.68,0.41095
5182.54,0.40424
5159.39,0.40570
5136.25,0.40887
5113.1,0.41252
5089.96,0.40548
5066.81,0.40222
5043.67,0.40803
5020.52,0.41652
4997.38,0.42163
4974.23,0.42144
4951.09,0.41031
4927.94,0.39639
4904.8,0.38360
4881.65,0.37252
4858.51,0.36220
4835.36,0.35318
4812.22,0.34609
4789.07,0.34206
4765.93,0.34036
4742.78,0.34011
4719.64,0.33987
4696.49,0.34204
4673.35,0.34431
4650.2,0.34748
4627.06,0.35074
4603.92,0.35738
4580.77,0.36107
4557.63,0.36327
4534.48,0.36607
4511.34,0.36729
4488.19,0.36489
4465.05,0.35090
4441.9,0.33023
4418.76,0.31036
4395.61,0.30203
4372.47,0.30787
4349.32,0.31180
4326.18,0.30790
4303.03,0.30325
4279.89,0.29914
4256.74,0.30356
4233.6,0.30679
4210.45,0.30670
4187.31,0.30751
4164.16,0.30968
4141.02,0.30461
4117.87,0.29338
4094.73,0.27820
4071.58,0.26101
4048.44,0.24473
4025.29,0.23419
4002.15,0.23206
3979,0.23518
3955.86,0.24204
3932.71,0.24949
3909.57,0.25669
3886.42,0.26435
3863.28,0.27172
3840.13,0.28145
3816.99,0.28477
3793.84,0.28461
3770.7,0.28297
3747.55,0.27707
3724.41,0.26483
3701.26,0.24178
3678.12,0.19990
3654.97,0.14459
3631.83,0.10853
3608.68,0.08400
3585.54,0.06655
3562.39,0.05633
3539.25,0.04939
3516.1,0.04382
3492.96,0.04024
3469.81,0.03810
3446.67,0.03765
3423.52,0.03656
3400.38,0.03754
3377.23,0.03798
3354.09,0.03855
3330.94,0.04123
3307.8,0.04295
3284.65,0.04415
3261.51,0.04615
3238.36,0.04870
3215.22,0.05165
3192.07,0.05427
3168.93,0.05773
3145.78,0.06153
3122.64,0.06529
3099.49,0.06881
3076.35,0.07219
3053.2,0.07556
3030.06,0.07819
3006.91,0.07680
2983.77,0.07005
2960.62,0.05871
2937.48,0.05429
2914.33,0.05418
2891.19,0.05734
2868.04,0.06006
2844.9,0.06743
2821.75,0.08261
2798.61,0.09229
2775.46,0.09682
2752.32,0.09938
2729.17,0.10176
2706.03,0.10648
2682.88,0.11217
2659.74,0.11636
2636.59,0.12084
2613.45,0.12543
2590.3,0.12910
2567.16,0.13197
2544.02,0.13337
2520.87,0.13682
2497.73,0.14249
2474.58,0.14829
2451.44,0.15375
2428.29,0.16122
2405.15,0.16957
2382,0.17723
2358.86,0.18320
2335.71,0.18713
2312.57,0.18811
2289.42,0.18630
2266.28,0.18330
2243.13,0.17924
2219.99,0.17700
2196.84,0.17301
2173.7,0.16621
2150.55,0.16225
2127.41,0.16130
2104.26,0.16348
2081.12,0.16417
2057.97,0.16098
2034.83,0.16353
2011.68,0.17028
1988.54,0.17402
1965.39,0.17749
1942.25,0.18241
1919.1,0.18386
1895.96,0.18103
1872.81,0.17849
1849.67,0.17320
1826.52,0.16246
1803.38,0.14375
1780.23,0.11349
1757.09,0.06982
1733.94,0.05181
1710.8,0.05238
1687.65,0.04360
1664.51,0.03888
1641.36,0.04483
1618.22,0.04504
1595.07,0.04582
1571.93,0.05127
1548.78,0.05159
1525.64,0.04970
1502.49,0.04750
1479.35,0.04927
1456.2,0.04365
1433.06,0.04256
1409.91,0.04483
1386.77,0.04175
1363.62,0.04192
1340.48,0.04203
1317.33,0.04131
1294.19,0.04105
1271.04,0.03830
1247.9,0.04091
1224.75,0.04193
1201.61,0.04196
1178.46,0.03656
1155.32,0.03760
1132.17,0.03474
1109.03,0.03677
1085.88,0.03710
1062.74,0.04738
1039.59,0.05219
1016.45,0.05922
993.304,0.06227
970.159,0.07051
947.014,0.07554
923.869,0.07839
900.724,0.06831
877.579,0.07220
854.434,0.07329
831.289,0.07055
808.144,0.06310
784.999,0.06099
761.854,0.05890
738.709,0.05432
715.565,0.04981
692.42,0.04819
669.275,0.04560
646.13,0.04481
622.985,0.04473
599.84,0.04714