File: 01_Data/Particleboard/FTIR/IS/Particleboard_IS_S_220927_R5.dpt
7497.03,0.71413
7473.89,0.71734
7450.74,0.70210
7427.6,0.69189
7404.45,0.68454
7381.31,0.68414
7358.16,0.67949
7335.02,0.67186
7311.87,0.66259
7288.73,0.66182
7265.58,0.66200
7242.44,0.65937
7219.29,0.65205
7196.15,0.65068
7173,0.64289
7149.86,0.63437
7126.71,0.62038
7103.57,0.60227
7080.42,0.59404
7057.28,0.57538
7034.13,0.55513
7010.99,0.53920
6987.84,0.52381
6964.7,0.51020
6941.55,0.51290
6918.41,0.50897
6895.26,0.50049
6872.12,0.50102
6848.97,0.49856
6825.83,0.49416
6802.68,0.48803
6779.54,0.49153
6756.39,0.48224
6733.25,0.47880
6710.1,0.47587
6686.96,0.48163
6663.82,0.48621
6640.67,0.48511
6617.53,0.49222
6594.38,0.49482
6571.24,0.50167
6548.09,0.50468
6524.95,0.51200
6501.8,0.51399
6478.66,0.51482
6455.51,0.52044
6432.37,0.51980
6409.22,0.51696
6386.08,0.52686
6362.93,0.52747
6339.79,0.52331
6316.64,0.52668
6293.5,0.53228
6270.35,0.53661
6247.21,0.54210
6224.06,0.54939
6200.92,0.55614
6177.77,0.56269
6154.63,0.57085
6131.48,0.57141
6108.34,0.57789
6085.19,0.57788
6062.05,0.57437
6038.9,0.57177
6015.76,0.56558
5992.61,0.55829
5969.47,0.55228
5946.32,0.55383
5923.18,0.55436
5900.03,0.54895
5876.89,0.54351
5853.74,0.54304
5830.6,0.53947
5807.45,0.53858
5784.31,0.53609
5761.16,0.53991
5738.02,0.54082
5714.87,0.54178
5691.73,0.54203
5668.58,0.54043
5645.44,0.54236
5622.29,0.54060
5599.15,0.54243
5576,0.54169
5552.86,0.54565
5529.71,0.54676
5506.57,0.55063
5483.42,0.55267
5460.28,0.55400
5437.13,0.55952
5413.99,0.56442
5390.84,0.56438
5367.7,0.56468
5344.55,0.56142
5321.41,0.55275
5298.26,0.53329
5275.12,0.49705
5251.97,0.45647
5228.83,0.42387
5205.68,0.40801
5182.54,0.40358
5159.39,0.40301
5136.25,0.40578
5113.1,0.40820
5089.96,0.40356
5066.81,0.40059
5043.67,0.40584
5020.52,0.41418
4997.38,0.42044
4974.23,0.41884
4951.09,0.40995
4927.94,0.39681
4904.8,0.38468
4881.65,0.37176
4858.51,0.36051
4835.36,0.35208
4812.22,0.34498
4789.07,0.34150
4765.93,0.33936
4742.78,0.33797
4719.64,0.33928
4696.49,0.34055
4673.35,0.34253
4650.2,0.34631
4627.06,0.35090
4603.92,0.35744
4580.77,0.36029
4557.63,0.36246
4534.48,0.36442
4511.34,0.36708
4488.19,0.36422
4465.05,0.34988
4441.9,0.32973
4418.76,0.31007
4395.61,0.30158
4372.47,0.30832
4349.32,0.31185
4326.18,0.30747
4303.03,0.30210
4279.89,0.29907
4256.74,0.30261
4233.6,0.30588
4210.45,0.30594
4187.31,0.30669
4164.16,0.30925
4141.02,0.30363
4117.87,0.29278
4094.73,0.27735
4071.58,0.26044
4048.44,0.24447
4025.29,0.23328
4002.15,0.23211
3979,0.23467
3955.86,0.24134
3932.71,0.24907
3909.57,0.25630
3886.42,0.26396
3863.28,0.27138
3840.13,0.28055
3816.99,0.28373
3793.84,0.28329
3770.7,0.28260
3747.55,0.27614
3724.41,0.26341
3701.26,0.24023
3678.12,0.19880
3654.97,0.14317
3631.83,0.10722
3608.68,0.08328
3585.54,0.06578
3562.39,0.05558
3539.25,0.04869
3516.1,0.04462
3492.96,0.04044
3469.81,0.03842
3446.67,0.03765
3423.52,0.03743
3400.38,0.03772
3377.23,0.03765
3354.09,0.03914
3330.94,0.04071
3307.8,0.04262
3284.65,0.04368
3261.51,0.04621
3238.36,0.04889
3215.22,0.05068
3192.07,0.05420
3168.93,0.05752
3145.78,0.06190
3122.64,0.06561
3099.49,0.06862
3076.35,0.07232
3053.2,0.07570
3030.06,0.07816
3006.91,0.07654
2983.77,0.07021
2960.62,0.05921
2937.48,0.05440
2914.33,0.05412
2891.19,0.05780
2868.04,0.06010
2844.9,0.06732
2821.75,0.08203
2798.61,0.09167
2775.46,0.09679
2752.32,0.09909
2729.17,0.10161
2706.03,0.10661
2682.88,0.11228
2659.74,0.11624
2636.59,0.12062
2613.45,0.12476
2590.3,0.12875
2567.16,0.13189
2544.02,0.13312
2520.87,0.13662
2497.73,0.14224
2474.58,0.14818
2451.44,0.15363
2428.29,0.16089
2405.15,0.16932
2382,0.17737
2358.86,0.18284
2335.71,0.18669
2312.57,0.18760
2289.42,0.18578
2266.28,0.18261
2243.13,0.17886
2219.99,0.17666
2196.84,0.17251
2173.7,0.16603
2150.55,0.16125
2127.41,0.16063
2104.26,0.16316
2081.12,0.16335
2057.97,0.16047
2034.83,0.16335
2011.68,0.16957
1988.54,0.17356
1965.39,0.17715
1942.25,0.18170
1919.1,0.18376
1895.96,0.18058
1872.81,0.17795
1849.67,0.17237
1826.52,0.16182
1803.38,0.14312
1780.23,0.11309
1757.09,0.06968
1733.94,0.05207
1710.8,0.05243
1687.65,0.04377
1664.51,0.03896
1641.36,0.04470
1618.22,0.04493
1595.07,0.04558
1571.93,0.05135
1548.78,0.05173
1525.64,0.04969
1502.49,0.04744
1479.35,0.04909
1456.2,0.04352
1433.06,0.04259
1409.91,0.04517
1386.77,0.04171
1363.62,0.04183
1340.48,0.04195
1317.33,0.04109
1294.19,0.04114
1271.04,0.03778
1247.9,0.04103
1224.75,0.04146
1201.61,0.04209
1178.46,0.03641
1155.32,0.03701
1132.17,0.03477
1109.03,0.03761
1085.88,0.03759
1062.74,0.04803
1039.59,0.05238
1016.45,0.06002
993.304,0.06259
970.159,0.07020
947.014,0.07558
923.869,0.07870
900.724,0.06886
877.579,0.07118
854.434,0.07348
831.289,0.07007
808.144,0.06365
784.999,0.05992
761.854,0.05886
738.709,0.05429
715.565,0.05043
692.42,0.04756
669.275,0.04557
646.13,0.04479
622.985,0.04433
599.84,0.04667