File: 01_Data/Particleboard/FTIR/IS/Particleboard_IS_S_220927_R2.dpt
7497.03,0.71897
7473.89,0.70801
7450.74,0.70682
7427.6,0.69974
7404.45,0.69355
7381.31,0.68417
7358.16,0.67504
7335.02,0.66545
7311.87,0.66503
7288.73,0.65959
7265.58,0.66211
7242.44,0.65348
7219.29,0.65437
7196.15,0.64573
7173,0.64056
7149.86,0.62649
7126.71,0.61565
7103.57,0.60457
7080.42,0.59086
7057.28,0.56941
7034.13,0.55459
7010.99,0.53225
6987.84,0.51938
6964.7,0.51590
6941.55,0.50940
6918.41,0.49669
6895.26,0.50168
6872.12,0.49982
6848.97,0.49563
6825.83,0.49387
6802.68,0.49118
6779.54,0.48272
6756.39,0.48069
6733.25,0.47815
6710.1,0.48079
6686.96,0.47466
6663.82,0.48071
6640.67,0.48116
6617.53,0.48907
6594.38,0.49888
6571.24,0.50469
6548.09,0.51121
6524.95,0.50560
6501.8,0.51028
6478.66,0.51269
6455.51,0.51686
6432.37,0.52256
6409.22,0.52219
6386.08,0.52228
6362.93,0.52331
6339.79,0.52697
6316.64,0.52819
6293.5,0.53055
6270.35,0.53597
6247.21,0.54488
6224.06,0.54774
6200.92,0.55581
6177.77,0.56095
6154.63,0.56703
6131.48,0.57244
6108.34,0.57489
6085.19,0.57716
6062.05,0.57628
6038.9,0.57157
6015.76,0.56223
5992.61,0.55762
5969.47,0.55352
5946.32,0.55504
5923.18,0.55455
5900.03,0.54929
5876.89,0.54581
5853.74,0.54313
5830.6,0.53990
5807.45,0.53799
5784.31,0.53797
5761.16,0.54241
5738.02,0.54328
5714.87,0.54258
5691.73,0.54196
5668.58,0.54106
5645.44,0.54132
5622.29,0.54017
5599.15,0.54138
5576,0.54261
5552.86,0.54625
5529.71,0.54901
5506.57,0.55011
5483.42,0.55077
5460.28,0.55278
5437.13,0.55738
5413.99,0.56426
5390.84,0.56371
5367.7,0.56383
5344.55,0.56100
5321.41,0.54875
5298.26,0.52956
5275.12,0.49149
5251.97,0.44757
5228.83,0.41549
5205.68,0.39778
5182.54,0.39351
5159.39,0.39203
5136.25,0.39816
5113.1,0.40181
5089.96,0.39584
5066.81,0.39534
5043.67,0.40120
5020.52,0.40994
4997.38,0.41605
4974.23,0.41649
4951.09,0.40741
4927.94,0.39451
4904.8,0.38236
4881.65,0.36999
4858.51,0.36152
4835.36,0.35153
4812.22,0.34549
4789.07,0.34067
4765.93,0.33901
4742.78,0.33851
4719.64,0.33858
4696.49,0.34047
4673.35,0.34367
4650.2,0.34695
4627.06,0.35108
4603.92,0.35624
4580.77,0.36090
4557.63,0.36303
4534.48,0.36477
4511.34,0.36752
4488.19,0.36417
4465.05,0.35056
4441.9,0.32879
4418.76,0.31045
4395.61,0.30136
4372.47,0.30814
4349.32,0.31240
4326.18,0.30717
4303.03,0.30181
4279.89,0.29822
4256.74,0.30223
4233.6,0.30665
4210.45,0.30554
4187.31,0.30623
4164.16,0.30856
4141.02,0.30341
4117.87,0.29227
4094.73,0.27666
4071.58,0.25909
4048.44,0.24452
4025.29,0.23307
4002.15,0.23072
3979,0.23444
3955.86,0.23945
3932.71,0.24757
3909.57,0.25555
3886.42,0.26124
3863.28,0.26962
3840.13,0.27820
3816.99,0.28075
3793.84,0.28147
3770.7,0.27901
3747.55,0.27297
3724.41,0.25893
3701.26,0.23542
3678.12,0.19184
3654.97,0.13734
3631.83,0.10153
3608.68,0.07974
3585.54,0.06451
3562.39,0.05483
3539.25,0.04780
3516.1,0.04398
3492.96,0.03987
3469.81,0.03851
3446.67,0.03733
3423.52,0.03681
3400.38,0.03747
3377.23,0.03754
3354.09,0.03865
3330.94,0.04033
3307.8,0.04235
3284.65,0.04398
3261.51,0.04564
3238.36,0.04829
3215.22,0.05131
3192.07,0.05370
3168.93,0.05783
3145.78,0.06062
3122.64,0.06448
3099.49,0.06869
3076.35,0.07137
3053.2,0.07468
3030.06,0.07713
3006.91,0.07609
2983.77,0.07024
2960.62,0.05879
2937.48,0.05402
2914.33,0.05477
2891.19,0.05784
2868.04,0.05992
2844.9,0.06712
2821.75,0.08196
2798.61,0.09145
2775.46,0.09640
2752.32,0.09960
2729.17,0.10187
2706.03,0.10649
2682.88,0.11137
2659.74,0.11598
2636.59,0.12038
2613.45,0.12482
2590.3,0.12890
2567.16,0.13154
2544.02,0.13309
2520.87,0.13641
2497.73,0.14200
2474.58,0.14798
2451.44,0.15331
2428.29,0.16044
2405.15,0.16881
2382,0.17653
2358.86,0.18213
2335.71,0.18564
2312.57,0.18624
2289.42,0.18448
2266.28,0.18109
2243.13,0.17751
2219.99,0.17466
2196.84,0.17095
2173.7,0.16366
2150.55,0.15945
2127.41,0.15886
2104.26,0.16113
2081.12,0.16141
2057.97,0.15836
2034.83,0.16093
2011.68,0.16800
1988.54,0.17179
1965.39,0.17504
1942.25,0.18025
1919.1,0.18192
1895.96,0.17904
1872.81,0.17636
1849.67,0.17099
1826.52,0.16081
1803.38,0.14235
1780.23,0.11330
1757.09,0.07040
1733.94,0.05179
1710.8,0.05247
1687.65,0.04400
1664.51,0.03902
1641.36,0.04434
1618.22,0.04488
1595.07,0.04572
1571.93,0.05134
1548.78,0.05148
1525.64,0.04985
1502.49,0.04750
1479.35,0.04900
1456.2,0.04373
1433.06,0.04269
1409.91,0.04533
1386.77,0.04191
1363.62,0.04205
1340.48,0.04200
1317.33,0.04137
1294.19,0.04113
1271.04,0.03807
1247.9,0.04107
1224.75,0.04204
1201.61,0.04192
1178.46,0.03618
1155.32,0.03776
1132.17,0.03493
1109.03,0.03697
1085.88,0.03737
1062.74,0.04739
1039.59,0.05263
1016.45,0.05989
993.304,0.06284
970.159,0.07019
947.014,0.07553
923.869,0.07810
900.724,0.06772
877.579,0.07156
854.434,0.07189
831.289,0.06903
808.144,0.06213
784.999,0.05980
761.854,0.05756
738.709,0.05410
715.565,0.04902
692.42,0.04717
669.275,0.04511
646.13,0.04496
622.985,0.04513
599.84,0.04621