File: 01_Data/Particleboard/FTIR/IS/Particleboard_IS_S_220927_R1.dpt
7497.03,0.71618
7473.89,0.71804
7450.74,0.70470
7427.6,0.69360
7404.45,0.69350
7381.31,0.67745
7358.16,0.66995
7335.02,0.67030
7311.87,0.66168
7288.73,0.66907
7265.58,0.65567
7242.44,0.65600
7219.29,0.65276
7196.15,0.64689
7173,0.64035
7149.86,0.62750
7126.71,0.61829
7103.57,0.59945
7080.42,0.58345
7057.28,0.56778
7034.13,0.55002
7010.99,0.52953
6987.84,0.52119
6964.7,0.51697
6941.55,0.50637
6918.41,0.50206
6895.26,0.49404
6872.12,0.49372
6848.97,0.49031
6825.83,0.49085
6802.68,0.48921
6779.54,0.47636
6756.39,0.47435
6733.25,0.46972
6710.1,0.47468
6686.96,0.47430
6663.82,0.47985
6640.67,0.48496
6617.53,0.48633
6594.38,0.48844
6571.24,0.49716
6548.09,0.50118
6524.95,0.50520
6501.8,0.50726
6478.66,0.50862
6455.51,0.51441
6432.37,0.51340
6409.22,0.51785
6386.08,0.51469
6362.93,0.52160
6339.79,0.52202
6316.64,0.52248
6293.5,0.53046
6270.35,0.53172
6247.21,0.54112
6224.06,0.54813
6200.92,0.55267
6177.77,0.55892
6154.63,0.56379
6131.48,0.57014
6108.34,0.57071
6085.19,0.57650
6062.05,0.57409
6038.9,0.57098
6015.76,0.56127
5992.61,0.55419
5969.47,0.55089
5946.32,0.55136
5923.18,0.54976
5900.03,0.54396
5876.89,0.54203
5853.74,0.54056
5830.6,0.53712
5807.45,0.53436
5784.31,0.53451
5761.16,0.53871
5738.02,0.53928
5714.87,0.53775
5691.73,0.53829
5668.58,0.53670
5645.44,0.53742
5622.29,0.53630
5599.15,0.54168
5576,0.53936
5552.86,0.54140
5529.71,0.54488
5506.57,0.54523
5483.42,0.54726
5460.28,0.54918
5437.13,0.55561
5413.99,0.55994
5390.84,0.56053
5367.7,0.55914
5344.55,0.55562
5321.41,0.54411
5298.26,0.52213
5275.12,0.48593
5251.97,0.43676
5228.83,0.40573
5205.68,0.38895
5182.54,0.38057
5159.39,0.38443
5136.25,0.38873
5113.1,0.39174
5089.96,0.38882
5066.81,0.38754
5043.67,0.39396
5020.52,0.40388
4997.38,0.41115
4974.23,0.41209
4951.09,0.40215
4927.94,0.39074
4904.8,0.37929
4881.65,0.36721
4858.51,0.35839
4835.36,0.35008
4812.22,0.34246
4789.07,0.33968
4765.93,0.33672
4742.78,0.33581
4719.64,0.33599
4696.49,0.33870
4673.35,0.34058
4650.2,0.34285
4627.06,0.34740
4603.92,0.35369
4580.77,0.35746
4557.63,0.35921
4534.48,0.36231
4511.34,0.36486
4488.19,0.36074
4465.05,0.34780
4441.9,0.32755
4418.76,0.30786
4395.61,0.29978
4372.47,0.30633
4349.32,0.30889
4326.18,0.30500
4303.03,0.30093
4279.89,0.29668
4256.74,0.30032
4233.6,0.30360
4210.45,0.30261
4187.31,0.30409
4164.16,0.30578
4141.02,0.30012
4117.87,0.28908
4094.73,0.27280
4071.58,0.25683
4048.44,0.24083
4025.29,0.23076
4002.15,0.22856
3979,0.23183
3955.86,0.23711
3932.71,0.24493
3909.57,0.25121
3886.42,0.25891
3863.28,0.26632
3840.13,0.27436
3816.99,0.27700
3793.84,0.27664
3770.7,0.27423
3747.55,0.26689
3724.41,0.25254
3701.26,0.22833
3678.12,0.18489
3654.97,0.13046
3631.83,0.09675
3608.68,0.07578
3585.54,0.06242
3562.39,0.05273
3539.25,0.04744
3516.1,0.04312
3492.96,0.04004
3469.81,0.03813
3446.67,0.03754
3423.52,0.03680
3400.38,0.03708
3377.23,0.03745
3354.09,0.03773
3330.94,0.04102
3307.8,0.04205
3284.65,0.04316
3261.51,0.04517
3238.36,0.04780
3215.22,0.05026
3192.07,0.05302
3168.93,0.05574
3145.78,0.06005
3122.64,0.06387
3099.49,0.06670
3076.35,0.06964
3053.2,0.07400
3030.06,0.07566
3006.91,0.07523
2983.77,0.06939
2960.62,0.05861
2937.48,0.05360
2914.33,0.05492
2891.19,0.05706
2868.04,0.06006
2844.9,0.06684
2821.75,0.08181
2798.61,0.09068
2775.46,0.09567
2752.32,0.09820
2729.17,0.10069
2706.03,0.10539
2682.88,0.11048
2659.74,0.11509
2636.59,0.11937
2613.45,0.12357
2590.3,0.12799
2567.16,0.13029
2544.02,0.13197
2520.87,0.13529
2497.73,0.14065
2474.58,0.14620
2451.44,0.15190
2428.29,0.15899
2405.15,0.16737
2382,0.17421
2358.86,0.18002
2335.71,0.18304
2312.57,0.18370
2289.42,0.18196
2266.28,0.17833
2243.13,0.17442
2219.99,0.17133
2196.84,0.16757
2173.7,0.16044
2150.55,0.15612
2127.41,0.15488
2104.26,0.15761
2081.12,0.15805
2057.97,0.15520
2034.83,0.15830
2011.68,0.16431
1988.54,0.16863
1965.39,0.17210
1942.25,0.17719
1919.1,0.17870
1895.96,0.17639
1872.81,0.17377
1849.67,0.16840
1826.52,0.15832
1803.38,0.14048
1780.23,0.11248
1757.09,0.06996
1733.94,0.05185
1710.8,0.05219
1687.65,0.04398
1664.51,0.03850
1641.36,0.04412
1618.22,0.04446
1595.07,0.04553
1571.93,0.05140
1548.78,0.05129
1525.64,0.04956
1502.49,0.04723
1479.35,0.04910
1456.2,0.04350
1433.06,0.04262
1409.91,0.04541
1386.77,0.04182
1363.62,0.04141
1340.48,0.04163
1317.33,0.04086
1294.19,0.04115
1271.04,0.03828
1247.9,0.04107
1224.75,0.04175
1201.61,0.04223
1178.46,0.03672
1155.32,0.03748
1132.17,0.03493
1109.03,0.03700
1085.88,0.03731
1062.74,0.04772
1039.59,0.05222
1016.45,0.05997
993.304,0.06225
970.159,0.06991
947.014,0.07496
923.869,0.07783
900.724,0.06789
877.579,0.07043
854.434,0.07134
831.289,0.06781
808.144,0.06124
784.999,0.05916
761.854,0.05655
738.709,0.05291
715.565,0.04928
692.42,0.04616
669.275,0.04559
646.13,0.04402
622.985,0.04364
599.84,0.04698