File: 01_Data/Particleboard/FTIR/IS/Particleboard_IS_S_220927_R8.dpt
7497.03,0.72785
7473.89,0.71544
7450.74,0.71640
7427.6,0.69769
7404.45,0.68610
7381.31,0.69125
7358.16,0.66719
7335.02,0.66932
7311.87,0.67303
7288.73,0.66756
7265.58,0.65384
7242.44,0.66529
7219.29,0.66254
7196.15,0.65535
7173,0.64726
7149.86,0.63810
7126.71,0.62396
7103.57,0.61035
7080.42,0.59462
7057.28,0.58020
7034.13,0.55580
7010.99,0.54419
6987.84,0.53283
6964.7,0.52281
6941.55,0.51304
6918.41,0.50782
6895.26,0.50255
6872.12,0.50284
6848.97,0.49430
6825.83,0.49709
6802.68,0.49450
6779.54,0.48869
6756.39,0.48769
6733.25,0.48368
6710.1,0.48269
6686.96,0.48321
6663.82,0.48498
6640.67,0.49294
6617.53,0.49197
6594.38,0.49652
6571.24,0.50939
6548.09,0.51016
6524.95,0.51397
6501.8,0.51093
6478.66,0.51665
6455.51,0.52123
6432.37,0.52454
6409.22,0.52518
6386.08,0.52531
6362.93,0.52829
6339.79,0.53209
6316.64,0.53071
6293.5,0.53324
6270.35,0.54376
6247.21,0.54772
6224.06,0.55156
6200.92,0.56088
6177.77,0.56821
6154.63,0.57194
6131.48,0.57459
6108.34,0.57829
6085.19,0.57931
6062.05,0.58365
6038.9,0.57308
6015.76,0.56794
5992.61,0.56075
5969.47,0.55609
5946.32,0.55721
5923.18,0.55663
5900.03,0.55379
5876.89,0.54790
5853.74,0.54515
5830.6,0.54174
5807.45,0.53923
5784.31,0.54142
5761.16,0.54431
5738.02,0.54584
5714.87,0.54630
5691.73,0.54572
5668.58,0.54609
5645.44,0.54486
5622.29,0.54619
5599.15,0.54639
5576,0.54711
5552.86,0.54975
5529.71,0.55118
5506.57,0.55337
5483.42,0.55583
5460.28,0.55751
5437.13,0.55966
5413.99,0.56642
5390.84,0.56708
5367.7,0.56790
5344.55,0.56699
5321.41,0.55651
5298.26,0.53832
5275.12,0.50577
5251.97,0.46482
5228.83,0.43409
5205.68,0.41629
5182.54,0.41029
5159.39,0.41078
5136.25,0.41607
5113.1,0.41725
5089.96,0.40904
5066.81,0.40534
5043.67,0.41155
5020.52,0.41991
4997.38,0.42706
4974.23,0.42445
4951.09,0.41407
4927.94,0.39886
4904.8,0.38609
4881.65,0.37460
4858.51,0.36396
4835.36,0.35370
4812.22,0.34718
4789.07,0.34447
4765.93,0.34163
4742.78,0.34061
4719.64,0.34169
4696.49,0.34378
4673.35,0.34459
4650.2,0.34886
4627.06,0.35286
4603.92,0.35904
4580.77,0.36274
4557.63,0.36571
4534.48,0.36652
4511.34,0.37033
4488.19,0.36684
4465.05,0.35242
4441.9,0.33242
4418.76,0.31234
4395.61,0.30286
4372.47,0.30963
4349.32,0.31389
4326.18,0.30912
4303.03,0.30445
4279.89,0.30097
4256.74,0.30538
4233.6,0.30818
4210.45,0.30843
4187.31,0.30923
4164.16,0.31222
4141.02,0.30692
4117.87,0.29496
4094.73,0.27928
4071.58,0.26281
4048.44,0.24643
4025.29,0.23553
4002.15,0.23311
3979,0.23724
3955.86,0.24286
3932.71,0.25127
3909.57,0.25830
3886.42,0.26620
3863.28,0.27411
3840.13,0.28293
3816.99,0.28655
3793.84,0.28701
3770.7,0.28565
3747.55,0.27952
3724.41,0.26754
3701.26,0.24557
3678.12,0.20384
3654.97,0.14768
3631.83,0.11003
3608.68,0.08543
3585.54,0.06741
3562.39,0.05633
3539.25,0.04961
3516.1,0.04419
3492.96,0.04076
3469.81,0.03864
3446.67,0.03713
3423.52,0.03732
3400.38,0.03733
3377.23,0.03774
3354.09,0.03844
3330.94,0.04101
3307.8,0.04275
3284.65,0.04424
3261.51,0.04642
3238.36,0.04890
3215.22,0.05098
3192.07,0.05425
3168.93,0.05846
3145.78,0.06217
3122.64,0.06608
3099.49,0.06978
3076.35,0.07275
3053.2,0.07675
3030.06,0.07880
3006.91,0.07722
2983.77,0.07106
2960.62,0.05917
2937.48,0.05414
2914.33,0.05461
2891.19,0.05713
2868.04,0.06023
2844.9,0.06745
2821.75,0.08235
2798.61,0.09225
2775.46,0.09743
2752.32,0.10038
2729.17,0.10182
2706.03,0.10671
2682.88,0.11279
2659.74,0.11704
2636.59,0.12104
2613.45,0.12560
2590.3,0.13004
2567.16,0.13277
2544.02,0.13359
2520.87,0.13738
2497.73,0.14357
2474.58,0.14894
2451.44,0.15520
2428.29,0.16194
2405.15,0.17072
2382,0.17878
2358.86,0.18447
2335.71,0.18846
2312.57,0.18972
2289.42,0.18788
2266.28,0.18448
2243.13,0.18107
2219.99,0.17870
2196.84,0.17512
2173.7,0.16806
2150.55,0.16335
2127.41,0.16268
2104.26,0.16548
2081.12,0.16535
2057.97,0.16262
2034.83,0.16535
2011.68,0.17191
1988.54,0.17555
1965.39,0.17870
1942.25,0.18424
1919.1,0.18584
1895.96,0.18295
1872.81,0.17960
1849.67,0.17433
1826.52,0.16363
1803.38,0.14464
1780.23,0.11426
1757.09,0.06981
1733.94,0.05263
1710.8,0.05230
1687.65,0.04394
1664.51,0.03919
1641.36,0.04504
1618.22,0.04475
1595.07,0.04561
1571.93,0.05138
1548.78,0.05186
1525.64,0.05002
1502.49,0.04738
1479.35,0.04952
1456.2,0.04303
1433.06,0.04239
1409.91,0.04551
1386.77,0.04151
1363.62,0.04156
1340.48,0.04196
1317.33,0.04109
1294.19,0.04096
1271.04,0.03795
1247.9,0.04110
1224.75,0.04167
1201.61,0.04206
1178.46,0.03655
1155.32,0.03712
1132.17,0.03493
1109.03,0.03720
1085.88,0.03744
1062.74,0.04779
1039.59,0.05227
1016.45,0.05898
993.304,0.06235
970.159,0.07069
947.014,0.07583
923.869,0.07867
900.724,0.06928
877.579,0.07230
854.434,0.07413
831.289,0.07031
808.144,0.06347
784.999,0.06093
761.854,0.05826
738.709,0.05478
715.565,0.04977
692.42,0.04784
669.275,0.04595
646.13,0.04563
622.985,0.04293
599.84,0.04652