File: 01_Data/Particleboard/FTIR/IS/Particleboard_IS_S_220927_R3.dpt
7497.03,0.73488
7473.89,0.71314
7450.74,0.69847
7427.6,0.69478
7404.45,0.69503
7381.31,0.68874
7358.16,0.67022
7335.02,0.67084
7311.87,0.66186
7288.73,0.66595
7265.58,0.65476
7242.44,0.65690
7219.29,0.65785
7196.15,0.64302
7173,0.63993
7149.86,0.63347
7126.71,0.61788
7103.57,0.61089
7080.42,0.58363
7057.28,0.56701
7034.13,0.54634
7010.99,0.54189
6987.84,0.52285
6964.7,0.52011
6941.55,0.50651
6918.41,0.50202
6895.26,0.50629
6872.12,0.49914
6848.97,0.50073
6825.83,0.49252
6802.68,0.48703
6779.54,0.48396
6756.39,0.48036
6733.25,0.47729
6710.1,0.47637
6686.96,0.48174
6663.82,0.48142
6640.67,0.48816
6617.53,0.48996
6594.38,0.49867
6571.24,0.50133
6548.09,0.50567
6524.95,0.50631
6501.8,0.51297
6478.66,0.51535
6455.51,0.51360
6432.37,0.51725
6409.22,0.51923
6386.08,0.52380
6362.93,0.52293
6339.79,0.53007
6316.64,0.53154
6293.5,0.53134
6270.35,0.53840
6247.21,0.54339
6224.06,0.55135
6200.92,0.55655
6177.77,0.55860
6154.63,0.56683
6131.48,0.57211
6108.34,0.57691
6085.19,0.57549
6062.05,0.57411
6038.9,0.57327
6015.76,0.56475
5992.61,0.55691
5969.47,0.55491
5946.32,0.55346
5923.18,0.55520
5900.03,0.54754
5876.89,0.54304
5853.74,0.54358
5830.6,0.53806
5807.45,0.53561
5784.31,0.53744
5761.16,0.54245
5738.02,0.54224
5714.87,0.54169
5691.73,0.54172
5668.58,0.53898
5645.44,0.54035
5622.29,0.53890
5599.15,0.53991
5576,0.54194
5552.86,0.54433
5529.71,0.54557
5506.57,0.55030
5483.42,0.55013
5460.28,0.55378
5437.13,0.55776
5413.99,0.56064
5390.84,0.56330
5367.7,0.56330
5344.55,0.56115
5321.41,0.55236
5298.26,0.52932
5275.12,0.49312
5251.97,0.45006
5228.83,0.41918
5205.68,0.40151
5182.54,0.39474
5159.39,0.39745
5136.25,0.40133
5113.1,0.40386
5089.96,0.39912
5066.81,0.39586
5043.67,0.40357
5020.52,0.41202
4997.38,0.41800
4974.23,0.41782
4951.09,0.40787
4927.94,0.39498
4904.8,0.38128
4881.65,0.37083
4858.51,0.36051
4835.36,0.35202
4812.22,0.34422
4789.07,0.33990
4765.93,0.33898
4742.78,0.33841
4719.64,0.33861
4696.49,0.34034
4673.35,0.34273
4650.2,0.34629
4627.06,0.35029
4603.92,0.35645
4580.77,0.36041
4557.63,0.36174
4534.48,0.36446
4511.34,0.36694
4488.19,0.36356
4465.05,0.35009
4441.9,0.32930
4418.76,0.31004
4395.61,0.30135
4372.47,0.30795
4349.32,0.31125
4326.18,0.30698
4303.03,0.30246
4279.89,0.29813
4256.74,0.30180
4233.6,0.30608
4210.45,0.30596
4187.31,0.30587
4164.16,0.30882
4141.02,0.30266
4117.87,0.29161
4094.73,0.27649
4071.58,0.25978
4048.44,0.24388
4025.29,0.23297
4002.15,0.23099
3979,0.23395
3955.86,0.24010
3932.71,0.24811
3909.57,0.25445
3886.42,0.26261
3863.28,0.26966
3840.13,0.27892
3816.99,0.28223
3793.84,0.28223
3770.7,0.27955
3747.55,0.27305
3724.41,0.26022
3701.26,0.23741
3678.12,0.19352
3654.97,0.13913
3631.83,0.10367
3608.68,0.08058
3585.54,0.06524
3562.39,0.05521
3539.25,0.04936
3516.1,0.04380
3492.96,0.04021
3469.81,0.03767
3446.67,0.03692
3423.52,0.03766
3400.38,0.03754
3377.23,0.03780
3354.09,0.03805
3330.94,0.04115
3307.8,0.04281
3284.65,0.04362
3261.51,0.04579
3238.36,0.04823
3215.22,0.05086
3192.07,0.05394
3168.93,0.05721
3145.78,0.06168
3122.64,0.06473
3099.49,0.06792
3076.35,0.07131
3053.2,0.07521
3030.06,0.07727
3006.91,0.07691
2983.77,0.07016
2960.62,0.05891
2937.48,0.05431
2914.33,0.05422
2891.19,0.05722
2868.04,0.06019
2844.9,0.06678
2821.75,0.08176
2798.61,0.09133
2775.46,0.09615
2752.32,0.09896
2729.17,0.10140
2706.03,0.10664
2682.88,0.11174
2659.74,0.11612
2636.59,0.12069
2613.45,0.12443
2590.3,0.12893
2567.16,0.13145
2544.02,0.13252
2520.87,0.13622
2497.73,0.14167
2474.58,0.14820
2451.44,0.15366
2428.29,0.16062
2405.15,0.16912
2382,0.17725
2358.86,0.18221
2335.71,0.18591
2312.57,0.18720
2289.42,0.18523
2266.28,0.18165
2243.13,0.17783
2219.99,0.17507
2196.84,0.17128
2173.7,0.16440
2150.55,0.15982
2127.41,0.15932
2104.26,0.16187
2081.12,0.16170
2057.97,0.15943
2034.83,0.16179
2011.68,0.16826
1988.54,0.17249
1965.39,0.17604
1942.25,0.18099
1919.1,0.18249
1895.96,0.17987
1872.81,0.17716
1849.67,0.17176
1826.52,0.16131
1803.38,0.14291
1780.23,0.11340
1757.09,0.06978
1733.94,0.05207
1710.8,0.05273
1687.65,0.04369
1664.51,0.03911
1641.36,0.04473
1618.22,0.04502
1595.07,0.04567
1571.93,0.05127
1548.78,0.05189
1525.64,0.04966
1502.49,0.04755
1479.35,0.04921
1456.2,0.04345
1433.06,0.04235
1409.91,0.04511
1386.77,0.04184
1363.62,0.04186
1340.48,0.04219
1317.33,0.04117
1294.19,0.04110
1271.04,0.03804
1247.9,0.04086
1224.75,0.04176
1201.61,0.04240
1178.46,0.03702
1155.32,0.03793
1132.17,0.03479
1109.03,0.03724
1085.88,0.03800
1062.74,0.04829
1039.59,0.05212
1016.45,0.05984
993.304,0.06264
970.159,0.07037
947.014,0.07589
923.869,0.07805
900.724,0.06825
877.579,0.07164
854.434,0.07251
831.289,0.06983
808.144,0.06326
784.999,0.06089
761.854,0.05812
738.709,0.05371
715.565,0.04967
692.42,0.04878
669.275,0.04541
646.13,0.04499
622.985,0.04400
599.84,0.04744