File: 01_Data/Particleboard/FTIR/IS/Particleboard_IS_S_220927_R7.dpt
7497.03,0.72208
7473.89,0.71601
7450.74,0.70770
7427.6,0.69550
7404.45,0.68329
7381.31,0.69004
7358.16,0.68886
7335.02,0.67105
7311.87,0.66878
7288.73,0.66522
7265.58,0.66230
7242.44,0.66039
7219.29,0.65779
7196.15,0.65465
7173,0.64171
7149.86,0.63422
7126.71,0.62046
7103.57,0.60894
7080.42,0.59504
7057.28,0.57279
7034.13,0.55264
7010.99,0.53572
6987.84,0.52642
6964.7,0.51786
6941.55,0.50372
6918.41,0.50602
6895.26,0.50283
6872.12,0.49926
6848.97,0.50126
6825.83,0.49703
6802.68,0.49562
6779.54,0.48954
6756.39,0.48279
6733.25,0.47961
6710.1,0.47689
6686.96,0.48455
6663.82,0.48566
6640.67,0.48768
6617.53,0.49573
6594.38,0.49876
6571.24,0.50134
6548.09,0.50832
6524.95,0.50942
6501.8,0.51318
6478.66,0.51613
6455.51,0.51935
6432.37,0.52012
6409.22,0.52345
6386.08,0.52377
6362.93,0.52962
6339.79,0.52966
6316.64,0.53004
6293.5,0.53290
6270.35,0.54079
6247.21,0.54461
6224.06,0.55138
6200.92,0.56002
6177.77,0.56522
6154.63,0.57118
6131.48,0.57560
6108.34,0.57747
6085.19,0.57991
6062.05,0.57858
6038.9,0.57415
6015.76,0.56481
5992.61,0.55898
5969.47,0.55670
5946.32,0.55706
5923.18,0.55590
5900.03,0.55009
5876.89,0.54636
5853.74,0.54495
5830.6,0.54385
5807.45,0.54098
5784.31,0.53991
5761.16,0.54375
5738.02,0.54296
5714.87,0.54331
5691.73,0.54313
5668.58,0.54380
5645.44,0.54294
5622.29,0.54285
5599.15,0.54523
5576,0.54561
5552.86,0.54632
5529.71,0.55130
5506.57,0.55140
5483.42,0.55280
5460.28,0.55603
5437.13,0.56038
5413.99,0.56425
5390.84,0.56605
5367.7,0.56752
5344.55,0.56568
5321.41,0.55666
5298.26,0.53645
5275.12,0.50150
5251.97,0.46126
5228.83,0.42825
5205.68,0.41317
5182.54,0.40862
5159.39,0.40797
5136.25,0.41150
5113.1,0.41280
5089.96,0.40739
5066.81,0.40329
5043.67,0.41077
5020.52,0.41785
4997.38,0.42481
4974.23,0.42346
4951.09,0.41211
4927.94,0.39882
4904.8,0.38548
4881.65,0.37274
4858.51,0.36265
4835.36,0.35420
4812.22,0.34655
4789.07,0.34374
4765.93,0.34083
4742.78,0.34027
4719.64,0.34091
4696.49,0.34260
4673.35,0.34367
4650.2,0.34783
4627.06,0.35285
4603.92,0.35811
4580.77,0.36165
4557.63,0.36546
4534.48,0.36700
4511.34,0.36916
4488.19,0.36539
4465.05,0.35148
4441.9,0.33102
4418.76,0.31114
4395.61,0.30262
4372.47,0.30961
4349.32,0.31236
4326.18,0.30893
4303.03,0.30424
4279.89,0.30072
4256.74,0.30380
4233.6,0.30825
4210.45,0.30717
4187.31,0.30890
4164.16,0.31074
4141.02,0.30626
4117.87,0.29436
4094.73,0.27822
4071.58,0.26224
4048.44,0.24592
4025.29,0.23467
4002.15,0.23297
3979,0.23663
3955.86,0.24267
3932.71,0.24974
3909.57,0.25812
3886.42,0.26496
3863.28,0.27268
3840.13,0.28175
3816.99,0.28556
3793.84,0.28550
3770.7,0.28396
3747.55,0.27819
3724.41,0.26592
3701.26,0.24379
3678.12,0.20189
3654.97,0.14628
3631.83,0.10900
3608.68,0.08473
3585.54,0.06649
3562.39,0.05636
3539.25,0.04932
3516.1,0.04468
3492.96,0.04109
3469.81,0.03893
3446.67,0.03803
3423.52,0.03697
3400.38,0.03725
3377.23,0.03814
3354.09,0.03826
3330.94,0.04077
3307.8,0.04309
3284.65,0.04419
3261.51,0.04644
3238.36,0.04794
3215.22,0.05042
3192.07,0.05421
3168.93,0.05845
3145.78,0.06191
3122.64,0.06576
3099.49,0.06899
3076.35,0.07257
3053.2,0.07639
3030.06,0.07860
3006.91,0.07718
2983.77,0.07086
2960.62,0.05897
2937.48,0.05443
2914.33,0.05490
2891.19,0.05748
2868.04,0.06000
2844.9,0.06759
2821.75,0.08250
2798.61,0.09187
2775.46,0.09699
2752.32,0.09971
2729.17,0.10226
2706.03,0.10658
2682.88,0.11193
2659.74,0.11671
2636.59,0.12105
2613.45,0.12564
2590.3,0.12949
2567.16,0.13229
2544.02,0.13362
2520.87,0.13715
2497.73,0.14284
2474.58,0.14897
2451.44,0.15461
2428.29,0.16127
2405.15,0.17011
2382,0.17827
2358.86,0.18441
2335.71,0.18766
2312.57,0.18871
2289.42,0.18714
2266.28,0.18391
2243.13,0.18000
2219.99,0.17815
2196.84,0.17409
2173.7,0.16686
2150.55,0.16263
2127.41,0.16208
2104.26,0.16441
2081.12,0.16462
2057.97,0.16167
2034.83,0.16474
2011.68,0.17094
1988.54,0.17498
1965.39,0.17821
1942.25,0.18326
1919.1,0.18490
1895.96,0.18211
1872.81,0.17899
1849.67,0.17343
1826.52,0.16310
1803.38,0.14414
1780.23,0.11379
1757.09,0.07000
1733.94,0.05255
1710.8,0.05241
1687.65,0.04404
1664.51,0.03908
1641.36,0.04463
1618.22,0.04486
1595.07,0.04560
1571.93,0.05169
1548.78,0.05188
1525.64,0.04921
1502.49,0.04751
1479.35,0.04930
1456.2,0.04322
1433.06,0.04248
1409.91,0.04577
1386.77,0.04133
1363.62,0.04149
1340.48,0.04170
1317.33,0.04112
1294.19,0.04089
1271.04,0.03801
1247.9,0.04099
1224.75,0.04180
1201.61,0.04232
1178.46,0.03646
1155.32,0.03804
1132.17,0.03518
1109.03,0.03701
1085.88,0.03715
1062.74,0.04796
1039.59,0.05276
1016.45,0.05971
993.304,0.06230
970.159,0.07057
947.014,0.07533
923.869,0.07859
900.724,0.06906
877.579,0.07166
854.434,0.07318
831.289,0.07089
808.144,0.06417
784.999,0.06118
761.854,0.05857
738.709,0.05375
715.565,0.05049
692.42,0.04773
669.275,0.04480
646.13,0.04518
622.985,0.04654
599.84,0.04715