File: 01_Data/Particleboard/FTIR/IS/Particleboard_IS_S_220927_R4.dpt
7497.03,0.72184
7473.89,0.70922
7450.74,0.70563
7427.6,0.69461
7404.45,0.68619
7381.31,0.68906
7358.16,0.67718
7335.02,0.67286
7311.87,0.66627
7288.73,0.66160
7265.58,0.66236
7242.44,0.66319
7219.29,0.65925
7196.15,0.63930
7173,0.64641
7149.86,0.63879
7126.71,0.62183
7103.57,0.60409
7080.42,0.59043
7057.28,0.56412
7034.13,0.55025
7010.99,0.52844
6987.84,0.52598
6964.7,0.51443
6941.55,0.50494
6918.41,0.49994
6895.26,0.50424
6872.12,0.49430
6848.97,0.49487
6825.83,0.49699
6802.68,0.48960
6779.54,0.48894
6756.39,0.48150
6733.25,0.48162
6710.1,0.48062
6686.96,0.48045
6663.82,0.48282
6640.67,0.48772
6617.53,0.49315
6594.38,0.49629
6571.24,0.50089
6548.09,0.50532
6524.95,0.51317
6501.8,0.50767
6478.66,0.51516
6455.51,0.51570
6432.37,0.52136
6409.22,0.52191
6386.08,0.52351
6362.93,0.52340
6339.79,0.52511
6316.64,0.53045
6293.5,0.53027
6270.35,0.53951
6247.21,0.54558
6224.06,0.55166
6200.92,0.55695
6177.77,0.56529
6154.63,0.57125
6131.48,0.57439
6108.34,0.57406
6085.19,0.57854
6062.05,0.57534
6038.9,0.57370
6015.76,0.56509
5992.61,0.55375
5969.47,0.55278
5946.32,0.55413
5923.18,0.55122
5900.03,0.55024
5876.89,0.54585
5853.74,0.54056
5830.6,0.54112
5807.45,0.53754
5784.31,0.53826
5761.16,0.54046
5738.02,0.54035
5714.87,0.54259
5691.73,0.54242
5668.58,0.54005
5645.44,0.54263
5622.29,0.54204
5599.15,0.54187
5576,0.54147
5552.86,0.54681
5529.71,0.54679
5506.57,0.54812
5483.42,0.55170
5460.28,0.55256
5437.13,0.55848
5413.99,0.56239
5390.84,0.56411
5367.7,0.56441
5344.55,0.55989
5321.41,0.55346
5298.26,0.53101
5275.12,0.49647
5251.97,0.45245
5228.83,0.42087
5205.68,0.40472
5182.54,0.39970
5159.39,0.40044
5136.25,0.40499
5113.1,0.40745
5089.96,0.40158
5066.81,0.39834
5043.67,0.40458
5020.52,0.41285
4997.38,0.42042
4974.23,0.41865
4951.09,0.40841
4927.94,0.39643
4904.8,0.38383
4881.65,0.37092
4858.51,0.36165
4835.36,0.35234
4812.22,0.34521
4789.07,0.34302
4765.93,0.33958
4742.78,0.33914
4719.64,0.33996
4696.49,0.34042
4673.35,0.34322
4650.2,0.34646
4627.06,0.35077
4603.92,0.35643
4580.77,0.36107
4557.63,0.36291
4534.48,0.36534
4511.34,0.36702
4488.19,0.36404
4465.05,0.35050
4441.9,0.32976
4418.76,0.30990
4395.61,0.30259
4372.47,0.30757
4349.32,0.31142
4326.18,0.30680
4303.03,0.30202
4279.89,0.29927
4256.74,0.30261
4233.6,0.30634
4210.45,0.30639
4187.31,0.30609
4164.16,0.31037
4141.02,0.30408
4117.87,0.29263
4094.73,0.27741
4071.58,0.26021
4048.44,0.24409
4025.29,0.23349
4002.15,0.23193
3979,0.23477
3955.86,0.24139
3932.71,0.24847
3909.57,0.25595
3886.42,0.26319
3863.28,0.27079
3840.13,0.27957
3816.99,0.28239
3793.84,0.28334
3770.7,0.28098
3747.55,0.27462
3724.41,0.26187
3701.26,0.23887
3678.12,0.19613
3654.97,0.14137
3631.83,0.10525
3608.68,0.08174
3585.54,0.06590
3562.39,0.05488
3539.25,0.04816
3516.1,0.04391
3492.96,0.03999
3469.81,0.03858
3446.67,0.03761
3423.52,0.03751
3400.38,0.03730
3377.23,0.03760
3354.09,0.03867
3330.94,0.04068
3307.8,0.04224
3284.65,0.04404
3261.51,0.04616
3238.36,0.04887
3215.22,0.05091
3192.07,0.05414
3168.93,0.05788
3145.78,0.06145
3122.64,0.06533
3099.49,0.06899
3076.35,0.07167
3053.2,0.07572
3030.06,0.07811
3006.91,0.07657
2983.77,0.07052
2960.62,0.05905
2937.48,0.05441
2914.33,0.05415
2891.19,0.05695
2868.04,0.06034
2844.9,0.06702
2821.75,0.08201
2798.61,0.09147
2775.46,0.09666
2752.32,0.09928
2729.17,0.10176
2706.03,0.10691
2682.88,0.11181
2659.74,0.11628
2636.59,0.12064
2613.45,0.12488
2590.3,0.12929
2567.16,0.13155
2544.02,0.13292
2520.87,0.13659
2497.73,0.14177
2474.58,0.14857
2451.44,0.15390
2428.29,0.16107
2405.15,0.16945
2382,0.17712
2358.86,0.18289
2335.71,0.18623
2312.57,0.18739
2289.42,0.18599
2266.28,0.18289
2243.13,0.17849
2219.99,0.17626
2196.84,0.17229
2173.7,0.16509
2150.55,0.16106
2127.41,0.16008
2104.26,0.16278
2081.12,0.16292
2057.97,0.15983
2034.83,0.16274
2011.68,0.16914
1988.54,0.17329
1965.39,0.17653
1942.25,0.18138
1919.1,0.18307
1895.96,0.18046
1872.81,0.17759
1849.67,0.17233
1826.52,0.16201
1803.38,0.14328
1780.23,0.11327
1757.09,0.06973
1733.94,0.05159
1710.8,0.05238
1687.65,0.04411
1664.51,0.03884
1641.36,0.04471
1618.22,0.04483
1595.07,0.04561
1571.93,0.05147
1548.78,0.05182
1525.64,0.04977
1502.49,0.04768
1479.35,0.04913
1456.2,0.04371
1433.06,0.04256
1409.91,0.04536
1386.77,0.04192
1363.62,0.04194
1340.48,0.04163
1317.33,0.04103
1294.19,0.04118
1271.04,0.03809
1247.9,0.04038
1224.75,0.04179
1201.61,0.04223
1178.46,0.03624
1155.32,0.03779
1132.17,0.03495
1109.03,0.03703
1085.88,0.03775
1062.74,0.04759
1039.59,0.05225
1016.45,0.05890
993.304,0.06222
970.159,0.07006
947.014,0.07535
923.869,0.07792
900.724,0.06802
877.579,0.07157
854.434,0.07315
831.289,0.07042
808.144,0.06250
784.999,0.06093
761.854,0.05806
738.709,0.05356
715.565,0.05025
692.42,0.04832
669.275,0.04512
646.13,0.04537
622.985,0.04325
599.84,0.04409