File: 01_Data/Overstuffed_Sofa/Furniture_Calorimeter/Overstuffed_Sofa_R2.csv
Time (s),Convective HRR,TCPlume1,TCPlume2,TCPlume3,DPPlume1,DPPlume2,DPPlume3,HF1,HF2,HF3,HF4,HF5,HF6,RAD2,RAD1,Load Cell,Heat Release Rate,Total Heat Released
-330,0.0,-6.04687,-5.68513,12.9137,0.0790141,0.013361,-0.0246855,-0.42809,-0.323311,0.697621,-0.0630909,0.0800203,-0.0918379,0.281084,2.88169,48,0.0,0.0
-302,0.0,-6.8457,-5.62443,12.7823,-0.0197304,-0.0322101,-0.0474722,0.374273,0.575384,0.697621,-0.0630909,-0.669884,0.0495839,0.613177,4.79872,47.9792,0.0,0.0
-274,0.0,-5.87509,-5.78656,12.7382,-0.0273261,0.0741226,-0.00949443,-1.23045,0.575384,1.51192,0.799152,0.454973,-0.0918379,0.281084,2.88169,48,0.0,0.0
-246,0.0,-5.86466,-5.62006,12.9393,-0.0121346,0.0285514,0.0284833,0.374273,-0.323311,0.697621,-0.0630909,0.0800203,0.0495839,0.613177,2.88169,47.9584,0.0,0.0
-218,0.0,-6.24989,-5.84897,12.6772,-0.0197304,-0.0625908,-0.0398766,-0.42809,-0.323311,-0.116684,-0.925334,0.0800203,-0.0918379,0.447131,1.92317,48.1453,0.0,0.0
-190,0.0,-6.59675,-6.27368,12.2619,-0.0121346,-0.0625908,-0.0474722,0.374273,1.47408,-0.116684,0.799152,0.0800203,0.0495839,0.447131,1.92317,47.9584,0.0,0.0
-162,0.0,-6.59717,-5.96171,12.6815,0.00305682,0.00576586,-0.0854499,0.374273,-0.323311,-0.116684,-0.0630909,-0.669884,-0.0918379,0.447131,1.92317,48.1661,0.0,0.0
-134,0.0,-7.38553,-5.81164,12.7901,0.0182483,-0.0170197,-0.01709,-0.42809,0.575384,-0.930988,-0.0630909,0.0800203,-0.23326,0.281084,2.88169,47.9792,0.0,0.0
-106,0.0,-6.54808,-5.87364,12.424,-0.0121346,-0.0625908,0.0132922,0.374273,0.575384,-1.74529,-0.0630909,-0.294932,-0.0918379,0.447131,0.964651,47.9792,0.0,0.0
-78,0.0,-6.3475,-5.9465,12.4292,-0.0501132,-0.0398053,-0.01709,1.17664,-0.323311,-0.116684,0.799152,0.0800203,-0.0918379,0.281084,2.88169,48,0.0,0.0
-50,0.0,-6.95119,-6.667,12.4122,0.0106525,0.0437418,0.0436744,-0.42809,0.575384,-0.116684,-0.925334,-0.294932,0.191006,0.447131,2.88169,47.9584,0.0,0.0
-22,0.0,-7.58907,-5.78038,12.5153,0.0866098,0.165265,-0.00949443,0.374273,0.575384,0.697621,0.799152,0.0800203,-0.0918379,0.447131,2.88169,47.8338,0.0,0.0
6,0.0,-7.49466,-6.31094,12.531,-0.0121346,-0.0777812,0.0208878,-0.42809,-1.22201,-0.930988,0.799152,0.829925,0.0495839,0.447131,1.92317,48,0.0,0.0
34,0.0,-6.40564,-6.43422,12.4488,0.0486312,-0.00182933,-0.0474722,0.374273,-1.22201,-0.930988,-0.0630909,0.454973,-0.0918379,0.613177,2.88169,48.0207,0.0,0.0
62,0.0,-6.64619,-6.51845,12.3665,0.291694,-0.070186,0.0588655,1.17664,-0.323311,-0.116684,0.799152,-0.294932,0.0495839,0.447131,1.92317,48.083,0.0,0.0
90,2.98696,-3.14154,-5.73787,12.7478,-0.0501132,-0.0398053,-0.01709,0.374273,1.47408,1.51192,0.799152,0.454973,0.191006,0.613177,1.92317,47.9377,73.3779,0.845873
118,47.7863,-1.1307,-3.98569,15.341,0.29929,0.279193,-0.01709,2.78136,2.37278,2.32623,1.66139,0.829925,0.615271,0.945271,4.79872,47.647,69.048,4.01398
146,54.9521,0.925481,-4.15848,16.1241,0.109397,0.0969081,-0.00949443,3.58373,2.37278,2.32623,0.799152,0.829925,0.756693,1.11132,4.79872,47.4808,194.336,7.78564
174,111.204,8.07187,1.19249,19.65,2.47167,1.88178,0.180394,8.39791,4.17017,6.39775,4.24812,1.95478,1.18096,1.7755,6.71575,46.9824,705.433,16.875
202,393.074,27.5695,14.5745,31.625,0.960118,3.16536,0.286732,18.8286,11.3597,12.9122,6.83485,4.57945,2.87802,3.26993,14.3839,45.5911,1204.87,40.6957
230,614.25,62.4505,47.8249,66.7124,0.56514,1.47164,-0.00949443,32.4688,19.448,20.2409,14.595,8.32897,4.99935,4.93039,18.218,43.6183,1382.59,73.5809
258,798.797,90.1553,84.1824,111.105,1.27914,0.795666,1.22098,48.5161,24.8402,26.7554,22.3552,9.45383,6.55499,6.42481,29.7202,41.3548,1748.71,118.541
286,1150.27,153.453,172.575,235.601,8.2824,6.18825,8.10255,73.3894,32.9284,34.0841,28.3909,16.5779,11.0805,10.9081,58.4757,38.053,1954.03,173.367
314,1233.56,180.343,226.6,324.159,9.04956,3.48436,3.03632,80.6106,34.7258,37.3413,31.8399,20.7024,12.919,12.4025,68.0608,34.3982,2458.02,232.709
342,1627.13,206.716,263.301,365.938,5.69225,10.2289,5.86186,81.413,36.5232,36.527,31.8399,21.4523,15.0403,13.7309,70.9364,30.2034,2323.18,302.891
370,1409.25,171.155,212.432,337.904,3.07204,7.60199,4.38835,68.4782,26.5215,30.2556,25.5496,15.9893,12.4585,11.2646,60.7062,26.8213,2065.52,361.788
398,1361.38,141.119,173.38,292.838,12.8778,11.9682,7.47971,44.5043,18.5493,20.2409,16.3195,11.3286,8.67631,7.75319,40.2638,23.4129,1579.05,415.129
426,1102.54,121.83,152.612,257.866,4.87192,2.91472,9.92548,32.4688,14.0558,15.3551,11.1461,8.70393,6.27214,5.92667,30.6787,20.6095,1377.91,456.405
454,923.713,104.519,127.123,221.652,2.20582,1.89697,0.666509,24.4452,10.461,8.84066,8.55934,6.82916,5.42361,4.76435,23.9691,18.429,1015.83,489.964
482,699.071,77.6722,97.0437,185.337,2.85145,3.53753,3.10468,18.8286,8.66364,8.02636,5.11037,5.32935,4.00939,3.60202,17.2594,16.6432,970.994,515.246
510,685.503,70.7171,86.3891,163.713,2.12226,3.71981,1.79065,16.4215,5.96756,7.21206,5.11037,4.2045,3.30228,3.26993,16.3009,14.9611,790.146,539.976
538,618.043,68.936,81.3046,147.85,4.24907,4.91226,3.83385,14.0145,6.86625,7.21206,5.11037,3.45459,2.87802,2.60574,14.3839,13.6113,638.138,560.863
566,511.526,56.3854,68.3771,130.405,2.38052,1.78304,2.77807,11.6074,4.17017,4.76914,3.38588,3.45459,2.45375,1.94155,10.5498,12.3446,597.058,578.709
594,475.403,57.4219,66.5479,118.588,5.06181,1.82102,1.31973,10.0026,5.06886,4.76914,3.38588,2.70469,1.88807,1.94155,8.63279,11.4932,471.445,593.216
622,418.139,49.8585,61.3331,110.219,2.54003,3.02106,2.79326,9.20027,3.27147,3.95484,3.38588,2.32973,1.88807,1.60946,7.67427,10.6625,432.426,605.819
650,373.133,48.2835,57.6338,102.459,2.21341,4.38059,2.48944,8.39791,3.27147,3.14053,3.38588,1.95478,1.60522,1.94155,7.67427,9.64498,415.937,617.348
678,354.582,45.8326,55.1604,95.8854,4.41617,3.1046,1.32732,7.59555,4.17017,3.14053,4.24812,2.32973,1.32238,1.44341,7.67427,8.66897,378.932,628.608
706,336.419,44.6134,53.7275,92.2459,4.006,3.00587,2.5578,7.59555,2.37278,3.14053,3.38588,1.95478,1.18096,1.44341,4.79872,7.96292,415.179,639.625
734,328.718,43.6214,53.1478,92.6613,3.98322,2.17799,2.85403,6.79318,2.37278,3.95484,2.52364,1.57983,1.4638,1.44341,5.75724,7.6722,406.116,651.404
762,365.664,42.9896,54.5864,92.3301,4.49213,5.91482,2.70971,5.99082,3.27147,4.76914,3.38588,1.57983,1.03954,1.11132,7.67427,7.00768,404.815,662.212
790,283.514,39.0161,50.9797,90.943,3.49709,3.37043,3.37052,6.79318,2.37278,3.14053,1.66139,1.57983,1.03954,0.945271,5.75724,6.34317,291.195,671.18
818,281.109,35.2798,46.0193,86.6801,4.38579,1.41847,3.47686,5.99082,4.17017,3.14053,2.52364,0.829925,1.03954,1.44341,6.71575,4.99337,260.236,679.156
846,250.12,34.2742,44.6889,84.6292,4.363,4.33502,3.68194,4.38609,3.27147,2.32623,3.38588,1.20488,1.03954,1.27736,6.71575,5.30486,261.858,686.469
874,250.394,30.3334,40.7102,79.0155,0.914544,1.44885,1.78305,5.18845,2.37278,2.32623,2.52364,1.57983,1.32238,1.44341,5.75724,4.82724,278.778,693.826
902,277.932,32.4316,41.04,78.6435,1.71209,3.09701,0.658914,5.18845,2.37278,3.14053,1.66139,1.57983,1.18096,1.11132,5.75724,4.51575,262.497,701.425
930,237.301,32.4854,42.7677,76.9357,1.84882,4.6844,4.47947,5.99082,2.37278,3.95484,2.52364,1.20488,1.32238,1.27736,7.67427,3.9966,198.221,708.014
958,212.387,28.8982,39.5869,76.5164,0.998097,2.92232,1.04629,5.99082,2.37278,3.14053,4.24812,1.57983,1.03954,1.27736,5.75724,3.45668,238.471,714.225
986,226.91,25.6874,35.7348,73.1741,1.44624,2.78561,2.23879,5.18845,2.37278,3.14053,2.52364,0.829925,1.03954,1.27736,5.75724,2.99982,173.652,720.332
1014,173.509,19.178,27.4776,68.8511,1.41586,1.07669,0.95514,5.99082,3.27147,3.14053,-0.0630909,1.57983,1.03954,0.945271,3.8402,3.02059,140.919,724.938
1042,152.153,19.216,27.4399,64.8502,0.830991,0.765285,1.1906,5.18845,2.37278,1.51192,2.52364,0.454973,0.898114,1.11132,5.75724,2.54297,175.47,729.07
1070,152.063,18.2986,25.4719,61.2807,2.70713,1.11466,1.11465,4.38609,2.37278,3.14053,3.38588,0.829925,0.756693,1.44341,4.79872,2.33531,96.5826,732.895
1098,134.716,14.9112,22.1048,56.8277,0.35246,1.03871,0.332305,4.38609,1.47408,3.14053,2.52364,1.20488,0.898114,0.945271,3.8402,2.00305,101.43,735.982
1126,124.437,14.9383,22.1317,55.4903,1.43105,1.03871,1.37289,2.78136,0.575384,1.51192,0.799152,0.454973,0.615271,1.11132,3.8402,2.02381,107.327,738.868
1154,110.105,12.1319,18.4667,52.5542,0.808204,1.01593,1.37289,1.979,1.47408,2.32623,1.66139,0.829925,0.615271,0.779224,4.79872,1.67079,102.751,741.607
1182,112.949,11.2592,17.0271,50.3793,1.3551,0.795666,1.09946,2.78136,1.47408,1.51192,1.66139,1.20488,0.898114,0.945271,3.8402,1.4839,83.4464,744.012
1210,97.9188,10.8662,15.2265,48.1111,0.208141,1.88178,0.962735,3.58373,2.37278,1.51192,-0.0630909,1.20488,0.615271,1.11132,4.79872,1.52543,83.9611,746.38
1238,101.722,8.72583,14.35,46.74,1.40827,1.22859,2.14004,2.78136,-0.323311,2.32623,-0.0630909,1.20488,0.756693,0.945271,3.8402,1.15164,49.3794,748.44
1266,80.5631,8.58901,13.0312,44.7521,0.527162,0.484263,1.12224,3.58373,1.47408,0.697621,-0.0630909,1.57983,0.615271,0.945271,2.88169,1.02704,62.6638,750.051
1294,86.0101,8.09182,13.3745,44.0093,0.443609,1.57037,2.16283,3.58373,1.47408,0.697621,0.799152,0.0800203,0.615271,0.779224,3.8402,1.00628,58.6914,751.652
1322,83.8165,5.93257,10.5709,41.948,0.261311,0.841237,1.69191,3.58373,-0.323311,1.51192,1.66139,0.454973,0.756693,0.945271,3.8402,0.819381,63.8872,753.145
1350,71.3075,5.69739,10.489,40.2666,0.0410354,0.826046,1.16782,2.78136,2.37278,0.697621,1.66139,0.454973,0.756693,1.11132,5.75724,0.674018,54.0121,754.625
1378,74.1874,5.29803,8.90524,39.5794,0.268907,0.841237,0.286732,3.58373,1.47408,2.32623,0.799152,0.829925,0.756693,0.779224,4.79872,0.653252,42.0156,755.925
1406,78.1122,6.36418,9.16737,38.4173,1.58297,1.28935,1.00071,1.17664,1.47408,1.51192,1.66139,0.829925,0.473849,1.11132,3.8402,0.487123,41.7031,757.085
1434,66.7178,4.29164,8.66475,37.3288,0.268907,1.57797,0.826016,1.979,-0.323311,1.51192,0.799152,0.454973,0.756693,0.779224,3.8402,0.549421,40.5003,758.214
1462,72.3734,4.62513,7.92701,36.5329,1.39307,0.301978,0.575363,2.78136,2.37278,1.51192,1.66139,0.454973,0.473849,0.779224,2.88169,0.34176,37.4213,759.526
1483,67.6904,3.91941,7.64265,35.806,0.185354,0.332359,0.127225,2.78136,0.575384,3.14053,1.66139,0.829925,0.615271,1.11132,3.8402,0.0302687,0.0,759.753