File: 01_Data/Overstuffed_Sofa/Furniture_Calorimeter/Overstuffed_Sofa_R1.csv
Time (s),Convective HRR,TCPlume1,TCPlume2,TCPlume3,DPPlume1,DPPlume2,DPPlume3,HF1,HF2,HF3,HF4,HF5,HF6,RAD2,RAD1,Load Cell,Heat Release Rate,Total Heat Released
-119,0.0,6.57708,7.19988,20.5193,0.0298679,-0.0214982,0.012037,0.360384,0.50266,0.448558,0.745329,-0.301868,-0.292431,0.281084,0.964651,48.976,0.0,0.0
-95,0.0,4.77814,6.09012,20.2916,-0.0308979,0.0544536,-0.00315408,-1.24434,-0.396035,0.448558,-1.8414,-0.301868,-0.00958792,0.447131,0.964651,48.7891,0.0,0.0
-71,0.0,3.8976,4.82693,19.76,-0.0460893,-0.0139031,0.0348236,-1.24434,-0.396035,0.448558,-0.979157,0.0730839,-0.00958792,0.115037,0.964651,48.9552,0.0,0.0
-47,0.0,2.48098,4.32923,19.798,0.00708076,-0.0822598,0.0424192,0.360384,0.50266,0.448558,0.745329,-0.301868,0.131834,0.115037,0.964651,48.9552,0.0,0.0
-23,0.0,2.43158,4.01184,18.267,-0.0916636,0.0468585,-0.0107496,0.360384,-0.396035,1.26286,-0.116914,-0.301868,-0.00958792,0.447131,1.92317,48.976,0.0,0.0
1,0.0,2.62857,3.94082,18.1584,0.00708076,0.0240729,-0.0335363,0.360384,-0.396035,-0.365747,1.60757,0.448036,-0.00958792,0.115037,1.92317,48.976,0.0,0.0
25,0.0,1.98324,3.64007,17.7075,-0.053685,-0.120236,0.0272281,0.360384,0.50266,-0.365747,0.745329,-0.301868,-0.00958792,0.281084,0.964651,48.976,0.0,0.0
49,0.0,2.23459,3.54683,17.5007,-0.000514964,-0.00630787,-0.0335363,0.360384,-0.396035,-1.18005,-0.116914,0.822989,-0.15101,0.447131,1.92317,49.1629,0.0,0.0
73,0.0,0.889063,3.08181,17.6854,-0.0764722,-0.0290934,0.0348236,-1.24434,0.50266,-0.365747,-0.116914,0.822989,-0.00958792,0.115037,3.8402,49.1213,0.0,0.0
97,0.0,1.94436,3.29488,17.0601,0.234952,0.335476,-0.0563229,1.16275,-0.396035,-1.18005,1.60757,0.448036,0.273256,0.447131,0.00613451,49.1421,0.0,0.0
121,0.0,5.90922,3.27822,17.4241,0.781845,0.0316681,-0.0791095,1.16275,2.30005,1.26286,-0.116914,0.0730839,0.697521,0.779224,3.8402,48.976,56.7728,0.338445
145,0.0,4.51452,3.18498,18.4344,0.0222722,0.0392633,0.0196326,1.96511,2.30005,1.26286,1.60757,0.448036,0.414677,0.613177,1.92317,48.976,84.8851,1.77269
169,0.0,8.43379,3.54565,20.4257,1.78448,0.715235,0.0728014,6.77929,3.19875,3.70578,2.46981,1.19794,0.980364,1.27736,4.79872,48.4776,186.524,5.64867
193,86.3527,17.7307,9.65684,24.5445,2.04273,0.229143,0.179139,6.77929,5.89483,5.33438,2.46981,1.94785,1.40463,1.60946,6.71575,47.9377,947.357,17.2276
217,464.323,50.9435,33.7306,45.1991,3.25045,4.73309,0.817165,29.2455,19.3753,17.549,11.9545,7.19718,4.65733,5.09644,18.218,46.3179,1318.15,46.5268
241,703.911,62.0423,49.6712,76.8311,1.84525,1.21652,1.45519,38.8738,28.3622,25.692,17.1279,10.5718,6.49581,6.42481,20.135,44.0129,1752.36,81.974
265,1002.02,136.538,141.756,186.363,3.57707,4.46726,1.91852,52.514,28.3622,30.5778,25.7504,12.4465,8.19287,7.91923,34.5127,41.3548,1992.86,129.007
289,1135.19,163.811,196.374,272.707,5.66589,13.3688,6.75688,87.818,38.2479,41.1638,36.0973,18.8207,12.2941,11.5723,66.1438,38.6552,2602.79,181.324
313,1437.36,218.201,288.426,419.167,6.79766,7.03443,6.65814,101.458,47.2348,49.3068,42.133,26.3198,17.5267,16.3876,82.4386,34.6889,2730.28,245.323
337,1549.51,201.867,260.194,407.801,10.8918,7.20153,5.39728,89.4227,34.6531,37.9066,35.235,21.4454,14.5569,13.5648,78.6045,30.9095,2157.19,303.318
361,1352.91,174.5,224.664,357.565,3.91888,2.04439,7.59239,74.9802,26.5648,31.3921,28.3371,16.9459,11.8698,10.742,65.1853,27.6907,1991.36,351.906
385,1209.31,158.995,199.366,325.836,6.42547,6.09263,5.26056,60.5376,23.8687,24.8777,22.3014,14.6962,10.1728,9.24761,52.7246,24.9081,1802.24,396.798
409,1132.54,143.328,183.056,293.482,4.43539,9.83706,5.00231,47.6998,17.5779,18.3633,17.9902,11.6966,8.3343,7.58714,42.1809,22.4161,1329.05,434.806
433,932.98,130.234,158.745,259.229,2.27061,6.97367,4.92635,34.0597,13.0844,14.2917,11.0922,9.44689,6.21297,5.76063,31.6372,20.4226,1161.37,465.973
457,822.602,104.69,137.177,231.412,1.18442,3.28241,1.55393,25.2337,10.3883,11.0345,10.23,6.44727,4.79875,4.43225,22.052,18.5744,1037.14,493.636
481,749.942,89.7368,118.749,205.595,2.22503,4.05712,4.42505,19.6171,8.59092,8.5916,5.91879,4.94746,3.8088,3.43597,18.218,17.1,803.238,515.674
505,598.635,81.7502,101.146,181.982,2.04273,4.86221,3.18698,17.21,6.79353,6.96299,5.91879,4.57251,2.536,2.60574,15.3424,15.7502,708.995,534.565
529,511.525,68.5979,87.0945,162.844,1.79967,3.83686,2.55654,14.0006,6.79353,5.33438,4.1943,3.82261,2.39458,1.94155,11.5083,14.7534,569.795,549.965
553,411.592,59.1015,76.2158,144.149,4.66326,1.50513,2.17677,11.5935,6.79353,4.52008,2.46981,3.0727,1.8289,1.7755,12.4669,13.9228,528.059,562.941
577,365.225,58.4025,74.3461,132.161,2.93903,1.04183,2.22234,10.7911,4.99614,5.33438,2.46981,2.3228,1.97032,1.60946,9.5913,13.1129,466.931,574.351
601,317.234,54.066,66.5085,120.263,2.01235,1.07221,3.46801,9.98875,4.09744,4.52008,3.33206,2.69775,1.68747,1.60946,8.63279,12.1369,481.493,584.99
625,340.175,53.85,67.3945,114.195,2.30099,2.26465,4.88838,7.58166,4.99614,3.70578,3.33206,2.3228,1.40463,1.60946,7.67427,11.4516,407.285,595.846
649,289.806,52.7692,66.0995,110.209,2.54405,5.24197,3.28572,8.38402,4.09744,4.52008,2.46981,1.57289,1.26321,1.60946,7.67427,10.9325,327.554,604.978
673,251.526,48.7461,59.7493,105.249,2.4605,0.920305,4.35669,8.38402,4.09744,2.89147,4.1943,0.822989,1.26321,1.11132,6.71575,10.1018,340.041,613.101
697,260.047,48.9944,58.819,101.135,3.06816,1.62666,1.69065,7.58166,4.09744,3.70578,3.33206,1.94785,1.12179,1.27736,5.75724,9.62421,342.829,621.528
721,232.609,46.7724,56.2418,96.9659,1.12365,2.42415,4.14401,7.58166,4.09744,3.70578,2.46981,1.57289,1.12179,0.945271,5.75724,9.08429,305.418,629.261
745,189.991,39.2368,49.3866,91.7112,1.60978,2.80391,2.07043,5.97693,3.19875,2.89147,3.33206,1.19794,1.12179,1.11132,5.75724,8.41978,319.825,636.17
769,195.896,42.6039,51.9156,90.991,1.05529,2.1887,0.429792,6.77929,3.19875,3.70578,3.33206,1.57289,1.40463,1.11132,5.75724,8.12905,254.708,643.265
793,170.913,40.8711,50.3058,86.744,2.0959,3.79888,2.40463,7.58166,2.30005,2.89147,3.33206,1.57289,1.12179,1.27736,6.71575,7.65143,277.541,649.952
817,157.752,40.6951,50.3899,86.1298,0.971738,3.41153,3.58194,6.77929,2.30005,2.07717,2.46981,1.94785,1.40463,1.11132,6.71575,7.15304,278.152,656.029
841,192.135,44.1856,53.8189,86.8222,1.88322,2.84948,3.11102,6.77929,3.19875,3.70578,3.33206,2.3228,1.12179,1.11132,6.71575,6.63389,277.952,662.563
865,177.843,40.2319,52.295,85.1959,2.4605,2.70517,3.01228,5.97693,4.09744,4.52008,2.46981,1.94785,1.54605,1.7755,6.71575,6.3224,255.122,669.475
889,149.528,37.3484,48.1062,82.139,2.43012,2.12794,2.07043,5.97693,4.09744,2.89147,4.1943,1.94785,1.40463,1.27736,5.75724,5.96938,229.066,675.804
913,143.967,40.87,49.75,82.5213,1.68574,2.47732,1.6147,7.58166,4.09744,4.52008,3.33206,2.3228,1.54605,1.27736,6.71575,5.53329,227.446,681.625
937,112.574,37.8014,48.4812,81.7035,4.30626,4.94576,4.70608,6.77929,3.19875,2.89147,2.46981,1.94785,1.40463,1.27736,5.75724,4.9726,206.726,686.866
961,111.497,36.0341,45.4688,79.5652,2.65039,2.74315,2.98949,6.77929,0.50266,2.89147,3.33206,1.57289,1.40463,1.44341,6.71575,4.68188,195.981,691.672
985,104.318,34.4404,43.5165,77.7101,0.865398,3.40393,1.36404,5.97693,0.50266,2.89147,2.46981,1.19794,1.12179,0.945271,5.75724,4.30809,141.813,695.947
1009,81.229,29.5812,39.5177,74.3571,3.85811,2.78113,2.01726,5.97693,3.19875,2.89147,2.46981,1.19794,1.26321,1.27736,5.75724,4.12119,133.192,699.198
1033,58.7772,27.9887,36.5575,70.9725,1.63257,2.0292,1.88814,5.17456,1.40136,2.07717,3.33206,1.19794,1.12179,1.11132,4.79872,3.83047,112.438,702.119
1057,53.3871,25.9999,32.8604,68.8182,0.713483,4.0875,1.50836,5.97693,2.30005,2.89147,2.46981,1.94785,0.838943,0.945271,5.75724,3.64357,98.1298,704.611
1081,35.5995,24.202,31.7502,65.7506,0.78944,0.775997,1.88054,5.97693,2.30005,2.07717,1.60757,1.57289,1.12179,1.11132,3.8402,3.33208,109.762,707.19
1105,37.9134,21.5027,29.559,64.5282,2.27061,2.0368,5.0175,5.17456,2.30005,2.89147,1.60757,1.57289,1.12179,0.945271,3.8402,2.95829,77.074,709.577
1129,16.3152,18.965,26.6247,60.9684,1.08567,1.82413,1.69825,4.3722,2.30005,2.07717,2.46981,1.19794,1.12179,1.11132,3.8402,2.62603,75.7379,711.716
1153,12.5685,18.4055,25.2002,57.7404,1.88322,1.00385,0.733614,4.3722,3.19875,2.07717,1.60757,1.57289,0.980364,1.27736,4.79872,2.6468,94.1437,713.46
1177,10.5152,16.2207,24.1631,55.9193,1.33633,1.5659,0.703232,3.56984,2.30005,0.448558,0.745329,0.822989,0.838943,1.11132,3.8402,2.31454,60.4021,715.283
1201,2.33194,16.2311,21.8641,53.2,1.28316,1.14816,0.726018,4.3722,1.40136,2.89147,1.60757,1.19794,1.12179,0.779224,3.8402,2.27301,60.6214,716.789
1225,0.0,15.4855,20.2873,51.6644,0.918568,0.563331,0.665254,5.17456,1.40136,2.89147,1.60757,1.94785,0.838943,1.11132,2.88169,2.16918,38.0599,718.141
1249,0.0,13.1269,17.0242,47.9328,0.189378,0.32788,0.095588,2.76747,1.40136,2.07717,1.60757,1.19794,0.697521,0.945271,2.88169,1.98228,34.0155,719.226
1273,0.0,11.3106,16.0124,46.4288,0.136208,0.0164777,0.0728014,3.56984,0.50266,0.448558,1.60757,1.19794,0.838943,0.779224,3.8402,1.83692,47.4515,720.064
1297,0.0,10.7045,15.5985,45.3207,0.500803,0.578522,0.19433,4.3722,2.30005,2.07717,1.60757,0.822989,0.556099,0.945271,3.8402,1.65003,22.0172,720.901
1321,0.0,9.74858,15.7122,44.3177,0.57676,0.274714,0.293072,4.3722,1.40136,2.89147,2.46981,1.19794,0.838943,0.779224,3.8402,1.65003,19.3318,721.599
1345,0.0,10.5616,14.2365,42.8784,0.402058,0.426618,0.285477,2.76747,1.40136,2.07717,2.46981,0.822989,0.697521,0.613177,2.88169,1.25547,21.4853,722.247
1369,0.0,9.15802,12.9884,40.8416,0.333697,0.601307,2.59452,3.56984,2.30005,2.07717,2.46981,1.19794,0.838943,0.613177,4.79872,1.33853,24.2484,722.522
1393,0.0,8.70419,12.1156,40.0266,0.212165,1.74059,0.619681,1.96511,3.19875,1.26286,0.745329,1.19794,0.131834,0.779224,2.88169,0.964743,21.7636,722.916
1417,0.0,8.54517,12.1477,39.1257,0.462824,0.2975,0.505747,2.76747,-0.396035,1.26286,2.46981,0.822989,0.838943,0.945271,3.8402,0.798615,9.34597,723.312
1441,0.0,8.92703,11.6126,38.1548,0.272931,0.593712,0.391814,1.96511,1.40136,2.07717,2.46981,0.822989,0.697521,0.779224,4.79872,0.819381,0.0,723.377
1465,0.0,7.33672,10.8648,36.7881,1.27557,0.958281,-0.0411318,1.96511,1.40136,1.26286,1.60757,1.19794,0.697521,0.613177,4.79872,0.840147,6.73213,723.465
1483,0.0,7.53303,10.4113,36.1946,1.17682,0.760806,1.50076,4.3722,2.30005,1.26286,2.46981,1.19794,0.697521,1.11132,3.8402,0.840147,0.0,723.495