File: 01_Data/Rubber_Band/Cone/Rubber_Band_HRRPUA_35.csv
Time after Ignition,Rubber_Band_R1,Mean,Std. Dev.
0.0,5.5,5.5,
1.25,12.3,12.3,
2.5,35.1,35.1,
3.75,60.7,60.7,
5.0,89.3,89.3,
6.25,116.2,116.2,
7.5,148.5,148.5,
8.75,184.8,184.8,
10.0,213.7,213.7,
11.25,244.6,244.6,
12.5,266.0,266.0,
13.75,282.3,282.3,
15.0,301.0,301.0,
16.25,318.5,318.5,
17.5,343.1,343.1,
18.75,369.9,369.9,
20.0,385.9,385.9,
21.25,411.8,411.8,
22.5,437.1,437.1,
23.75,431.4,431.4,
25.0,438.2,438.2,
26.25,454.6,454.6,
27.5,442.3,442.3,
28.75,449.1,449.1,
30.0,456.1,456.1,
31.25,448.4,448.4,
32.5,446.0,446.0,
33.75,458.4,458.4,
35.0,451.7,451.7,
36.25,443.6,443.6,
37.5,444.8,444.8,
38.75,442.9,442.9,
40.0,446.3,446.3,
41.25,433.2,433.2,
42.5,423.0,423.0,
43.75,420.4,420.4,
45.0,418.5,418.5,
46.25,408.0,408.0,
47.5,398.5,398.5,
48.75,381.8,381.8,
50.0,397.0,397.0,
51.25,384.9,384.9,
52.5,386.2,386.2,
53.75,385.8,385.8,
55.0,380.0,380.0,
56.25,368.8,368.8,
57.5,354.6,354.6,
58.75,352.3,352.3,
60.0,350.6,350.6,
61.25,347.4,347.4,
62.5,343.5,343.5,
63.75,332.5,332.5,
65.0,331.6,331.6,
66.25,311.6,311.6,
67.5,307.3,307.3,
68.75,296.6,296.6,
70.0,287.3,287.3,
71.25,274.5,274.5,
72.5,264.9,264.9,
73.75,249.3,249.3,
75.0,249.1,249.1,
76.25,236.5,236.5,
77.5,227.4,227.4,
78.75,219.0,219.0,
80.0,209.4,209.4,
81.25,196.0,196.0,
82.5,190.0,190.0,
83.75,180.5,180.5,
85.0,178.0,178.0,
86.25,174.5,174.5,
87.5,166.2,166.2,
88.75,161.8,161.8,
90.0,156.6,156.6,
91.25,154.1,154.1,
92.5,150.5,150.5,
93.75,143.9,143.9,
95.0,142.6,142.6,
96.25,138.0,138.0,
97.5,138.6,138.6,
98.75,134.9,134.9,
100.0,134.9,134.9,
101.25,131.9,131.9,
102.5,130.9,130.9,
103.75,128.5,128.5,
105.0,125.5,125.5,
106.25,124.2,124.2,
107.5,124.1,124.1,
108.75,121.2,121.2,
110.0,118.4,118.4,
111.25,118.3,118.3,
112.5,118.2,118.2,
113.75,116.0,116.0,
115.0,113.8,113.8,
116.25,111.3,111.3,
117.5,110.4,110.4,
118.75,108.1,108.1,
120.0,106.6,106.6,
121.25,102.9,102.9,
122.5,99.7,99.7,
123.75,99.0,99.0,
125.0,97.2,97.2,
126.25,95.6,95.6,
127.5,96.7,96.7,
128.75,91.1,91.1,
130.0,91.4,91.4,
131.25,89.7,89.7,
132.5,88.2,88.2,
133.75,87.1,87.1,
135.0,83.8,83.8,
136.25,82.6,82.6,
137.5,82.3,82.3,
138.75,80.0,80.0,
140.0,78.4,78.4,
141.25,78.1,78.1,
142.5,76.0,76.0,
143.75,73.8,73.8,
145.0,72.2,72.2,
146.25,71.4,71.4,
147.5,70.7,70.7,
148.75,69.1,69.1,
150.0,67.6,67.6,
151.25,67.6,67.6,
152.5,66.7,66.7,
153.75,66.6,66.6,
155.0,64.7,64.7,
156.25,63.6,63.6,
157.5,64.1,64.1,
158.75,63.3,63.3,
160.0,61.9,61.9,
161.25,62.0,62.0,
162.5,61.8,61.8,
163.75,59.1,59.1,
165.0,58.6,58.6,
166.25,57.7,57.7,
167.5,56.5,56.5,
168.75,54.8,54.8,
170.0,54.8,54.8,
171.25,54.0,54.0,
172.5,52.4,52.4,
173.75,52.6,52.6,
175.0,51.4,51.4,
176.25,50.8,50.8,
177.5,50.4,50.4,
178.75,48.8,48.8,
180.0,47.8,47.8,
181.25,47.5,47.5,
182.5,47.1,47.1,
183.75,46.7,46.7,
185.0,46.6,46.6,
186.25,45.2,45.2,
187.5,45.8,45.8,
188.75,45.6,45.6,
190.0,45.0,45.0,
191.25,43.5,43.5,
192.5,43.4,43.4,
193.75,43.8,43.8,
195.0,43.1,43.1,
196.25,42.1,42.1,
197.5,42.4,42.4,
198.75,41.3,41.3,
200.0,40.9,40.9,
201.25,40.2,40.2,
202.5,39.7,39.7,
203.75,39.4,39.4,
205.0,39.4,39.4,
206.25,39.2,39.2,
207.5,38.4,38.4,
208.75,38.6,38.6,
210.0,38.7,38.7,
211.25,38.1,38.1,
212.5,38.7,38.7,
213.75,39.0,39.0,
215.0,38.3,38.3,
216.25,38.2,38.2,
217.5,38.0,38.0,
218.75,37.2,37.2,
220.0,36.7,36.7,
221.25,36.7,36.7,
222.5,36.3,36.3,
223.75,36.6,36.6,
225.0,35.7,35.7,
226.25,34.9,34.9,
227.5,34.4,34.4,
228.75,34.5,34.5,
230.0,34.5,34.5,
231.25,34.8,34.8,
232.5,34.7,34.7,
233.75,34.8,34.8,
235.0,34.8,34.8,
236.25,34.2,34.2,
237.5,34.5,34.5,
238.75,34.0,34.0,
240.0,34.1,34.1,
241.25,33.7,33.7,
242.5,32.9,32.9,
243.75,33.3,33.3,
245.0,32.2,32.2,
246.25,32.1,32.1,
247.5,31.5,31.5,
248.75,30.7,30.7,
250.0,30.4,30.4,
251.25,29.6,29.6,
252.5,29.3,29.3,
253.75,29.2,29.2,
255.0,29.8,29.8,
256.25,30.1,30.1,
257.5,29.9,29.9,
258.75,30.0,30.0,
260.0,29.5,29.5,
261.25,29.5,29.5,
262.5,28.9,28.9,
263.75,28.7,28.7,
265.0,28.7,28.7,
266.25,28.0,28.0,
267.5,28.2,28.2,
268.75,28.2,28.2,
270.0,27.6,27.6,
271.25,27.6,27.6,
272.5,27.5,27.5,
273.75,27.6,27.6,
275.0,27.4,27.4,
276.25,27.4,27.4,
277.5,27.2,27.2,
278.75,27.5,27.5,
280.0,27.3,27.3,
281.25,27.3,27.3,
282.5,27.6,27.6,
283.75,27.0,27.0,
285.0,25.7,25.7,
286.25,25.4,25.4,
287.5,25.3,25.3,
288.75,25.1,25.1,
290.0,24.9,24.9,
291.25,24.6,24.6,
292.5,24.7,24.7,
293.75,24.8,24.8,
295.0,24.4,24.4,
296.25,23.8,23.8,
297.5,23.3,23.3,
298.75,23.2,23.2,
300.0,22.9,22.9,
301.25,22.6,22.6,
302.5,22.3,22.3,
303.75,22.1,22.1,
305.0,21.9,21.9,
306.25,21.9,21.9,
307.5,22.1,22.1,
308.75,22.8,22.8,
310.0,23.2,23.2,
311.25,23.8,23.8,
312.5,23.3,23.3,
312.75,23.0,23.0,