File: 01_Data/Rubber_Band/Cone/Rubber_Band_HRRPUA_75.csv
Time after Ignition,Rubber_Band_R1,Mean,Std. Dev.
0.0,13.2,13.2,
0.75,30.0,30.0,
1.5,58.1,58.1,
2.25,84.6,84.6,
3.0,121.9,121.9,
3.75,152.3,152.3,
4.5,179.0,179.0,
5.25,213.4,213.4,
6.0,228.7,228.7,
6.75,253.5,253.5,
7.5,290.4,290.4,
8.25,334.5,334.5,
9.0,364.5,364.5,
9.75,383.8,383.8,
10.5,432.1,432.1,
11.25,462.3,462.3,
12.0,495.9,495.9,
12.75,537.0,537.0,
13.5,561.5,561.5,
14.25,560.3,560.3,
15.0,622.0,622.0,
15.75,620.6,620.6,
16.5,622.9,622.9,
17.25,676.1,676.1,
18.0,686.8,686.8,
18.75,683.6,683.6,
19.5,688.0,688.0,
20.25,732.7,732.7,
21.0,682.5,682.5,
21.75,722.0,722.0,
22.5,698.3,698.3,
23.25,699.5,699.5,
24.0,687.5,687.5,
24.75,685.5,685.5,
25.5,710.4,710.4,
26.25,689.3,689.3,
27.0,669.3,669.3,
27.75,685.5,685.5,
28.5,681.6,681.6,
29.25,695.7,695.7,
30.0,704.0,704.0,
30.75,687.5,687.5,
31.5,691.4,691.4,
32.25,669.9,669.9,
33.0,686.6,686.6,
33.75,707.3,707.3,
34.5,642.7,642.7,
35.25,666.3,666.3,
36.0,632.2,632.2,
36.75,621.1,621.1,
37.5,617.9,617.9,
38.25,616.4,616.4,
39.0,587.0,587.0,
39.75,588.4,588.4,
40.5,563.2,563.2,
41.25,544.0,544.0,
42.0,518.4,518.4,
42.75,479.0,479.0,
43.5,446.3,446.3,
44.25,437.7,437.7,
45.0,416.6,416.6,
45.75,389.6,389.6,
46.5,371.5,371.5,
47.25,361.1,361.1,
48.0,332.9,332.9,
48.75,311.8,311.8,
49.5,295.3,295.3,
50.25,272.7,272.7,
51.0,258.0,258.0,
51.75,244.0,244.0,
52.5,229.2,229.2,
53.25,226.3,226.3,
54.0,215.0,215.0,
54.75,209.8,209.8,
55.5,201.4,201.4,
56.25,195.4,195.4,
57.0,191.3,191.3,
57.75,182.2,182.2,
58.5,183.9,183.9,
59.25,177.9,177.9,
60.0,178.6,178.6,
60.75,173.7,173.7,
61.5,176.7,176.7,
62.25,171.2,171.2,
63.0,170.0,170.0,
63.75,169.7,169.7,
64.5,168.6,168.6,
65.25,168.8,168.8,
66.0,167.1,167.1,
66.75,165.4,165.4,
67.5,166.6,166.6,
68.25,162.9,162.9,
69.0,162.2,162.2,
69.75,160.0,160.0,
70.5,161.2,161.2,
71.25,156.8,156.8,
72.0,155.0,155.0,
72.75,154.8,154.8,
73.5,153.3,153.3,
74.25,151.5,151.5,
75.0,150.4,150.4,
75.75,148.5,148.5,
76.5,151.9,151.9,
77.25,149.3,149.3,
78.0,149.4,149.4,
78.75,150.6,150.6,
79.5,147.3,147.3,
80.25,148.5,148.5,
81.0,147.0,147.0,
81.75,147.3,147.3,
82.5,147.5,147.5,
83.25,147.7,147.7,
84.0,149.4,149.4,
84.75,152.2,152.2,
85.5,147.3,147.3,
86.25,150.4,150.4,
87.0,149.9,149.9,
87.75,151.2,151.2,
88.5,149.7,149.7,
89.25,148.4,148.4,
90.0,146.3,146.3,
90.75,146.9,146.9,
91.5,147.2,147.2,
92.25,145.3,145.3,
93.0,144.2,144.2,
93.75,142.4,142.4,
94.5,141.4,141.4,
95.25,141.2,141.2,
96.0,139.2,139.2,
96.75,139.0,139.0,
97.5,135.2,135.2,
98.25,131.3,131.3,
99.0,129.4,129.4,
99.75,128.0,128.0,
100.5,123.9,123.9,
101.25,122.5,122.5,
102.0,120.2,120.2,
102.75,116.7,116.7,
103.5,114.9,114.9,
104.25,113.9,113.9,
105.0,113.3,113.3,
105.75,110.2,110.2,
106.5,108.3,108.3,
107.25,106.0,106.0,
108.0,101.5,101.5,
108.75,100.9,100.9,
109.5,100.2,100.2,
110.25,99.7,99.7,
111.0,97.1,97.1,
111.75,95.6,95.6,
112.5,94.1,94.1,
113.25,92.7,92.7,
114.0,92.6,92.6,
114.75,87.9,87.9,
115.5,88.6,88.6,
116.25,88.9,88.9,
117.0,86.1,86.1,
117.75,85.7,85.7,
118.5,85.7,85.7,
119.25,83.2,83.2,
120.0,80.2,80.2,
120.75,79.4,79.4,
121.5,77.8,77.8,
122.25,77.1,77.1,
123.0,76.4,76.4,
123.75,75.1,75.1,
124.5,73.3,73.3,
125.25,73.0,73.0,
126.0,72.1,72.1,
126.75,71.0,71.0,
127.5,69.9,69.9,
128.25,70.1,70.1,
129.0,69.1,69.1,
129.75,67.0,67.0,
130.5,67.6,67.6,
131.25,66.7,66.7,
132.0,65.2,65.2,
132.75,65.1,65.1,
133.5,63.0,63.0,
134.25,63.0,63.0,
135.0,61.9,61.9,
135.75,60.4,60.4,
136.5,59.3,59.3,
137.25,58.6,58.6,
138.0,58.0,58.0,
138.75,55.8,55.8,
139.5,55.3,55.3,
140.25,54.8,54.8,
141.0,53.1,53.1,
141.75,52.7,52.7,
142.5,51.3,51.3,
143.25,50.7,50.7,
144.0,50.4,50.4,
144.75,48.9,48.9,
145.5,48.3,48.3,
146.25,47.2,47.2,
147.0,46.6,46.6,
147.75,45.2,45.2,
148.5,45.5,45.5,
149.25,44.9,44.9,
150.0,44.4,44.4,
150.75,44.1,44.1,
151.5,43.6,43.6,
152.25,42.9,42.9,
153.0,42.7,42.7,
153.75,41.8,41.8,
154.5,41.3,41.3,
155.25,41.3,41.3,
156.0,41.1,41.1,
156.75,41.2,41.2,
157.5,40.3,40.3,
158.25,40.8,40.8,
159.0,40.4,40.4,
159.75,40.9,40.9,
160.5,39.9,39.9,
161.25,39.0,39.0,
162.0,39.1,39.1,
162.75,39.0,39.0,
163.5,38.2,38.2,
164.25,38.1,38.1,
165.0,38.7,38.7,
165.75,38.2,38.2,
166.5,38.2,38.2,
167.25,37.9,37.9,
168.0,37.8,37.8,
168.75,38.1,38.1,
169.5,38.4,38.4,
170.25,37.8,37.8,
171.0,37.8,37.8,
171.75,37.4,37.4,
172.5,37.5,37.5,
173.25,37.2,37.2,
174.0,37.3,37.3,
174.75,37.3,37.3,
175.5,36.6,36.6,
176.25,37.4,37.4,
177.0,36.3,36.3,
177.75,36.1,36.1,
178.5,35.0,35.0,
179.25,35.6,35.6,
180.0,35.9,35.9,
180.75,35.4,35.4,
181.5,34.9,34.9,
182.25,35.2,35.2,
183.0,35.0,35.0,
183.75,35.1,35.1,
184.25,34.4,34.4,