File: 01_Data/Rubber_Band/Cone/Rubber_Band_HRRPUA_50.csv
Time after Ignition,Rubber_Band_R1,Mean,Std. Dev.
0.0,13.4,13.4,
0.75,22.8,22.8,
1.5,37.0,37.0,
2.25,54.7,54.7,
3.0,78.8,78.8,
3.75,105.1,105.1,
4.5,136.0,136.0,
5.25,160.7,160.7,
6.0,183.2,183.2,
6.75,209.5,209.5,
7.5,231.1,231.1,
8.25,253.3,253.3,
9.0,273.8,273.8,
9.75,299.6,299.6,
10.5,324.8,324.8,
11.25,356.8,356.8,
12.0,379.6,379.6,
12.75,402.0,402.0,
13.5,432.5,432.5,
14.25,429.4,429.4,
15.0,451.8,451.8,
15.75,466.3,466.3,
16.5,477.4,477.4,
17.25,506.7,506.7,
18.0,519.0,519.0,
18.75,537.2,537.2,
19.5,552.8,552.8,
20.25,553.2,553.2,
21.0,545.8,545.8,
21.75,589.9,589.9,
22.5,575.1,575.1,
23.25,574.1,574.1,
24.0,580.5,580.5,
24.75,607.1,607.1,
25.5,572.9,572.9,
26.25,586.6,586.6,
27.0,581.9,581.9,
27.75,576.3,576.3,
28.5,570.6,570.6,
29.25,570.7,570.7,
30.0,588.9,588.9,
30.75,570.6,570.6,
31.5,552.5,552.5,
32.25,561.7,561.7,
33.0,551.5,551.5,
33.75,549.7,549.7,
34.5,535.9,535.9,
35.25,540.1,540.1,
36.0,544.6,544.6,
36.75,555.6,555.6,
37.5,537.4,537.4,
38.25,554.2,554.2,
39.0,540.7,540.7,
39.75,543.9,543.9,
40.5,543.8,543.8,
41.25,547.2,547.2,
42.0,511.9,511.9,
42.75,525.0,525.0,
43.5,508.9,508.9,
44.25,505.2,505.2,
45.0,509.3,509.3,
45.75,495.6,495.6,
46.5,488.9,488.9,
47.25,484.3,484.3,
48.0,472.2,472.2,
48.75,470.1,470.1,
49.5,455.2,455.2,
50.25,449.0,449.0,
51.0,442.1,442.1,
51.75,431.3,431.3,
52.5,407.3,407.3,
53.25,390.1,390.1,
54.0,378.1,378.1,
54.75,370.4,370.4,
55.5,350.7,350.7,
56.25,337.2,337.2,
57.0,330.6,330.6,
57.75,312.4,312.4,
58.5,307.0,307.0,
59.25,294.7,294.7,
60.0,282.7,282.7,
60.75,271.3,271.3,
61.5,260.7,260.7,
62.25,250.7,250.7,
63.0,241.4,241.4,
63.75,233.1,233.1,
64.5,220.9,220.9,
65.25,207.5,207.5,
66.0,200.5,200.5,
66.75,190.6,190.6,
67.5,188.4,188.4,
68.25,181.9,181.9,
69.0,180.2,180.2,
69.75,174.0,174.0,
70.5,171.1,171.1,
71.25,169.0,169.0,
72.0,164.9,164.9,
72.75,164.5,164.5,
73.5,159.8,159.8,
74.25,158.0,158.0,
75.0,154.4,154.4,
75.75,156.3,156.3,
76.5,155.9,155.9,
77.25,154.5,154.5,
78.0,150.8,150.8,
78.75,152.2,152.2,
79.5,148.6,148.6,
80.25,149.8,149.8,
81.0,149.5,149.5,
81.75,147.9,147.9,
82.5,149.1,149.1,
83.25,149.2,149.2,
84.0,149.7,149.7,
84.75,146.6,146.6,
85.5,146.8,146.8,
86.25,146.9,146.9,
87.0,148.1,148.1,
87.75,147.6,147.6,
88.5,147.8,147.8,
89.25,147.9,147.9,
90.0,148.4,148.4,
90.75,147.6,147.6,
91.5,146.7,146.7,
92.25,146.3,146.3,
93.0,149.1,149.1,
93.75,147.1,147.1,
94.5,148.0,148.0,
95.25,146.8,146.8,
96.0,143.0,143.0,
96.75,143.5,143.5,
97.5,141.1,141.1,
98.25,140.5,140.5,
99.0,140.6,140.6,
99.75,139.2,139.2,
100.5,138.5,138.5,
101.25,135.9,135.9,
102.0,134.9,134.9,
102.75,133.1,133.1,
103.5,129.4,129.4,
104.25,130.8,130.8,
105.0,126.7,126.7,
105.75,128.3,128.3,
106.5,127.9,127.9,
107.25,126.4,126.4,
108.0,127.7,127.7,
108.75,124.0,124.0,
109.5,122.9,122.9,
110.25,122.4,122.4,
111.0,122.7,122.7,
111.75,120.6,120.6,
112.5,120.5,120.5,
113.25,120.1,120.1,
114.0,117.8,117.8,
114.75,115.1,115.1,
115.5,112.4,112.4,
116.25,112.8,112.8,
117.0,109.1,109.1,
117.75,107.3,107.3,
118.5,103.8,103.8,
119.25,102.9,102.9,
120.0,100.6,100.6,
120.75,99.5,99.5,
121.5,97.9,97.9,
122.25,96.2,96.2,
123.0,93.5,93.5,
123.75,92.3,92.3,
124.5,90.7,90.7,
125.25,87.9,87.9,
126.0,89.5,89.5,
126.75,84.6,84.6,
127.5,82.8,82.8,
128.25,82.5,82.5,
129.0,80.0,80.0,
129.75,78.0,78.0,
130.5,76.3,76.3,
131.25,75.3,75.3,
132.0,73.3,73.3,
132.75,72.8,72.8,
133.5,72.1,72.1,
134.25,69.2,69.2,
135.0,69.4,69.4,
135.75,67.2,67.2,
136.5,65.9,65.9,
137.25,64.8,64.8,
138.0,62.4,62.4,
138.75,61.8,61.8,
139.5,59.1,59.1,
140.25,59.3,59.3,
141.0,58.4,58.4,
141.75,59.2,59.2,
142.5,57.7,57.7,
143.25,55.4,55.4,
144.0,55.5,55.5,
144.75,53.8,53.8,
145.5,51.8,51.8,
146.25,51.8,51.8,
147.0,50.8,50.8,
147.75,49.8,49.8,
148.5,49.1,49.1,
149.25,48.5,48.5,
150.0,47.1,47.1,
150.75,47.3,47.3,
151.5,46.7,46.7,
152.25,46.4,46.4,
153.0,44.9,44.9,
153.75,44.6,44.6,
154.5,44.5,44.5,
155.25,44.4,44.4,
156.0,43.3,43.3,
156.75,43.1,43.1,
157.5,42.8,42.8,
158.25,41.8,41.8,
159.0,41.9,41.9,
159.75,40.6,40.6,
160.5,40.5,40.5,
161.25,39.5,39.5,
162.0,38.7,38.7,
162.75,38.5,38.5,
163.5,37.8,37.8,
164.25,37.2,37.2,
165.0,36.8,36.8,
165.75,36.0,36.0,
166.5,35.8,35.8,
167.25,35.3,35.3,
168.0,34.3,34.3,
168.75,34.2,34.2,
169.5,33.7,33.7,
170.25,33.2,33.2,
171.0,33.1,33.1,
171.75,33.1,33.1,
172.5,32.4,32.4,
173.25,32.9,32.9,
174.0,31.9,31.9,
174.75,31.4,31.4,
175.5,31.1,31.1,
176.0,30.8,30.8,