File: 01_Data/Rubber_Band/Cone/Rubber_Band_HRRPUA_25.csv
Time after Ignition,Rubber_Band_R1,Mean,Std. Dev.
0.0,8.1,8.1,
1.25,17.3,17.3,
2.5,38.0,38.0,
3.75,66.5,66.5,
5.0,98.6,98.6,
6.25,132.4,132.4,
7.5,156.7,156.7,
8.75,177.0,177.0,
10.0,200.0,200.0,
11.25,216.2,216.2,
12.5,238.6,238.6,
13.75,256.4,256.4,
15.0,279.9,279.9,
16.25,297.2,297.2,
17.5,316.3,316.3,
18.75,336.7,336.7,
20.0,357.4,357.4,
21.25,373.8,373.8,
22.5,382.3,382.3,
23.75,389.9,389.9,
25.0,415.7,415.7,
26.25,403.4,403.4,
27.5,399.3,399.3,
28.75,405.9,405.9,
30.0,414.7,414.7,
31.25,407.2,407.2,
32.5,402.0,402.0,
33.75,412.0,412.0,
35.0,400.0,400.0,
36.25,406.5,406.5,
37.5,408.1,408.1,
38.75,412.1,412.1,
40.0,414.1,414.1,
41.25,403.9,403.9,
42.5,399.1,399.1,
43.75,401.6,401.6,
45.0,395.1,395.1,
46.25,390.2,390.2,
47.5,394.9,394.9,
48.75,387.3,387.3,
50.0,391.4,391.4,
51.25,388.2,388.2,
52.5,373.0,373.0,
53.75,379.8,379.8,
55.0,368.4,368.4,
56.25,365.6,365.6,
57.5,354.9,354.9,
58.75,345.0,345.0,
60.0,336.7,336.7,
61.25,320.9,320.9,
62.5,320.3,320.3,
63.75,316.3,316.3,
65.0,305.9,305.9,
66.25,297.7,297.7,
67.5,286.9,286.9,
68.75,274.7,274.7,
70.0,263.6,263.6,
71.25,251.9,251.9,
72.5,246.2,246.2,
73.75,231.4,231.4,
75.0,224.7,224.7,
76.25,216.5,216.5,
77.5,208.8,208.8,
78.75,200.8,200.8,
80.0,193.2,193.2,
81.25,181.0,181.0,
82.5,174.2,174.2,
83.75,165.9,165.9,
85.0,160.4,160.4,
86.25,155.1,155.1,
87.5,153.2,153.2,
88.75,147.7,147.7,
90.0,141.5,141.5,
91.25,137.2,137.2,
92.5,136.8,136.8,
93.75,127.9,127.9,
95.0,126.2,126.2,
96.25,121.7,121.7,
97.5,116.7,116.7,
98.75,115.1,115.1,
100.0,111.1,111.1,
101.25,109.2,109.2,
102.5,106.2,106.2,
103.75,104.7,104.7,
105.0,102.5,102.5,
106.25,103.2,103.2,
107.5,100.3,100.3,
108.75,97.7,97.7,
110.0,98.8,98.8,
111.25,97.5,97.5,
112.5,96.6,96.6,
113.75,96.9,96.9,
115.0,95.8,95.8,
116.25,94.6,94.6,
117.5,93.6,93.6,
118.75,92.6,92.6,
120.0,92.9,92.9,
121.25,90.8,90.8,
122.5,92.2,92.2,
123.75,90.1,90.1,
125.0,89.2,89.2,
126.25,86.5,86.5,
127.5,85.6,85.6,
128.75,86.4,86.4,
130.0,83.5,83.5,
131.25,84.9,84.9,
132.5,82.9,82.9,
133.75,82.6,82.6,
135.0,81.8,81.8,
136.25,80.4,80.4,
137.5,81.3,81.3,
138.75,80.8,80.8,
140.0,78.6,78.6,
141.25,79.5,79.5,
142.5,77.9,77.9,
143.75,77.6,77.6,
145.0,76.6,76.6,
146.25,76.5,76.5,
147.5,77.2,77.2,
148.75,74.7,74.7,
150.0,75.3,75.3,
151.25,74.4,74.4,
152.5,73.5,73.5,
153.75,72.2,72.2,
155.0,71.6,71.6,
156.25,72.6,72.6,
157.5,69.5,69.5,
158.75,68.9,68.9,
160.0,68.8,68.8,
161.25,67.4,67.4,
162.5,67.1,67.1,
163.75,65.8,65.8,
165.0,64.7,64.7,
166.25,64.6,64.6,
167.5,63.2,63.2,
168.75,63.9,63.9,
170.0,62.5,62.5,
171.25,62.4,62.4,
172.5,63.3,63.3,
173.75,63.0,63.0,
175.0,61.0,61.0,
176.25,60.5,60.5,
177.5,60.2,60.2,
178.75,60.2,60.2,
180.0,58.8,58.8,
181.25,60.0,60.0,
182.5,59.1,59.1,
183.75,59.5,59.5,
185.0,58.2,58.2,
186.25,57.2,57.2,
187.5,57.8,57.8,
188.75,57.3,57.3,
190.0,56.6,56.6,
191.25,57.1,57.1,
192.5,56.5,56.5,
193.75,55.8,55.8,
195.0,54.4,54.4,
196.25,54.3,54.3,
197.5,53.2,53.2,
198.75,53.9,53.9,
200.0,52.8,52.8,
201.25,52.7,52.7,
202.5,53.0,53.0,
203.75,51.5,51.5,
205.0,51.1,51.1,
206.25,50.2,50.2,
207.5,48.5,48.5,
208.75,49.1,49.1,
210.0,49.4,49.4,
211.25,47.7,47.7,
212.5,47.2,47.2,
213.75,47.5,47.5,
215.0,47.9,47.9,
216.25,47.1,47.1,
217.5,46.9,46.9,
218.75,46.6,46.6,
220.0,44.9,44.9,
221.25,44.9,44.9,
222.5,44.3,44.3,
223.75,43.9,43.9,
225.0,43.8,43.8,
226.25,44.2,44.2,
227.5,43.8,43.8,
228.75,43.0,43.0,
230.0,43.0,43.0,
231.25,42.9,42.9,
232.5,43.1,43.1,
233.75,42.6,42.6,
235.0,42.9,42.9,
236.25,42.5,42.5,
237.5,42.1,42.1,
238.75,42.4,42.4,
240.0,42.8,42.8,
241.25,41.7,41.7,
242.5,41.2,41.2,
243.75,39.7,39.7,
245.0,39.8,39.8,
246.25,39.6,39.6,
247.5,38.9,38.9,
248.75,39.2,39.2,
250.0,38.2,38.2,
251.25,38.0,38.0,
252.5,37.3,37.3,
253.75,36.9,36.9,
255.0,36.5,36.5,
256.25,36.4,36.4,
257.5,35.8,35.8,
258.75,35.6,35.6,
260.0,35.3,35.3,
261.25,34.9,34.9,
262.5,35.0,35.0,
263.75,35.1,35.1,
265.0,34.5,34.5,
266.25,35.0,35.0,
267.5,34.8,34.8,
268.75,34.5,34.5,
270.0,34.4,34.4,
271.25,33.7,33.7,
272.5,33.7,33.7,
273.75,33.1,33.1,
275.0,33.2,33.2,
276.25,32.9,32.9,
277.5,32.5,32.5,
278.75,32.5,32.5,
280.0,32.5,32.5,
281.25,32.7,32.7,
282.5,32.8,32.8,
283.75,33.1,33.1,
285.0,33.3,33.3,
286.25,33.4,33.4,
287.5,33.5,33.5,
288.75,32.9,32.9,
290.0,31.9,31.9,
291.25,31.9,31.9,
292.5,31.1,31.1,
293.75,31.5,31.5,
295.0,31.2,31.2,
296.25,31.4,31.4,
297.5,31.3,31.3,
298.75,30.8,30.8,
300.0,30.6,30.6,
301.25,30.1,30.1,
302.5,30.3,30.3,
303.75,29.6,29.6,
305.0,28.9,28.9,
306.25,28.9,28.9,
307.5,27.7,27.7,
308.75,26.7,26.7,
310.0,26.3,26.3,
311.25,26.1,26.1,
312.5,25.7,25.7,
313.75,26.1,26.1,
315.0,25.6,25.6,
316.25,25.7,25.7,
317.5,26.0,26.0,
318.75,26.3,26.3,
320.0,26.2,26.2,
321.25,26.5,26.5,
322.5,26.7,26.7,
323.75,26.7,26.7,
325.0,26.2,26.2,
326.25,26.1,26.1,
327.5,25.9,25.9,
328.75,25.3,25.3,
330.0,25.8,25.8,
331.25,26.2,26.2,
332.5,25.5,25.5,
333.75,25.1,25.1,
335.0,25.2,25.2,
336.25,25.1,25.1,
337.5,25.0,25.0,
338.75,25.3,25.3,
340.0,25.8,25.8,
341.25,25.5,25.5,
342.5,25.2,25.2,
343.75,24.7,24.7,
345.0,23.9,23.9,
345.5,23.5,23.5,