File: 01_Data/Rubber_Band/Cone/Rubber_Band_HRRPUA_100.csv
Time after Ignition,Rubber_Band_R1,Mean,Std. Dev.
0.0,17.2,17.2,
0.75,32.1,32.1,
1.5,52.0,52.0,
2.25,103.1,103.1,
3.0,158.2,158.2,
3.75,222.4,222.4,
4.5,312.7,312.7,
5.25,364.4,364.4,
6.0,437.3,437.3,
6.75,524.1,524.1,
7.5,596.9,596.9,
8.25,685.9,685.9,
9.0,741.8,741.8,
9.75,805.9,805.9,
10.5,857.8,857.8,
11.25,879.9,879.9,
12.0,949.4,949.4,
12.75,964.4,964.4,
13.5,1024.2,1024.2,
14.25,965.0,965.0,
15.0,1062.4,1062.4,
15.75,1067.9,1067.9,
16.5,1035.7,1035.7,
17.25,1046.3,1046.3,
18.0,1096.6,1096.6,
18.75,1067.4,1067.4,
19.5,1062.0,1062.0,
20.25,1038.6,1038.6,
21.0,1058.0,1058.0,
21.75,1022.1,1022.1,
22.5,976.7,976.7,
23.25,1031.4,1031.4,
24.0,1031.4,1031.4,
24.75,1018.3,1018.3,
25.5,1055.1,1055.1,
26.25,993.4,993.4,
27.0,1001.0,1001.0,
27.75,894.2,894.2,
28.5,915.6,915.6,
29.25,920.5,920.5,
30.0,845.0,845.0,
30.75,824.9,824.9,
31.5,799.8,799.8,
32.25,759.7,759.7,
33.0,722.5,722.5,
33.75,701.3,701.3,
34.5,653.4,653.4,
35.25,616.6,616.6,
36.0,568.1,568.1,
36.75,528.1,528.1,
37.5,479.4,479.4,
38.25,438.5,438.5,
39.0,407.5,407.5,
39.75,370.0,370.0,
40.5,347.5,347.5,
41.25,325.2,325.2,
42.0,297.9,297.9,
42.75,284.1,284.1,
43.5,265.5,265.5,
44.25,243.5,243.5,
45.0,233.2,233.2,
45.75,219.0,219.0,
46.5,208.2,208.2,
47.25,199.6,199.6,
48.0,193.2,193.2,
48.75,186.0,186.0,
49.5,183.5,183.5,
50.25,177.0,177.0,
51.0,174.1,174.1,
51.75,169.8,169.8,
52.5,167.4,167.4,
53.25,169.7,169.7,
54.0,163.5,163.5,
54.75,163.2,163.2,
55.5,161.0,161.0,
56.25,156.9,156.9,
57.0,155.7,155.7,
57.75,153.4,153.4,
58.5,149.5,149.5,
59.25,148.9,148.9,
60.0,147.4,147.4,
60.75,145.9,145.9,
61.5,142.6,142.6,
62.25,140.0,140.0,
63.0,140.8,140.8,
63.75,141.8,141.8,
64.5,137.4,137.4,
65.25,136.9,136.9,
66.0,133.8,133.8,
66.75,137.3,137.3,
67.5,136.5,136.5,
68.25,134.1,134.1,
69.0,133.3,133.3,
69.75,134.0,134.0,
70.5,133.0,133.0,
71.25,129.6,129.6,
72.0,129.4,129.4,
72.75,128.1,128.1,
73.5,126.1,126.1,
74.25,126.5,126.5,
75.0,125.5,125.5,
75.75,122.9,122.9,
76.5,123.2,123.2,
77.25,123.7,123.7,
78.0,124.2,124.2,
78.75,122.4,122.4,
79.5,118.3,118.3,
80.25,119.8,119.8,
81.0,118.5,118.5,
81.75,115.4,115.4,
82.5,114.1,114.1,
83.25,113.0,113.0,
84.0,112.3,112.3,
84.75,113.6,113.6,
85.5,112.4,112.4,
86.25,113.0,113.0,
87.0,111.6,111.6,
87.75,110.2,110.2,
88.5,109.0,109.0,
89.25,108.6,108.6,
90.0,107.6,107.6,
90.75,107.1,107.1,
91.5,105.4,105.4,
92.25,103.7,103.7,
93.0,103.2,103.2,
93.75,101.4,101.4,
94.5,100.4,100.4,
95.25,99.2,99.2,
96.0,98.6,98.6,
96.75,97.0,97.0,
97.5,95.7,95.7,
98.25,93.6,93.6,
99.0,91.6,91.6,
99.75,89.4,89.4,
100.5,87.5,87.5,
101.25,83.8,83.8,
102.0,84.5,84.5,
102.75,82.0,82.0,
103.5,81.3,81.3,
104.25,79.9,79.9,
105.0,79.0,79.0,
105.75,79.3,79.3,
106.5,77.7,77.7,
107.25,77.6,77.6,
108.0,76.9,76.9,
108.75,75.3,75.3,
109.5,73.3,73.3,
110.25,73.6,73.6,
111.0,72.6,72.6,
111.75,72.2,72.2,
112.5,71.6,71.6,
113.25,70.9,70.9,
114.0,70.2,70.2,
114.75,69.4,69.4,
115.5,67.6,67.6,
116.25,66.9,66.9,
117.0,66.2,66.2,
117.75,65.2,65.2,
118.5,65.9,65.9,
119.25,64.3,64.3,
120.0,62.4,62.4,
120.75,62.7,62.7,
121.5,61.8,61.8,
122.25,60.9,60.9,
123.0,60.7,60.7,
123.75,60.1,60.1,
124.5,59.0,59.0,
125.25,58.1,58.1,
126.0,58.5,58.5,
126.75,56.6,56.6,
127.5,57.0,57.0,
128.25,57.1,57.1,
129.0,57.1,57.1,
129.75,55.5,55.5,
130.5,55.3,55.3,
131.25,54.9,54.9,
132.0,54.5,54.5,
132.75,53.7,53.7,
133.5,54.0,54.0,
134.25,53.8,53.8,
135.0,53.2,53.2,
135.75,52.8,52.8,
136.5,52.9,52.9,
137.25,54.5,54.5,
138.0,53.1,53.1,
138.75,53.0,53.0,
139.5,51.4,51.4,
140.25,52.0,52.0,
141.0,51.9,51.9,
141.75,50.7,50.7,
142.5,50.3,50.3,
143.25,50.7,50.7,
144.0,50.9,50.9,
144.75,50.9,50.9,
145.5,50.2,50.2,
146.25,50.6,50.6,
147.0,49.7,49.7,
147.75,49.8,49.8,
148.5,49.9,49.9,
149.25,49.1,49.1,
150.0,49.0,49.0,
150.75,48.2,48.2,
151.5,47.2,47.2,
152.0,47.5,47.5,