File: 01_Data/Pressure_Treated_Deck/FTIR/IS/Deprecated/Pressure_Treated_Deck_IS_S_220926_R1.dpt
7497.03,0.74822
7473.89,0.75941
7450.74,0.76318
7427.6,0.74471
7404.45,0.74603
7381.31,0.74141
7358.16,0.73234
7335.02,0.72511
7311.87,0.72508
7288.73,0.71677
7265.58,0.72505
7242.44,0.72484
7219.29,0.71236
7196.15,0.71344
7173,0.70749
7149.86,0.69311
7126.71,0.68445
7103.57,0.66648
7080.42,0.64693
7057.28,0.63710
7034.13,0.61359
7010.99,0.59848
6987.84,0.58393
6964.7,0.58034
6941.55,0.57814
6918.41,0.57815
6895.26,0.57618
6872.12,0.57636
6848.97,0.57532
6825.83,0.57628
6802.68,0.57638
6779.54,0.57651
6756.39,0.57670
6733.25,0.58001
6710.1,0.57703
6686.96,0.57812
6663.82,0.58541
6640.67,0.59272
6617.53,0.58951
6594.38,0.59107
6571.24,0.59998
6548.09,0.59995
6524.95,0.60572
6501.8,0.60464
6478.66,0.60839
6455.51,0.60808
6432.37,0.61200
6409.22,0.61037
6386.08,0.61121
6362.93,0.61356
6339.79,0.61552
6316.64,0.61795
6293.5,0.62363
6270.35,0.62609
6247.21,0.63102
6224.06,0.63531
6200.92,0.64535
6177.77,0.65157
6154.63,0.65609
6131.48,0.66190
6108.34,0.66444
6085.19,0.66247
6062.05,0.66086
6038.9,0.65760
6015.76,0.65361
5992.61,0.64722
5969.47,0.64501
5946.32,0.64497
5923.18,0.64334
5900.03,0.63962
5876.89,0.63660
5853.74,0.63674
5830.6,0.63596
5807.45,0.63299
5784.31,0.63012
5761.16,0.63594
5738.02,0.63551
5714.87,0.63633
5691.73,0.63416
5668.58,0.63401
5645.44,0.63339
5622.29,0.63346
5599.15,0.63213
5576,0.63344
5552.86,0.63681
5529.71,0.63792
5506.57,0.63992
5483.42,0.64275
5460.28,0.64465
5437.13,0.64859
5413.99,0.65341
5390.84,0.65406
5367.7,0.65315
5344.55,0.65245
5321.41,0.64037
5298.26,0.61592
5275.12,0.57602
5251.97,0.52933
5228.83,0.49690
5205.68,0.48069
5182.54,0.48039
5159.39,0.48760
5136.25,0.50058
5113.1,0.51460
5089.96,0.52777
5066.81,0.53883
5043.67,0.54878
5020.52,0.55803
4997.38,0.56019
4974.23,0.55679
4951.09,0.54582
4927.94,0.52900
4904.8,0.50869
4881.65,0.48952
4858.51,0.47280
4835.36,0.45756
4812.22,0.44587
4789.07,0.44159
4765.93,0.43517
4742.78,0.43465
4719.64,0.43734
4696.49,0.43900
4673.35,0.44312
4650.2,0.45183
4627.06,0.46060
4603.92,0.47205
4580.77,0.48061
4557.63,0.48760
4534.48,0.49178
4511.34,0.49199
4488.19,0.48482
4465.05,0.46348
4441.9,0.43652
4418.76,0.41002
4395.61,0.39611
4372.47,0.40312
4349.32,0.40570
4326.18,0.40131
4303.03,0.39179
4279.89,0.38528
4256.74,0.38815
4233.6,0.39137
4210.45,0.39178
4187.31,0.39362
4164.16,0.39772
4141.02,0.39186
4117.87,0.37909
4094.73,0.35992
4071.58,0.33877
4048.44,0.31851
4025.29,0.30415
4002.15,0.30295
3979,0.30753
3955.86,0.31613
3932.71,0.32626
3909.57,0.33639
3886.42,0.34653
3863.28,0.35534
3840.13,0.36433
3816.99,0.36608
3793.84,0.36360
3770.7,0.36020
3747.55,0.35200
3724.41,0.33408
3701.26,0.30181
3678.12,0.24133
3654.97,0.16386
3631.83,0.11792
3608.68,0.08954
3585.54,0.07079
3562.39,0.05943
3539.25,0.05244
3516.1,0.04810
3492.96,0.04402
3469.81,0.04247
3446.67,0.04086
3423.52,0.04004
3400.38,0.04091
3377.23,0.04052
3354.09,0.04180
3330.94,0.04448
3307.8,0.04526
3284.65,0.04818
3261.51,0.05078
3238.36,0.05538
3215.22,0.05930
3192.07,0.06453
3168.93,0.07020
3145.78,0.07630
3122.64,0.08186
3099.49,0.08799
3076.35,0.09303
3053.2,0.09871
3030.06,0.10342
3006.91,0.09976
2983.77,0.09041
2960.62,0.07300
2937.48,0.06494
2914.33,0.06465
2891.19,0.06807
2868.04,0.07261
2844.9,0.08413
2821.75,0.10535
2798.61,0.11924
2775.46,0.12709
2752.32,0.13079
2729.17,0.13348
2706.03,0.14012
2682.88,0.14744
2659.74,0.15337
2636.59,0.15840
2613.45,0.16428
2590.3,0.17011
2567.16,0.17402
2544.02,0.17599
2520.87,0.18120
2497.73,0.18958
2474.58,0.19853
2451.44,0.20654
2428.29,0.21659
2405.15,0.22689
2382,0.23671
2358.86,0.24557
2335.71,0.25050
2312.57,0.25241
2289.42,0.25187
2266.28,0.24964
2243.13,0.24571
2219.99,0.24323
2196.84,0.23991
2173.7,0.22887
2150.55,0.22041
2127.41,0.21776
2104.26,0.22094
2081.12,0.22138
2057.97,0.21767
2034.83,0.22210
2011.68,0.23254
1988.54,0.23872
1965.39,0.24370
1942.25,0.25136
1919.1,0.25607
1895.96,0.25466
1872.81,0.25162
1849.67,0.24522
1826.52,0.22952
1803.38,0.18933
1780.23,0.13534
1757.09,0.08066
1733.94,0.06208
1710.8,0.06865
1687.65,0.06924
1664.51,0.06172
1641.36,0.06233
1618.22,0.06154
1595.07,0.05940
1571.93,0.08019
1548.78,0.09181
1525.64,0.06859
1502.49,0.05599
1479.35,0.06043
1456.2,0.04865
1433.06,0.04648
1409.91,0.05088
1386.77,0.04859
1363.62,0.04732
1340.48,0.04727
1317.33,0.04566
1294.19,0.04561
1271.04,0.04223
1247.9,0.04561
1224.75,0.04611
1201.61,0.04661
1178.46,0.04061
1155.32,0.04124
1132.17,0.03676
1109.03,0.03955
1085.88,0.03953
1062.74,0.05144
1039.59,0.05541
1016.45,0.06521
993.304,0.07101
970.159,0.08552
947.014,0.09773
923.869,0.10281
900.724,0.08758
877.579,0.09296
854.434,0.09763
831.289,0.09480
808.144,0.08333
784.999,0.08243
761.854,0.07746
738.709,0.07120
715.565,0.06510
692.42,0.06235
669.275,0.05840
646.13,0.05693
622.985,0.05467
599.84,0.05698