File: 01_Data/Pressure_Treated_Deck/FTIR/IS/Deprecated/Pressure_Treated_Deck_IS_S_220926_R6.dpt
7497.03,0.77272
7473.89,0.76084
7450.74,0.75491
7427.6,0.75047
7404.45,0.74558
7381.31,0.74594
7358.16,0.73727
7335.02,0.73326
7311.87,0.73123
7288.73,0.72065
7265.58,0.72598
7242.44,0.71966
7219.29,0.72023
7196.15,0.71607
7173,0.70685
7149.86,0.70184
7126.71,0.69050
7103.57,0.67495
7080.42,0.65334
7057.28,0.64282
7034.13,0.61952
7010.99,0.60394
6987.84,0.59382
6964.7,0.58997
6941.55,0.58527
6918.41,0.58226
6895.26,0.57957
6872.12,0.58130
6848.97,0.57889
6825.83,0.57798
6802.68,0.58124
6779.54,0.57753
6756.39,0.58265
6733.25,0.58303
6710.1,0.58204
6686.96,0.58656
6663.82,0.59142
6640.67,0.59492
6617.53,0.59495
6594.38,0.60145
6571.24,0.60205
6548.09,0.60578
6524.95,0.60693
6501.8,0.60771
6478.66,0.60922
6455.51,0.61532
6432.37,0.61145
6409.22,0.62064
6386.08,0.61888
6362.93,0.61973
6339.79,0.62173
6316.64,0.62607
6293.5,0.62694
6270.35,0.63043
6247.21,0.63868
6224.06,0.64436
6200.92,0.65137
6177.77,0.65666
6154.63,0.65936
6131.48,0.66545
6108.34,0.66863
6085.19,0.66887
6062.05,0.67064
6038.9,0.66410
6015.76,0.65621
5992.61,0.64907
5969.47,0.64733
5946.32,0.65026
5923.18,0.64916
5900.03,0.64446
5876.89,0.64366
5853.74,0.64250
5830.6,0.64052
5807.45,0.63519
5784.31,0.63406
5761.16,0.63833
5738.02,0.63946
5714.87,0.64012
5691.73,0.63886
5668.58,0.63715
5645.44,0.63693
5622.29,0.63550
5599.15,0.63805
5576,0.63730
5552.86,0.63880
5529.71,0.64196
5506.57,0.64204
5483.42,0.64518
5460.28,0.64818
5437.13,0.65078
5413.99,0.65545
5390.84,0.65902
5367.7,0.65838
5344.55,0.65498
5321.41,0.64796
5298.26,0.62624
5275.12,0.58946
5251.97,0.54574
5228.83,0.51487
5205.68,0.50264
5182.54,0.50327
5159.39,0.50787
5136.25,0.52244
5113.1,0.53434
5089.96,0.54647
5066.81,0.55528
5043.67,0.56517
5020.52,0.57176
4997.38,0.57215
4974.23,0.56643
4951.09,0.55219
4927.94,0.53358
4904.8,0.51255
4881.65,0.49218
4858.51,0.47380
4835.36,0.45947
4812.22,0.44798
4789.07,0.44075
4765.93,0.43783
4742.78,0.43583
4719.64,0.43902
4696.49,0.44193
4673.35,0.44516
4650.2,0.45391
4627.06,0.46294
4603.92,0.47382
4580.77,0.48388
4557.63,0.49078
4534.48,0.49401
4511.34,0.49562
4488.19,0.48706
4465.05,0.46549
4441.9,0.43877
4418.76,0.41070
4395.61,0.39715
4372.47,0.40356
4349.32,0.40715
4326.18,0.40203
4303.03,0.39274
4279.89,0.38704
4256.74,0.39008
4233.6,0.39302
4210.45,0.39397
4187.31,0.39570
4164.16,0.39999
4141.02,0.39652
4117.87,0.38274
4094.73,0.36373
4071.58,0.34227
4048.44,0.32149
4025.29,0.30713
4002.15,0.30595
3979,0.31058
3955.86,0.31952
3932.71,0.33036
3909.57,0.34053
3886.42,0.35053
3863.28,0.35969
3840.13,0.37008
3816.99,0.37187
3793.84,0.37106
3770.7,0.36844
3747.55,0.36028
3724.41,0.34424
3701.26,0.31451
3678.12,0.25690
3654.97,0.17944
3631.83,0.12888
3608.68,0.09640
3585.54,0.07490
3562.39,0.06204
3539.25,0.05355
3516.1,0.04848
3492.96,0.04498
3469.81,0.04247
3446.67,0.04107
3423.52,0.04080
3400.38,0.04080
3377.23,0.04095
3354.09,0.04268
3330.94,0.04448
3307.8,0.04643
3284.65,0.04856
3261.51,0.05220
3238.36,0.05680
3215.22,0.06143
3192.07,0.06676
3168.93,0.07262
3145.78,0.07898
3122.64,0.08574
3099.49,0.09170
3076.35,0.09697
3053.2,0.10294
3030.06,0.10677
3006.91,0.10276
2983.77,0.09203
2960.62,0.07492
2937.48,0.06521
2914.33,0.06507
2891.19,0.06742
2868.04,0.07246
2844.9,0.08426
2821.75,0.10586
2798.61,0.12197
2775.46,0.12932
2752.32,0.13266
2729.17,0.13546
2706.03,0.14261
2682.88,0.15064
2659.74,0.15567
2636.59,0.16079
2613.45,0.16706
2590.3,0.17293
2567.16,0.17643
2544.02,0.17848
2520.87,0.18364
2497.73,0.19199
2474.58,0.20132
2451.44,0.20942
2428.29,0.21952
2405.15,0.23076
2382,0.24027
2358.86,0.24929
2335.71,0.25439
2312.57,0.25728
2289.42,0.25726
2266.28,0.25515
2243.13,0.25126
2219.99,0.25009
2196.84,0.24636
2173.7,0.23585
2150.55,0.22722
2127.41,0.22450
2104.26,0.22797
2081.12,0.22832
2057.97,0.22413
2034.83,0.22885
2011.68,0.23958
1988.54,0.24588
1965.39,0.25110
1942.25,0.25855
1919.1,0.26283
1895.96,0.26098
1872.81,0.25790
1849.67,0.25109
1826.52,0.23411
1803.38,0.19170
1780.23,0.13609
1757.09,0.08068
1733.94,0.06242
1710.8,0.06982
1687.65,0.07067
1664.51,0.06377
1641.36,0.06487
1618.22,0.06248
1595.07,0.05962
1571.93,0.08173
1548.78,0.09317
1525.64,0.06939
1502.49,0.05612
1479.35,0.06102
1456.2,0.04907
1433.06,0.04599
1409.91,0.05094
1386.77,0.04811
1363.62,0.04711
1340.48,0.04769
1317.33,0.04582
1294.19,0.04543
1271.04,0.04254
1247.9,0.04594
1224.75,0.04638
1201.61,0.04694
1178.46,0.04050
1155.32,0.04119
1132.17,0.03688
1109.03,0.03828
1085.88,0.03931
1062.74,0.05192
1039.59,0.05596
1016.45,0.06565
993.304,0.07179
970.159,0.08662
947.014,0.09903
923.869,0.10357
900.724,0.08945
877.579,0.09404
854.434,0.10001
831.289,0.09800
808.144,0.08637
784.999,0.08557
761.854,0.08061
738.709,0.07466
715.565,0.06706
692.42,0.06471
669.275,0.05784
646.13,0.05970
622.985,0.05565
599.84,0.05962