File: 01_Data/Pressure_Treated_Deck/FTIR/IS/Deprecated/Pressure_Treated_Deck_IS_S_220926_R5.dpt
7497.03,0.76608
7473.89,0.75592
7450.74,0.75334
7427.6,0.74963
7404.45,0.74014
7381.31,0.73180
7358.16,0.73278
7335.02,0.73550
7311.87,0.72604
7288.73,0.72583
7265.58,0.72065
7242.44,0.72074
7219.29,0.71702
7196.15,0.71453
7173,0.70998
7149.86,0.70219
7126.71,0.69348
7103.57,0.67445
7080.42,0.65269
7057.28,0.63659
7034.13,0.61645
7010.99,0.60480
6987.84,0.59184
6964.7,0.58772
6941.55,0.58488
6918.41,0.57860
6895.26,0.57736
6872.12,0.57759
6848.97,0.57740
6825.83,0.57750
6802.68,0.57327
6779.54,0.58227
6756.39,0.57680
6733.25,0.58720
6710.1,0.58466
6686.96,0.58943
6663.82,0.59247
6640.67,0.59551
6617.53,0.59665
6594.38,0.59645
6571.24,0.59906
6548.09,0.60117
6524.95,0.60831
6501.8,0.60918
6478.66,0.61179
6455.51,0.61308
6432.37,0.61237
6409.22,0.61360
6386.08,0.61497
6362.93,0.62014
6339.79,0.62340
6316.64,0.62024
6293.5,0.62803
6270.35,0.62957
6247.21,0.63743
6224.06,0.64295
6200.92,0.65010
6177.77,0.65615
6154.63,0.65935
6131.48,0.66359
6108.34,0.66647
6085.19,0.66400
6062.05,0.66597
6038.9,0.66198
6015.76,0.65567
5992.61,0.64912
5969.47,0.64622
5946.32,0.65142
5923.18,0.64637
5900.03,0.64161
5876.89,0.64120
5853.74,0.63791
5830.6,0.63992
5807.45,0.63310
5784.31,0.63518
5761.16,0.63735
5738.02,0.63832
5714.87,0.63586
5691.73,0.63630
5668.58,0.63428
5645.44,0.63506
5622.29,0.63816
5599.15,0.63809
5576,0.63585
5552.86,0.63868
5529.71,0.64122
5506.57,0.64493
5483.42,0.64416
5460.28,0.64638
5437.13,0.65024
5413.99,0.65637
5390.84,0.65645
5367.7,0.65600
5344.55,0.65613
5321.41,0.64674
5298.26,0.62511
5275.12,0.58800
5251.97,0.54466
5228.83,0.51294
5205.68,0.49848
5182.54,0.49869
5159.39,0.50604
5136.25,0.51911
5113.1,0.53180
5089.96,0.54277
5066.81,0.55334
5043.67,0.56240
5020.52,0.56977
4997.38,0.57132
4974.23,0.56471
4951.09,0.55164
4927.94,0.53171
4904.8,0.51071
4881.65,0.49078
4858.51,0.47377
4835.36,0.45917
4812.22,0.44709
4789.07,0.44176
4765.93,0.43765
4742.78,0.43633
4719.64,0.43748
4696.49,0.44116
4673.35,0.44537
4650.2,0.45313
4627.06,0.46200
4603.92,0.47266
4580.77,0.48265
4557.63,0.48915
4534.48,0.49301
4511.34,0.49413
4488.19,0.48556
4465.05,0.46411
4441.9,0.43835
4418.76,0.41077
4395.61,0.39750
4372.47,0.40369
4349.32,0.40743
4326.18,0.40231
4303.03,0.39324
4279.89,0.38603
4256.74,0.38989
4233.6,0.39289
4210.45,0.39297
4187.31,0.39621
4164.16,0.40029
4141.02,0.39547
4117.87,0.38264
4094.73,0.36387
4071.58,0.34110
4048.44,0.32072
4025.29,0.30687
4002.15,0.30517
3979,0.31010
3955.86,0.31876
3932.71,0.32961
3909.57,0.33996
3886.42,0.34912
3863.28,0.35825
3840.13,0.36952
3816.99,0.37095
3793.84,0.37050
3770.7,0.36775
3747.55,0.35924
3724.41,0.34221
3701.26,0.31275
3678.12,0.25427
3654.97,0.17712
3631.83,0.12777
3608.68,0.09553
3585.54,0.07533
3562.39,0.06182
3539.25,0.05373
3516.1,0.04850
3492.96,0.04485
3469.81,0.04255
3446.67,0.04170
3423.52,0.04102
3400.38,0.04081
3377.23,0.04079
3354.09,0.04198
3330.94,0.04424
3307.8,0.04657
3284.65,0.04841
3261.51,0.05215
3238.36,0.05643
3215.22,0.06087
3192.07,0.06693
3168.93,0.07192
3145.78,0.07866
3122.64,0.08487
3099.49,0.09135
3076.35,0.09654
3053.2,0.10216
3030.06,0.10604
3006.91,0.10202
2983.77,0.09254
2960.62,0.07416
2937.48,0.06533
2914.33,0.06511
2891.19,0.06754
2868.04,0.07260
2844.9,0.08502
2821.75,0.10616
2798.61,0.12175
2775.46,0.12885
2752.32,0.13265
2729.17,0.13489
2706.03,0.14212
2682.88,0.14987
2659.74,0.15538
2636.59,0.16066
2613.45,0.16677
2590.3,0.17206
2567.16,0.17667
2544.02,0.17840
2520.87,0.18320
2497.73,0.19186
2474.58,0.20119
2451.44,0.20973
2428.29,0.21926
2405.15,0.23013
2382,0.24024
2358.86,0.24815
2335.71,0.25383
2312.57,0.25683
2289.42,0.25683
2266.28,0.25444
2243.13,0.25067
2219.99,0.24921
2196.84,0.24609
2173.7,0.23477
2150.55,0.22643
2127.41,0.22388
2104.26,0.22702
2081.12,0.22718
2057.97,0.22338
2034.83,0.22827
2011.68,0.23862
1988.54,0.24509
1965.39,0.24989
1942.25,0.25784
1919.1,0.26167
1895.96,0.26013
1872.81,0.25697
1849.67,0.25037
1826.52,0.23324
1803.38,0.19199
1780.23,0.13602
1757.09,0.08062
1733.94,0.06253
1710.8,0.06944
1687.65,0.07022
1664.51,0.06393
1641.36,0.06429
1618.22,0.06258
1595.07,0.05895
1571.93,0.08176
1548.78,0.09261
1525.64,0.06932
1502.49,0.05619
1479.35,0.06110
1456.2,0.04835
1433.06,0.04605
1409.91,0.05053
1386.77,0.04832
1363.62,0.04689
1340.48,0.04711
1317.33,0.04573
1294.19,0.04563
1271.04,0.04221
1247.9,0.04573
1224.75,0.04595
1201.61,0.04675
1178.46,0.04040
1155.32,0.04177
1132.17,0.03698
1109.03,0.03965
1085.88,0.03954
1062.74,0.05182
1039.59,0.05566
1016.45,0.06536
993.304,0.07158
970.159,0.08645
947.014,0.09981
923.869,0.10352
900.724,0.08935
877.579,0.09408
854.434,0.10028
831.289,0.09756
808.144,0.08537
784.999,0.08460
761.854,0.08019
738.709,0.07385
715.565,0.06764
692.42,0.06375
669.275,0.05778
646.13,0.05931
622.985,0.05609
599.84,0.05838