File: 01_Data/Pressure_Treated_Deck/FTIR/IS/Deprecated/Pressure_Treated_Deck_IS_S_220926_R4.dpt
7497.03,0.76973
7473.89,0.76641
7450.74,0.75401
7427.6,0.74905
7404.45,0.74066
7381.31,0.74926
7358.16,0.72239
7335.02,0.72863
7311.87,0.71872
7288.73,0.72376
7265.58,0.70660
7242.44,0.71977
7219.29,0.72537
7196.15,0.71819
7173,0.71277
7149.86,0.70603
7126.71,0.69346
7103.57,0.67822
7080.42,0.64618
7057.28,0.63457
7034.13,0.61706
7010.99,0.60350
6987.84,0.59012
6964.7,0.58729
6941.55,0.57786
6918.41,0.58671
6895.26,0.58053
6872.12,0.57464
6848.97,0.57446
6825.83,0.57585
6802.68,0.58043
6779.54,0.57528
6756.39,0.57371
6733.25,0.57442
6710.1,0.58182
6686.96,0.58711
6663.82,0.58936
6640.67,0.58938
6617.53,0.59559
6594.38,0.59413
6571.24,0.60492
6548.09,0.60526
6524.95,0.60725
6501.8,0.60871
6478.66,0.60968
6455.51,0.61290
6432.37,0.61482
6409.22,0.61314
6386.08,0.61873
6362.93,0.61504
6339.79,0.62170
6316.64,0.62186
6293.5,0.62248
6270.35,0.63079
6247.21,0.63912
6224.06,0.64441
6200.92,0.65119
6177.77,0.65414
6154.63,0.65934
6131.48,0.66522
6108.34,0.66752
6085.19,0.66861
6062.05,0.66462
6038.9,0.65849
6015.76,0.65676
5992.61,0.65026
5969.47,0.64683
5946.32,0.64921
5923.18,0.64793
5900.03,0.64338
5876.89,0.64278
5853.74,0.64065
5830.6,0.63895
5807.45,0.63394
5784.31,0.63492
5761.16,0.63931
5738.02,0.63885
5714.87,0.63811
5691.73,0.63822
5668.58,0.63734
5645.44,0.63616
5622.29,0.63598
5599.15,0.63414
5576,0.63728
5552.86,0.64020
5529.71,0.64259
5506.57,0.64392
5483.42,0.64474
5460.28,0.64954
5437.13,0.64892
5413.99,0.65622
5390.84,0.65755
5367.7,0.65809
5344.55,0.65480
5321.41,0.64561
5298.26,0.62521
5275.12,0.58752
5251.97,0.54273
5228.83,0.51132
5205.68,0.49767
5182.54,0.49599
5159.39,0.50444
5136.25,0.51691
5113.1,0.52849
5089.96,0.54143
5066.81,0.55344
5043.67,0.56146
5020.52,0.56851
4997.38,0.57046
4974.23,0.56532
4951.09,0.55217
4927.94,0.53203
4904.8,0.51107
4881.65,0.49155
4858.51,0.47425
4835.36,0.45893
4812.22,0.44725
4789.07,0.44194
4765.93,0.43801
4742.78,0.43711
4719.64,0.43798
4696.49,0.44022
4673.35,0.44439
4650.2,0.45304
4627.06,0.46218
4603.92,0.47494
4580.77,0.48364
4557.63,0.48964
4534.48,0.49371
4511.34,0.49469
4488.19,0.48690
4465.05,0.46614
4441.9,0.43964
4418.76,0.41108
4395.61,0.39830
4372.47,0.40453
4349.32,0.40724
4326.18,0.40252
4303.03,0.39378
4279.89,0.38670
4256.74,0.39091
4233.6,0.39319
4210.45,0.39391
4187.31,0.39608
4164.16,0.40025
4141.02,0.39600
4117.87,0.38247
4094.73,0.36324
4071.58,0.34170
4048.44,0.32111
4025.29,0.30731
4002.15,0.30568
3979,0.31095
3955.86,0.31903
3932.71,0.32949
3909.57,0.34060
3886.42,0.34919
3863.28,0.35862
3840.13,0.36827
3816.99,0.37100
3793.84,0.36953
3770.7,0.36638
3747.55,0.35845
3724.41,0.34280
3701.26,0.31133
3678.12,0.25281
3654.97,0.17632
3631.83,0.12643
3608.68,0.09513
3585.54,0.07387
3562.39,0.06137
3539.25,0.05337
3516.1,0.04829
3492.96,0.04473
3469.81,0.04242
3446.67,0.04124
3423.52,0.04075
3400.38,0.04066
3377.23,0.04166
3354.09,0.04255
3330.94,0.04424
3307.8,0.04686
3284.65,0.04887
3261.51,0.05216
3238.36,0.05612
3215.22,0.06105
3192.07,0.06634
3168.93,0.07242
3145.78,0.07862
3122.64,0.08474
3099.49,0.09091
3076.35,0.09613
3053.2,0.10203
3030.06,0.10609
3006.91,0.10226
2983.77,0.09170
2960.62,0.07408
2937.48,0.06531
2914.33,0.06443
2891.19,0.06777
2868.04,0.07285
2844.9,0.08462
2821.75,0.10649
2798.61,0.12144
2775.46,0.12858
2752.32,0.13259
2729.17,0.13490
2706.03,0.14193
2682.88,0.15004
2659.74,0.15520
2636.59,0.16050
2613.45,0.16698
2590.3,0.17213
2567.16,0.17662
2544.02,0.17799
2520.87,0.18332
2497.73,0.19231
2474.58,0.20104
2451.44,0.20943
2428.29,0.21943
2405.15,0.23022
2382,0.23992
2358.86,0.24828
2335.71,0.25425
2312.57,0.25666
2289.42,0.25602
2266.28,0.25417
2243.13,0.25015
2219.99,0.24859
2196.84,0.24529
2173.7,0.23467
2150.55,0.22622
2127.41,0.22331
2104.26,0.22692
2081.12,0.22659
2057.97,0.22289
2034.83,0.22754
2011.68,0.23823
1988.54,0.24477
1965.39,0.24957
1942.25,0.25758
1919.1,0.26141
1895.96,0.25999
1872.81,0.25687
1849.67,0.25020
1826.52,0.23332
1803.38,0.19170
1780.23,0.13601
1757.09,0.08075
1733.94,0.06267
1710.8,0.06918
1687.65,0.07004
1664.51,0.06344
1641.36,0.06415
1618.22,0.06296
1595.07,0.05964
1571.93,0.08117
1548.78,0.09290
1525.64,0.06949
1502.49,0.05592
1479.35,0.06097
1456.2,0.04840
1433.06,0.04616
1409.91,0.05069
1386.77,0.04830
1363.62,0.04702
1340.48,0.04748
1317.33,0.04589
1294.19,0.04576
1271.04,0.04246
1247.9,0.04596
1224.75,0.04646
1201.61,0.04704
1178.46,0.04043
1155.32,0.04176
1132.17,0.03619
1109.03,0.03881
1085.88,0.03922
1062.74,0.05141
1039.59,0.05550
1016.45,0.06546
993.304,0.07122
970.159,0.08693
947.014,0.09896
923.869,0.10392
900.724,0.08978
877.579,0.09446
854.434,0.09982
831.289,0.09726
808.144,0.08613
784.999,0.08591
761.854,0.07950
738.709,0.07473
715.565,0.06724
692.42,0.06383
669.275,0.05830
646.13,0.05900
622.985,0.05431
599.84,0.06123