File: 01_Data/Pressure_Treated_Deck/FTIR/IS/Deprecated/Pressure_Treated_Deck_IS_S_220926_R2.dpt
7497.03,0.77329
7473.89,0.76592
7450.74,0.75420
7427.6,0.75177
7404.45,0.73932
7381.31,0.73308
7358.16,0.73143
7335.02,0.71987
7311.87,0.72397
7288.73,0.72365
7265.58,0.72339
7242.44,0.71855
7219.29,0.72535
7196.15,0.71109
7173,0.70928
7149.86,0.70059
7126.71,0.68517
7103.57,0.67255
7080.42,0.65224
7057.28,0.63250
7034.13,0.62019
7010.99,0.59738
6987.84,0.59784
6964.7,0.57925
6941.55,0.57932
6918.41,0.57882
6895.26,0.57901
6872.12,0.57639
6848.97,0.57696
6825.83,0.57765
6802.68,0.57922
6779.54,0.57623
6756.39,0.57956
6733.25,0.57871
6710.1,0.58274
6686.96,0.58727
6663.82,0.58522
6640.67,0.59017
6617.53,0.59089
6594.38,0.59932
6571.24,0.59972
6548.09,0.60168
6524.95,0.60618
6501.8,0.60573
6478.66,0.60686
6455.51,0.60998
6432.37,0.61374
6409.22,0.60994
6386.08,0.61273
6362.93,0.61625
6339.79,0.61829
6316.64,0.62007
6293.5,0.62179
6270.35,0.62853
6247.21,0.63288
6224.06,0.64372
6200.92,0.64729
6177.77,0.65214
6154.63,0.65928
6131.48,0.66068
6108.34,0.66361
6085.19,0.66390
6062.05,0.66572
6038.9,0.65990
6015.76,0.65367
5992.61,0.64925
5969.47,0.64667
5946.32,0.64452
5923.18,0.64589
5900.03,0.64221
5876.89,0.64052
5853.74,0.63941
5830.6,0.63948
5807.45,0.63242
5784.31,0.63518
5761.16,0.63687
5738.02,0.63567
5714.87,0.63614
5691.73,0.63643
5668.58,0.63626
5645.44,0.63668
5622.29,0.63330
5599.15,0.63193
5576,0.63750
5552.86,0.63807
5529.71,0.64021
5506.57,0.64157
5483.42,0.64162
5460.28,0.64456
5437.13,0.64966
5413.99,0.65348
5390.84,0.65749
5367.7,0.65618
5344.55,0.65211
5321.41,0.64404
5298.26,0.62067
5275.12,0.58076
5251.97,0.53557
5228.83,0.50320
5205.68,0.48931
5182.54,0.48845
5159.39,0.49586
5136.25,0.50930
5113.1,0.52278
5089.96,0.53407
5066.81,0.54497
5043.67,0.55536
5020.52,0.56358
4997.38,0.56559
4974.23,0.56148
4951.09,0.54879
4927.94,0.53052
4904.8,0.51115
4881.65,0.49044
4858.51,0.47354
4835.36,0.45879
4812.22,0.44648
4789.07,0.44135
4765.93,0.43739
4742.78,0.43592
4719.64,0.43846
4696.49,0.44122
4673.35,0.44369
4650.2,0.45269
4627.06,0.46149
4603.92,0.47391
4580.77,0.48206
4557.63,0.48831
4534.48,0.49266
4511.34,0.49370
4488.19,0.48594
4465.05,0.46499
4441.9,0.43746
4418.76,0.41008
4395.61,0.39711
4372.47,0.40334
4349.32,0.40719
4326.18,0.40161
4303.03,0.39296
4279.89,0.38570
4256.74,0.38889
4233.6,0.39290
4210.45,0.39210
4187.31,0.39415
4164.16,0.39878
4141.02,0.39404
4117.87,0.38084
4094.73,0.36139
4071.58,0.34116
4048.44,0.32035
4025.29,0.30600
4002.15,0.30437
3979,0.30961
3955.86,0.31743
3932.71,0.32793
3909.57,0.33835
3886.42,0.34802
3863.28,0.35649
3840.13,0.36619
3816.99,0.36928
3793.84,0.36698
3770.7,0.36360
3747.55,0.35511
3724.41,0.33762
3701.26,0.30655
3678.12,0.24769
3654.97,0.17056
3631.83,0.12176
3608.68,0.09282
3585.54,0.07254
3562.39,0.06026
3539.25,0.05294
3516.1,0.04792
3492.96,0.04434
3469.81,0.04284
3446.67,0.04114
3423.52,0.04079
3400.38,0.04018
3377.23,0.04074
3354.09,0.04117
3330.94,0.04368
3307.8,0.04627
3284.65,0.04831
3261.51,0.05202
3238.36,0.05620
3215.22,0.06043
3192.07,0.06528
3168.93,0.07165
3145.78,0.07700
3122.64,0.08367
3099.49,0.08971
3076.35,0.09453
3053.2,0.10077
3030.06,0.10484
3006.91,0.10146
2983.77,0.09117
2960.62,0.07374
2937.48,0.06495
2914.33,0.06492
2891.19,0.06770
2868.04,0.07266
2844.9,0.08441
2821.75,0.10575
2798.61,0.12063
2775.46,0.12805
2752.32,0.13159
2729.17,0.13413
2706.03,0.14162
2682.88,0.14953
2659.74,0.15468
2636.59,0.15952
2613.45,0.16567
2590.3,0.17095
2567.16,0.17551
2544.02,0.17723
2520.87,0.18256
2497.73,0.19101
2474.58,0.19970
2451.44,0.20835
2428.29,0.21786
2405.15,0.22856
2382,0.23815
2358.86,0.24663
2335.71,0.25169
2312.57,0.25509
2289.42,0.25435
2266.28,0.25209
2243.13,0.24813
2219.99,0.24662
2196.84,0.24294
2173.7,0.23240
2150.55,0.22345
2127.41,0.22077
2104.26,0.22391
2081.12,0.22413
2057.97,0.22078
2034.83,0.22520
2011.68,0.23539
1988.54,0.24217
1965.39,0.24691
1942.25,0.25451
1919.1,0.25865
1895.96,0.25747
1872.81,0.25439
1849.67,0.24801
1826.52,0.23111
1803.38,0.19057
1780.23,0.13603
1757.09,0.08044
1733.94,0.06224
1710.8,0.06970
1687.65,0.06991
1664.51,0.06267
1641.36,0.06356
1618.22,0.06209
1595.07,0.05923
1571.93,0.08142
1548.78,0.09214
1525.64,0.06904
1502.49,0.05607
1479.35,0.06095
1456.2,0.04802
1433.06,0.04564
1409.91,0.05059
1386.77,0.04845
1363.62,0.04688
1340.48,0.04705
1317.33,0.04568
1294.19,0.04556
1271.04,0.04207
1247.9,0.04578
1224.75,0.04621
1201.61,0.04689
1178.46,0.04084
1155.32,0.04162
1132.17,0.03644
1109.03,0.03931
1085.88,0.03906
1062.74,0.05178
1039.59,0.05528
1016.45,0.06511
993.304,0.07142
970.159,0.08691
947.014,0.09861
923.869,0.10341
900.724,0.08876
877.579,0.09384
854.434,0.09940
831.289,0.09597
808.144,0.08525
784.999,0.08466
761.854,0.07874
738.709,0.07219
715.565,0.06603
692.42,0.06282
669.275,0.05793
646.13,0.05719
622.985,0.05491
599.84,0.05638