File: 01_Data/Pressure_Treated_Deck/FTIR/IS/Deprecated/Pressure_Treated_Deck_IS_S_220926_R8.dpt
7497.03,0.76602
7473.89,0.76119
7450.74,0.75279
7427.6,0.74519
7404.45,0.73907
7381.31,0.74387
7358.16,0.73213
7335.02,0.72346
7311.87,0.72629
7288.73,0.71921
7265.58,0.72374
7242.44,0.72480
7219.29,0.72437
7196.15,0.71761
7173,0.71604
7149.86,0.70788
7126.71,0.68724
7103.57,0.67675
7080.42,0.65987
7057.28,0.64451
7034.13,0.62149
7010.99,0.60800
6987.84,0.59654
6964.7,0.58452
6941.55,0.58231
6918.41,0.58650
6895.26,0.58134
6872.12,0.58426
6848.97,0.58485
6825.83,0.57738
6802.68,0.57780
6779.54,0.58256
6756.39,0.58398
6733.25,0.58034
6710.1,0.58288
6686.96,0.58646
6663.82,0.59436
6640.67,0.59333
6617.53,0.59144
6594.38,0.60200
6571.24,0.60231
6548.09,0.61060
6524.95,0.61066
6501.8,0.61028
6478.66,0.61465
6455.51,0.61452
6432.37,0.61571
6409.22,0.61876
6386.08,0.61789
6362.93,0.61984
6339.79,0.62091
6316.64,0.62255
6293.5,0.62694
6270.35,0.63309
6247.21,0.63745
6224.06,0.64300
6200.92,0.65080
6177.77,0.65685
6154.63,0.66410
6131.48,0.66306
6108.34,0.66671
6085.19,0.67180
6062.05,0.67153
6038.9,0.66334
6015.76,0.65675
5992.61,0.64807
5969.47,0.64868
5946.32,0.65159
5923.18,0.64934
5900.03,0.64717
5876.89,0.64285
5853.74,0.64450
5830.6,0.63929
5807.45,0.63662
5784.31,0.63556
5761.16,0.64088
5738.02,0.63924
5714.87,0.64031
5691.73,0.64098
5668.58,0.64050
5645.44,0.63872
5622.29,0.63830
5599.15,0.63686
5576,0.63956
5552.86,0.64157
5529.71,0.64317
5506.57,0.64551
5483.42,0.64798
5460.28,0.65045
5437.13,0.65500
5413.99,0.65837
5390.84,0.66065
5367.7,0.66043
5344.55,0.66079
5321.41,0.64985
5298.26,0.62913
5275.12,0.59370
5251.97,0.55207
5228.83,0.52062
5205.68,0.50700
5182.54,0.50701
5159.39,0.51452
5136.25,0.52745
5113.1,0.53950
5089.96,0.55145
5066.81,0.56163
5043.67,0.56924
5020.52,0.57567
4997.38,0.57613
4974.23,0.56953
4951.09,0.55428
4927.94,0.53475
4904.8,0.51355
4881.65,0.49331
4858.51,0.47462
4835.36,0.45917
4812.22,0.44899
4789.07,0.44246
4765.93,0.43884
4742.78,0.43744
4719.64,0.44013
4696.49,0.44244
4673.35,0.44771
4650.2,0.45545
4627.06,0.46429
4603.92,0.47474
4580.77,0.48458
4557.63,0.49093
4534.48,0.49499
4511.34,0.49692
4488.19,0.48830
4465.05,0.46746
4441.9,0.43930
4418.76,0.41252
4395.61,0.39841
4372.47,0.40466
4349.32,0.40882
4326.18,0.40349
4303.03,0.39428
4279.89,0.38754
4256.74,0.39194
4233.6,0.39449
4210.45,0.39512
4187.31,0.39674
4164.16,0.40172
4141.02,0.39706
4117.87,0.38417
4094.73,0.36540
4071.58,0.34317
4048.44,0.32174
4025.29,0.30871
4002.15,0.30629
3979,0.31202
3955.86,0.32060
3932.71,0.33211
3909.57,0.34261
3886.42,0.35203
3863.28,0.36069
3840.13,0.37157
3816.99,0.37438
3793.84,0.37311
3770.7,0.37058
3747.55,0.36334
3724.41,0.34759
3701.26,0.31697
3678.12,0.26001
3654.97,0.18302
3631.83,0.13136
3608.68,0.09853
3585.54,0.07624
3562.39,0.06275
3539.25,0.05408
3516.1,0.04843
3492.96,0.04497
3469.81,0.04291
3446.67,0.04151
3423.52,0.04116
3400.38,0.04103
3377.23,0.04099
3354.09,0.04285
3330.94,0.04445
3307.8,0.04629
3284.65,0.04828
3261.51,0.05244
3238.36,0.05733
3215.22,0.06186
3192.07,0.06761
3168.93,0.07367
3145.78,0.07973
3122.64,0.08574
3099.49,0.09245
3076.35,0.09764
3053.2,0.10354
3030.06,0.10731
3006.91,0.10356
2983.77,0.09255
2960.62,0.07412
2937.48,0.06574
2914.33,0.06477
2891.19,0.06806
2868.04,0.07317
2844.9,0.08491
2821.75,0.10684
2798.61,0.12250
2775.46,0.13037
2752.32,0.13377
2729.17,0.13614
2706.03,0.14343
2682.88,0.15109
2659.74,0.15632
2636.59,0.16182
2613.45,0.16768
2590.3,0.17363
2567.16,0.17755
2544.02,0.17949
2520.87,0.18420
2497.73,0.19336
2474.58,0.20216
2451.44,0.21106
2428.29,0.22041
2405.15,0.23136
2382,0.24115
2358.86,0.24991
2335.71,0.25636
2312.57,0.25894
2289.42,0.25847
2266.28,0.25686
2243.13,0.25309
2219.99,0.25201
2196.84,0.24822
2173.7,0.23759
2150.55,0.22887
2127.41,0.22561
2104.26,0.22956
2081.12,0.22991
2057.97,0.22588
2034.83,0.23030
2011.68,0.24102
1988.54,0.24757
1965.39,0.25241
1942.25,0.26025
1919.1,0.26409
1895.96,0.26254
1872.81,0.25972
1849.67,0.25251
1826.52,0.23464
1803.38,0.19307
1780.23,0.13648
1757.09,0.08036
1733.94,0.06289
1710.8,0.06970
1687.65,0.07116
1664.51,0.06424
1641.36,0.06506
1618.22,0.06319
1595.07,0.05972
1571.93,0.08222
1548.78,0.09379
1525.64,0.06984
1502.49,0.05589
1479.35,0.06118
1456.2,0.04868
1433.06,0.04593
1409.91,0.05085
1386.77,0.04825
1363.62,0.04662
1340.48,0.04742
1317.33,0.04587
1294.19,0.04588
1271.04,0.04207
1247.9,0.04558
1224.75,0.04640
1201.61,0.04660
1178.46,0.04039
1155.32,0.04122
1132.17,0.03737
1109.03,0.03931
1085.88,0.03923
1062.74,0.05106
1039.59,0.05554
1016.45,0.06560
993.304,0.07193
970.159,0.08695
947.014,0.09935
923.869,0.10498
900.724,0.09029
877.579,0.09523
854.434,0.09994
831.289,0.09836
808.144,0.08720
784.999,0.08608
761.854,0.08157
738.709,0.07528
715.565,0.06841
692.42,0.06545
669.275,0.05815
646.13,0.05853
622.985,0.05514
599.84,0.06252