File: 01_Data/Pressure_Treated_Deck/FTIR/IS/Deprecated/Pressure_Treated_Deck_IS_S_220926_R3.dpt
7497.03,0.75992
7473.89,0.75484
7450.74,0.75586
7427.6,0.74991
7404.45,0.74215
7381.31,0.73427
7358.16,0.73007
7335.02,0.72853
7311.87,0.71595
7288.73,0.72071
7265.58,0.72666
7242.44,0.72113
7219.29,0.71021
7196.15,0.71029
7173,0.71326
7149.86,0.70190
7126.71,0.68859
7103.57,0.67304
7080.42,0.64797
7057.28,0.63260
7034.13,0.62067
7010.99,0.60242
6987.84,0.59295
6964.7,0.58040
6941.55,0.58278
6918.41,0.58145
6895.26,0.57685
6872.12,0.57925
6848.97,0.57820
6825.83,0.57528
6802.68,0.57795
6779.54,0.57354
6756.39,0.57581
6733.25,0.58312
6710.1,0.58947
6686.96,0.58336
6663.82,0.58770
6640.67,0.59383
6617.53,0.59597
6594.38,0.59948
6571.24,0.60102
6548.09,0.60684
6524.95,0.60698
6501.8,0.60600
6478.66,0.60873
6455.51,0.61142
6432.37,0.61353
6409.22,0.61710
6386.08,0.61531
6362.93,0.61755
6339.79,0.61790
6316.64,0.62206
6293.5,0.62245
6270.35,0.62925
6247.21,0.63455
6224.06,0.64079
6200.92,0.65063
6177.77,0.65846
6154.63,0.66245
6131.48,0.66011
6108.34,0.66749
6085.19,0.66684
6062.05,0.66792
6038.9,0.65700
6015.76,0.65424
5992.61,0.64866
5969.47,0.64916
5946.32,0.64683
5923.18,0.64658
5900.03,0.64183
5876.89,0.63956
5853.74,0.64072
5830.6,0.63691
5807.45,0.63324
5784.31,0.63426
5761.16,0.63737
5738.02,0.63784
5714.87,0.63708
5691.73,0.63796
5668.58,0.63644
5645.44,0.63619
5622.29,0.63408
5599.15,0.63491
5576,0.63616
5552.86,0.63934
5529.71,0.64238
5506.57,0.64194
5483.42,0.64424
5460.28,0.64392
5437.13,0.65053
5413.99,0.65466
5390.84,0.65651
5367.7,0.65485
5344.55,0.65271
5321.41,0.64607
5298.26,0.62320
5275.12,0.58525
5251.97,0.53995
5228.83,0.50584
5205.68,0.49296
5182.54,0.49244
5159.39,0.50064
5136.25,0.51280
5113.1,0.52647
5089.96,0.53862
5066.81,0.54853
5043.67,0.55844
5020.52,0.56447
4997.38,0.56803
4974.23,0.56301
4951.09,0.55028
4927.94,0.53208
4904.8,0.51117
4881.65,0.49118
4858.51,0.47324
4835.36,0.45859
4812.22,0.44846
4789.07,0.44190
4765.93,0.43706
4742.78,0.43509
4719.64,0.43903
4696.49,0.44042
4673.35,0.44512
4650.2,0.45254
4627.06,0.46254
4603.92,0.47361
4580.77,0.48341
4557.63,0.48874
4534.48,0.49267
4511.34,0.49385
4488.19,0.48604
4465.05,0.46372
4441.9,0.43867
4418.76,0.41046
4395.61,0.39777
4372.47,0.40426
4349.32,0.40760
4326.18,0.40207
4303.03,0.39264
4279.89,0.38622
4256.74,0.38933
4233.6,0.39320
4210.45,0.39364
4187.31,0.39542
4164.16,0.39921
4141.02,0.39475
4117.87,0.38132
4094.73,0.36312
4071.58,0.34125
4048.44,0.31989
4025.29,0.30724
4002.15,0.30494
3979,0.30971
3955.86,0.31872
3932.71,0.32946
3909.57,0.33927
3886.42,0.34899
3863.28,0.35754
3840.13,0.36716
3816.99,0.36890
3793.84,0.36843
3770.7,0.36500
3747.55,0.35651
3724.41,0.34002
3701.26,0.30852
3678.12,0.25010
3654.97,0.17256
3631.83,0.12322
3608.68,0.09329
3585.54,0.07348
3562.39,0.06084
3539.25,0.05316
3516.1,0.04857
3492.96,0.04513
3469.81,0.04145
3446.67,0.04182
3423.52,0.04055
3400.38,0.04093
3377.23,0.04148
3354.09,0.04211
3330.94,0.04457
3307.8,0.04641
3284.65,0.04789
3261.51,0.05210
3238.36,0.05593
3215.22,0.06047
3192.07,0.06561
3168.93,0.07208
3145.78,0.07832
3122.64,0.08511
3099.49,0.09036
3076.35,0.09559
3053.2,0.10129
3030.06,0.10512
3006.91,0.10167
2983.77,0.09178
2960.62,0.07387
2937.48,0.06474
2914.33,0.06489
2891.19,0.06784
2868.04,0.07298
2844.9,0.08463
2821.75,0.10604
2798.61,0.12164
2775.46,0.12794
2752.32,0.13210
2729.17,0.13466
2706.03,0.14131
2682.88,0.14943
2659.74,0.15499
2636.59,0.16003
2613.45,0.16637
2590.3,0.17189
2567.16,0.17598
2544.02,0.17793
2520.87,0.18302
2497.73,0.19117
2474.58,0.20020
2451.44,0.20869
2428.29,0.21847
2405.15,0.22944
2382,0.23898
2358.86,0.24709
2335.71,0.25327
2312.57,0.25553
2289.42,0.25518
2266.28,0.25344
2243.13,0.24918
2219.99,0.24759
2196.84,0.24404
2173.7,0.23338
2150.55,0.22502
2127.41,0.22217
2104.26,0.22488
2081.12,0.22581
2057.97,0.22165
2034.83,0.22610
2011.68,0.23688
1988.54,0.24328
1965.39,0.24840
1942.25,0.25594
1919.1,0.25999
1895.96,0.25843
1872.81,0.25540
1849.67,0.24907
1826.52,0.23236
1803.38,0.19092
1780.23,0.13586
1757.09,0.08057
1733.94,0.06222
1710.8,0.06923
1687.65,0.06995
1664.51,0.06325
1641.36,0.06371
1618.22,0.06257
1595.07,0.05952
1571.93,0.08125
1548.78,0.09261
1525.64,0.06931
1502.49,0.05609
1479.35,0.06083
1456.2,0.04892
1433.06,0.04607
1409.91,0.05082
1386.77,0.04832
1363.62,0.04684
1340.48,0.04741
1317.33,0.04583
1294.19,0.04573
1271.04,0.04247
1247.9,0.04570
1224.75,0.04605
1201.61,0.04691
1178.46,0.04097
1155.32,0.04154
1132.17,0.03687
1109.03,0.03842
1085.88,0.03891
1062.74,0.05120
1039.59,0.05570
1016.45,0.06547
993.304,0.07120
970.159,0.08700
947.014,0.09891
923.869,0.10390
900.724,0.08917
877.579,0.09407
854.434,0.09896
831.289,0.09642
808.144,0.08503
784.999,0.08516
761.854,0.07922
738.709,0.07400
715.565,0.06590
692.42,0.06340
669.275,0.05741
646.13,0.05932
622.985,0.05378
599.84,0.06025