File: 01_Data/Pressure_Treated_Deck/FTIR/IS/Deprecated/Pressure_Treated_Deck_IS_T_220926_R7.dpt
7497.03,0.02270
7473.89,0.01988
7450.74,0.02498
7427.6,0.01706
7404.45,0.02334
7381.31,0.03161
7358.16,0.02616
7335.02,0.02517
7311.87,0.02369
7288.73,0.02861
7265.58,0.03415
7242.44,0.02548
7219.29,0.03214
7196.15,0.01947
7173,0.01993
7149.86,0.02592
7126.71,0.02695
7103.57,0.02248
7080.42,0.01920
7057.28,0.02596
7034.13,0.02261
7010.99,0.02288
6987.84,0.02416
6964.7,0.01707
6941.55,0.02465
6918.41,0.01928
6895.26,0.03007
6872.12,0.02048
6848.97,0.02776
6825.83,0.02124
6802.68,0.02308
6779.54,0.02545
6756.39,0.02678
6733.25,0.02055
6710.1,0.01839
6686.96,0.02135
6663.82,0.02976
6640.67,0.02174
6617.53,0.01831
6594.38,0.02519
6571.24,0.02246
6548.09,0.02463
6524.95,0.02170
6501.8,0.02659
6478.66,0.02312
6455.51,0.01766
6432.37,0.02324
6409.22,0.02455
6386.08,0.02264
6362.93,0.01983
6339.79,0.01995
6316.64,0.02084
6293.5,0.02130
6270.35,0.02494
6247.21,0.02203
6224.06,0.02165
6200.92,0.02193
6177.77,0.02429
6154.63,0.02176
6131.48,0.02426
6108.34,0.02087
6085.19,0.02300
6062.05,0.02209
6038.9,0.02206
6015.76,0.02175
5992.61,0.01961
5969.47,0.02225
5946.32,0.02218
5923.18,0.02425
5900.03,0.02174
5876.89,0.02204
5853.74,0.02384
5830.6,0.02084
5807.45,0.02111
5784.31,0.02263
5761.16,0.02291
5738.02,0.02216
5714.87,0.02088
5691.73,0.02152
5668.58,0.02498
5645.44,0.02295
5622.29,0.02198
5599.15,0.02518
5576,0.02271
5552.86,0.02222
5529.71,0.02134
5506.57,0.02220
5483.42,0.02172
5460.28,0.02220
5437.13,0.02118
5413.99,0.02292
5390.84,0.02076
5367.7,0.02341
5344.55,0.02331
5321.41,0.02194
5298.26,0.02220
5275.12,0.02349
5251.97,0.02291
5228.83,0.02218
5205.68,0.02169
5182.54,0.02259
5159.39,0.02295
5136.25,0.02230
5113.1,0.02397
5089.96,0.02308
5066.81,0.02295
5043.67,0.02279
5020.52,0.02310
4997.38,0.02316
4974.23,0.02301
4951.09,0.02200
4927.94,0.02256
4904.8,0.02205
4881.65,0.02138
4858.51,0.02238
4835.36,0.02370
4812.22,0.02319
4789.07,0.02218
4765.93,0.02244
4742.78,0.02318
4719.64,0.02302
4696.49,0.02248
4673.35,0.02232
4650.2,0.02302
4627.06,0.02336
4603.92,0.02287
4580.77,0.02294
4557.63,0.02336
4534.48,0.02191
4511.34,0.02283
4488.19,0.02355
4465.05,0.02330
4441.9,0.02349
4418.76,0.02363
4395.61,0.02292
4372.47,0.02293
4349.32,0.02316
4326.18,0.02314
4303.03,0.02269
4279.89,0.02331
4256.74,0.02301
4233.6,0.02352
4210.45,0.02371
4187.31,0.02310
4164.16,0.02249
4141.02,0.02293
4117.87,0.02316
4094.73,0.02312
4071.58,0.02252
4048.44,0.02290
4025.29,0.02285
4002.15,0.02357
3979,0.02351
3955.86,0.02374
3932.71,0.02307
3909.57,0.02300
3886.42,0.02355
3863.28,0.02279
3840.13,0.02307
3816.99,0.02349
3793.84,0.02275
3770.7,0.02358
3747.55,0.02325
3724.41,0.02292
3701.26,0.02326
3678.12,0.02294
3654.97,0.02350
3631.83,0.02266
3608.68,0.02261
3585.54,0.02229
3562.39,0.02257
3539.25,0.02175
3516.1,0.02193
3492.96,0.02174
3469.81,0.02120
3446.67,0.02153
3423.52,0.02106
3400.38,0.02150
3377.23,0.02083
3354.09,0.02088
3330.94,0.02084
3307.8,0.02137
3284.65,0.02042
3261.51,0.02072
3238.36,0.02148
3215.22,0.02142
3192.07,0.02182
3168.93,0.02123
3145.78,0.02091
3122.64,0.02147
3099.49,0.02147
3076.35,0.02183
3053.2,0.02151
3030.06,0.02096
3006.91,0.02088
2983.77,0.02090
2960.62,0.02040
2937.48,0.01999
2914.33,0.02043
2891.19,0.02110
2868.04,0.02110
2844.9,0.02167
2821.75,0.02209
2798.61,0.02228
2775.46,0.02156
2752.32,0.02152
2729.17,0.02206
2706.03,0.02190
2682.88,0.02196
2659.74,0.02265
2636.59,0.02259
2613.45,0.02151
2590.3,0.02181
2567.16,0.02173
2544.02,0.02196
2520.87,0.02177
2497.73,0.02167
2474.58,0.02230
2451.44,0.02162
2428.29,0.02171
2405.15,0.02181
2382,0.02200
2358.86,0.02205
2335.71,0.02187
2312.57,0.02174
2289.42,0.02165
2266.28,0.02191
2243.13,0.02170
2219.99,0.02168
2196.84,0.02170
2173.7,0.02174
2150.55,0.02175
2127.41,0.02168
2104.26,0.02167
2081.12,0.02180
2057.97,0.02140
2034.83,0.02136
2011.68,0.02125
1988.54,0.02142
1965.39,0.02162
1942.25,0.02132
1919.1,0.02143
1895.96,0.02129
1872.81,0.02098
1849.67,0.02086
1826.52,0.02082
1803.38,0.02038
1780.23,0.01971
1757.09,0.01833
1733.94,0.01997
1710.8,0.02086
1687.65,0.01995
1664.51,0.01909
1641.36,0.01879
1618.22,0.01922
1595.07,0.01946
1571.93,0.01923
1548.78,0.01888
1525.64,0.01923
1502.49,0.01933
1479.35,0.01937
1456.2,0.01912
1433.06,0.01889
1409.91,0.01882
1386.77,0.01846
1363.62,0.01858
1340.48,0.01836
1317.33,0.01752
1294.19,0.01808
1271.04,0.02002
1247.9,0.02065
1224.75,0.01978
1201.61,0.01936
1178.46,0.01847
1155.32,0.01839
1132.17,0.01852
1109.03,0.01913
1085.88,0.01931
1062.74,0.01956
1039.59,0.01991
1016.45,0.01990
993.304,0.02195
970.159,0.02047
947.014,0.02048
923.869,0.01981
900.724,0.01928
877.579,0.01927
854.434,0.01890
831.289,0.01936
808.144,0.01969
784.999,0.01834
761.854,0.01808
738.709,0.01864
715.565,0.01900
692.42,0.01813
669.275,0.01713
646.13,0.01631
622.985,0.01506
599.84,0.01707