File: 01_Data/Pressure_Treated_Deck/FTIR/IS/Deprecated/Pressure_Treated_Deck_IS_S_220926_R7.dpt
7497.03,0.76548
7473.89,0.76093
7450.74,0.75277
7427.6,0.74256
7404.45,0.74164
7381.31,0.74209
7358.16,0.73378
7335.02,0.72408
7311.87,0.72432
7288.73,0.71378
7265.58,0.71927
7242.44,0.72375
7219.29,0.71736
7196.15,0.71744
7173,0.71060
7149.86,0.70318
7126.71,0.68456
7103.57,0.68177
7080.42,0.65699
7057.28,0.63910
7034.13,0.62105
7010.99,0.60368
6987.84,0.59118
6964.7,0.58665
6941.55,0.58298
6918.41,0.57905
6895.26,0.58178
6872.12,0.58256
6848.97,0.57698
6825.83,0.57416
6802.68,0.57876
6779.54,0.57847
6756.39,0.58190
6733.25,0.58186
6710.1,0.58261
6686.96,0.58704
6663.82,0.58904
6640.67,0.59080
6617.53,0.59695
6594.38,0.59841
6571.24,0.60664
6548.09,0.60487
6524.95,0.60948
6501.8,0.61168
6478.66,0.61068
6455.51,0.60868
6432.37,0.61435
6409.22,0.61493
6386.08,0.61519
6362.93,0.62238
6339.79,0.62293
6316.64,0.62206
6293.5,0.62776
6270.35,0.62917
6247.21,0.63838
6224.06,0.64124
6200.92,0.64949
6177.77,0.65693
6154.63,0.65977
6131.48,0.66862
6108.34,0.66527
6085.19,0.66883
6062.05,0.66539
6038.9,0.66021
6015.76,0.65385
5992.61,0.65013
5969.47,0.64752
5946.32,0.64930
5923.18,0.64869
5900.03,0.64491
5876.89,0.64099
5853.74,0.64128
5830.6,0.63998
5807.45,0.63457
5784.31,0.63780
5761.16,0.63781
5738.02,0.63730
5714.87,0.63857
5691.73,0.63615
5668.58,0.63832
5645.44,0.63699
5622.29,0.63787
5599.15,0.63871
5576,0.63775
5552.86,0.63950
5529.71,0.64152
5506.57,0.64161
5483.42,0.64664
5460.28,0.64710
5437.13,0.65197
5413.99,0.65585
5390.84,0.65885
5367.7,0.65814
5344.55,0.65675
5321.41,0.64830
5298.26,0.62787
5275.12,0.59138
5251.97,0.54906
5228.83,0.51714
5205.68,0.50426
5182.54,0.50390
5159.39,0.51290
5136.25,0.52332
5113.1,0.53633
5089.96,0.54769
5066.81,0.55844
5043.67,0.56682
5020.52,0.57340
4997.38,0.57533
4974.23,0.56813
4951.09,0.55372
4927.94,0.53330
4904.8,0.51153
4881.65,0.49211
4858.51,0.47355
4835.36,0.45869
4812.22,0.44760
4789.07,0.44161
4765.93,0.43773
4742.78,0.43719
4719.64,0.43843
4696.49,0.44309
4673.35,0.44632
4650.2,0.45316
4627.06,0.46252
4603.92,0.47445
4580.77,0.48348
4557.63,0.49017
4534.48,0.49396
4511.34,0.49587
4488.19,0.48598
4465.05,0.46547
4441.9,0.43875
4418.76,0.41045
4395.61,0.39820
4372.47,0.40390
4349.32,0.40743
4326.18,0.40277
4303.03,0.39343
4279.89,0.38709
4256.74,0.39038
4233.6,0.39408
4210.45,0.39412
4187.31,0.39622
4164.16,0.40070
4141.02,0.39617
4117.87,0.38299
4094.73,0.36408
4071.58,0.34263
4048.44,0.32173
4025.29,0.30776
4002.15,0.30613
3979,0.31143
3955.86,0.31986
3932.71,0.33113
3909.57,0.34164
3886.42,0.35060
3863.28,0.36023
3840.13,0.36972
3816.99,0.37291
3793.84,0.37223
3770.7,0.36867
3747.55,0.36106
3724.41,0.34593
3701.26,0.31522
3678.12,0.25772
3654.97,0.18067
3631.83,0.13078
3608.68,0.09717
3585.54,0.07564
3562.39,0.06263
3539.25,0.05397
3516.1,0.04889
3492.96,0.04469
3469.81,0.04208
3446.67,0.04141
3423.52,0.04095
3400.38,0.04077
3377.23,0.04157
3354.09,0.04182
3330.94,0.04422
3307.8,0.04600
3284.65,0.04795
3261.51,0.05217
3238.36,0.05683
3215.22,0.06211
3192.07,0.06699
3168.93,0.07288
3145.78,0.07957
3122.64,0.08544
3099.49,0.09175
3076.35,0.09700
3053.2,0.10308
3030.06,0.10703
3006.91,0.10254
2983.77,0.09243
2960.62,0.07441
2937.48,0.06524
2914.33,0.06507
2891.19,0.06810
2868.04,0.07268
2844.9,0.08497
2821.75,0.10637
2798.61,0.12235
2775.46,0.12952
2752.32,0.13346
2729.17,0.13580
2706.03,0.14281
2682.88,0.15042
2659.74,0.15624
2636.59,0.16083
2613.45,0.16753
2590.3,0.17293
2567.16,0.17670
2544.02,0.17880
2520.87,0.18364
2497.73,0.19273
2474.58,0.20153
2451.44,0.21025
2428.29,0.22017
2405.15,0.23064
2382,0.24034
2358.86,0.24934
2335.71,0.25531
2312.57,0.25822
2289.42,0.25758
2266.28,0.25555
2243.13,0.25195
2219.99,0.25038
2196.84,0.24741
2173.7,0.23655
2150.55,0.22781
2127.41,0.22499
2104.26,0.22856
2081.12,0.22929
2057.97,0.22496
2034.83,0.22952
2011.68,0.24014
1988.54,0.24668
1965.39,0.25185
1942.25,0.25936
1919.1,0.26338
1895.96,0.26157
1872.81,0.25854
1849.67,0.25152
1826.52,0.23454
1803.38,0.19213
1780.23,0.13599
1757.09,0.08057
1733.94,0.06244
1710.8,0.06948
1687.65,0.07088
1664.51,0.06421
1641.36,0.06487
1618.22,0.06305
1595.07,0.05963
1571.93,0.08179
1548.78,0.09371
1525.64,0.06939
1502.49,0.05602
1479.35,0.06127
1456.2,0.04853
1433.06,0.04588
1409.91,0.05094
1386.77,0.04848
1363.62,0.04704
1340.48,0.04738
1317.33,0.04617
1294.19,0.04542
1271.04,0.04239
1247.9,0.04497
1224.75,0.04634
1201.61,0.04696
1178.46,0.04045
1155.32,0.04173
1132.17,0.03709
1109.03,0.03878
1085.88,0.03917
1062.74,0.05195
1039.59,0.05543
1016.45,0.06557
993.304,0.07225
970.159,0.08703
947.014,0.09954
923.869,0.10410
900.724,0.08989
877.579,0.09468
854.434,0.10008
831.289,0.09838
808.144,0.08649
784.999,0.08675
761.854,0.08094
738.709,0.07480
715.565,0.06694
692.42,0.06382
669.275,0.05834
646.13,0.05867
622.985,0.05661
599.84,0.05831