File: 01_Data/XPS_Foam_Board/FTIR/IS/XPS_Foam_Board_IS_S_220929_R2.dpt
7497.03,0.39943
7473.89,0.38937
7450.74,0.39488
7427.6,0.40025
7404.45,0.39031
7381.31,0.39473
7358.16,0.38837
7335.02,0.38872
7311.87,0.39149
7288.73,0.39104
7265.58,0.38306
7242.44,0.39197
7219.29,0.38679
7196.15,0.39283
7173,0.38926
7149.86,0.38271
7126.71,0.39609
7103.57,0.38352
7080.42,0.38978
7057.28,0.39047
7034.13,0.38963
7010.99,0.39003
6987.84,0.38687
6964.7,0.39613
6941.55,0.39256
6918.41,0.38808
6895.26,0.39354
6872.12,0.39330
6848.97,0.38445
6825.83,0.38637
6802.68,0.39292
6779.54,0.38847
6756.39,0.39107
6733.25,0.38657
6710.1,0.39437
6686.96,0.39026
6663.82,0.38870
6640.67,0.38978
6617.53,0.38844
6594.38,0.39434
6571.24,0.39159
6548.09,0.39034
6524.95,0.38575
6501.8,0.39078
6478.66,0.38978
6455.51,0.39375
6432.37,0.38548
6409.22,0.39058
6386.08,0.38720
6362.93,0.38743
6339.79,0.38569
6316.64,0.39348
6293.5,0.39362
6270.35,0.39229
6247.21,0.39110
6224.06,0.39142
6200.92,0.38656
6177.77,0.38521
6154.63,0.38670
6131.48,0.38891
6108.34,0.38308
6085.19,0.38316
6062.05,0.38324
6038.9,0.38632
6015.76,0.37968
5992.61,0.36721
5969.47,0.35934
5946.32,0.35780
5923.18,0.36263
5900.03,0.36577
5876.89,0.37391
5853.74,0.37849
5830.6,0.38153
5807.45,0.37887
5784.31,0.38116
5761.16,0.38265
5738.02,0.38544
5714.87,0.38165
5691.73,0.38089
5668.58,0.37886
5645.44,0.38074
5622.29,0.38519
5599.15,0.38554
5576,0.38583
5552.86,0.38520
5529.71,0.38412
5506.57,0.38548
5483.42,0.38533
5460.28,0.38679
5437.13,0.38722
5413.99,0.38563
5390.84,0.38671
5367.7,0.38456
5344.55,0.38716
5321.41,0.38775
5298.26,0.38863
5275.12,0.38679
5251.97,0.38643
5228.83,0.38577
5205.68,0.38617
5182.54,0.38872
5159.39,0.38653
5136.25,0.38773
5113.1,0.38720
5089.96,0.38749
5066.81,0.38884
5043.67,0.38880
5020.52,0.38735
4997.38,0.38746
4974.23,0.38798
4951.09,0.38858
4927.94,0.38774
4904.8,0.38797
4881.65,0.38811
4858.51,0.38720
4835.36,0.38677
4812.22,0.38713
4789.07,0.38680
4765.93,0.38623
4742.78,0.38578
4719.64,0.38491
4696.49,0.38041
4673.35,0.35888
4650.2,0.36071
4627.06,0.35445
4603.92,0.35115
4580.77,0.36679
4557.63,0.37189
4534.48,0.37882
4511.34,0.37988
4488.19,0.38130
4465.05,0.38270
4441.9,0.37957
4418.76,0.37967
4395.61,0.37721
4372.47,0.37114
4349.32,0.36257
4326.18,0.36046
4303.03,0.36957
4279.89,0.36220
4256.74,0.34911
4233.6,0.34973
4210.45,0.35159
4187.31,0.35785
4164.16,0.36212
4141.02,0.36105
4117.87,0.35500
4094.73,0.34940
4071.58,0.32638
4048.44,0.30903
4025.29,0.32405
4002.15,0.35173
3979,0.35982
3955.86,0.36249
3932.71,0.36199
3909.57,0.36411
3886.42,0.36655
3863.28,0.36697
3840.13,0.36587
3816.99,0.36252
3793.84,0.36421
3770.7,0.36654
3747.55,0.36993
3724.41,0.36570
3701.26,0.36479
3678.12,0.36549
3654.97,0.35586
3631.83,0.36249
3608.68,0.36478
3585.54,0.36769
3562.39,0.36650
3539.25,0.36432
3516.1,0.36199
3492.96,0.35930
3469.81,0.35553
3446.67,0.35389
3423.52,0.35702
3400.38,0.35766
3377.23,0.35761
3354.09,0.35868
3330.94,0.35907
3307.8,0.35854
3284.65,0.35793
3261.51,0.35657
3238.36,0.35606
3215.22,0.35334
3192.07,0.34796
3168.93,0.33787
3145.78,0.33644
3122.64,0.31890
3099.49,0.23619
3076.35,0.18865
3053.2,0.17860
3030.06,0.13223
3006.91,0.21756
2983.77,0.26661
2960.62,0.22245
2937.48,0.13636
2914.33,0.12983
2891.19,0.19003
2868.04,0.21923
2844.9,0.18729
2821.75,0.30718
2798.61,0.32217
2775.46,0.33114
2752.32,0.34245
2729.17,0.33908
2706.03,0.33829
2682.88,0.33765
2659.74,0.33969
2636.59,0.33437
2613.45,0.34068
2590.3,0.34258
2567.16,0.34516
2544.02,0.34347
2520.87,0.34447
2497.73,0.34585
2474.58,0.35214
2451.44,0.35557
2428.29,0.35817
2405.15,0.35734
2382,0.35565
2358.86,0.35022
2335.71,0.33427
2312.57,0.34309
2289.42,0.35562
2266.28,0.35755
2243.13,0.35879
2219.99,0.36147
2196.84,0.36347
2173.7,0.36431
2150.55,0.36571
2127.41,0.36765
2104.26,0.36817
2081.12,0.36925
2057.97,0.36795
2034.83,0.36647
2011.68,0.36295
1988.54,0.34731
1965.39,0.30825
1942.25,0.26450
1919.1,0.33828
1895.96,0.32258
1872.81,0.28022
1849.67,0.34052
1826.52,0.32688
1803.38,0.27626
1780.23,0.33352
1757.09,0.31007
1733.94,0.30020
1710.8,0.33549
1687.65,0.32368
1664.51,0.30625
1641.36,0.33091
1618.22,0.30143
1595.07,0.21423
1571.93,0.30813
1548.78,0.29647
1525.64,0.31248
1502.49,0.23727
1479.35,0.26090
1456.2,0.15062
1433.06,0.25608
1409.91,0.30928
1386.77,0.25487
1363.62,0.23155
1340.48,0.25452
1317.33,0.24902
1294.19,0.26263
1271.04,0.29126
1247.9,0.29889
1224.75,0.29548
1201.61,0.26530
1178.46,0.24446
1155.32,0.24254
1132.17,0.32021
1109.03,0.29452
1085.88,0.27030
1062.74,0.24399
1039.59,0.27353
1016.45,0.25381
993.304,0.29168
970.159,0.27443
947.014,0.28640
923.869,0.30461
900.724,0.25906
877.579,0.33186
854.434,0.32467
831.289,0.32148
808.144,0.31824
784.999,0.23302
761.854,0.12933
738.709,0.21413
715.565,0.21965
692.42,0.25138
669.275,0.32082
646.13,0.35914
622.985,0.30923
599.84,0.31492