File: 01_Data/XPS_Foam_Board/FTIR/IS/XPS_Foam_Board_IS_S_220929_R1.dpt
7497.03,0.38991
7473.89,0.38740
7450.74,0.39111
7427.6,0.39953
7404.45,0.39721
7381.31,0.39344
7358.16,0.38686
7335.02,0.39187
7311.87,0.38679
7288.73,0.38671
7265.58,0.38301
7242.44,0.39412
7219.29,0.39486
7196.15,0.39368
7173,0.39653
7149.86,0.38397
7126.71,0.39278
7103.57,0.39257
7080.42,0.38807
7057.28,0.38975
7034.13,0.39102
7010.99,0.39721
6987.84,0.39341
6964.7,0.39162
6941.55,0.38733
6918.41,0.38849
6895.26,0.39142
6872.12,0.38473
6848.97,0.38523
6825.83,0.39090
6802.68,0.38869
6779.54,0.39138
6756.39,0.39209
6733.25,0.39497
6710.1,0.39526
6686.96,0.38866
6663.82,0.38776
6640.67,0.39258
6617.53,0.39041
6594.38,0.39299
6571.24,0.38802
6548.09,0.38989
6524.95,0.39003
6501.8,0.39330
6478.66,0.38720
6455.51,0.39337
6432.37,0.38685
6409.22,0.39082
6386.08,0.39050
6362.93,0.38842
6339.79,0.38868
6316.64,0.38971
6293.5,0.38857
6270.35,0.38937
6247.21,0.39089
6224.06,0.38819
6200.92,0.38681
6177.77,0.38689
6154.63,0.38654
6131.48,0.38234
6108.34,0.38242
6085.19,0.38295
6062.05,0.38491
6038.9,0.38465
6015.76,0.37598
5992.61,0.36814
5969.47,0.35875
5946.32,0.35726
5923.18,0.35943
5900.03,0.36350
5876.89,0.37313
5853.74,0.37600
5830.6,0.37598
5807.45,0.37905
5784.31,0.37859
5761.16,0.38356
5738.02,0.38465
5714.87,0.38167
5691.73,0.37892
5668.58,0.38039
5645.44,0.38250
5622.29,0.38301
5599.15,0.38397
5576,0.38286
5552.86,0.38437
5529.71,0.38289
5506.57,0.38260
5483.42,0.38370
5460.28,0.38599
5437.13,0.38360
5413.99,0.38605
5390.84,0.38489
5367.7,0.38491
5344.55,0.38711
5321.41,0.38551
5298.26,0.38443
5275.12,0.38710
5251.97,0.38543
5228.83,0.38709
5205.68,0.38377
5182.54,0.38624
5159.39,0.38800
5136.25,0.38602
5113.1,0.38788
5089.96,0.38682
5066.81,0.38560
5043.67,0.38683
5020.52,0.38776
4997.38,0.38600
4974.23,0.38665
4951.09,0.38599
4927.94,0.38609
4904.8,0.38682
4881.65,0.38558
4858.51,0.38619
4835.36,0.38506
4812.22,0.38638
4789.07,0.38591
4765.93,0.38581
4742.78,0.38640
4719.64,0.38360
4696.49,0.38067
4673.35,0.35899
4650.2,0.36015
4627.06,0.35346
4603.92,0.35099
4580.77,0.36568
4557.63,0.37139
4534.48,0.37780
4511.34,0.37771
4488.19,0.38084
4465.05,0.38160
4441.9,0.37947
4418.76,0.37970
4395.61,0.37705
4372.47,0.37048
4349.32,0.36256
4326.18,0.36035
4303.03,0.36845
4279.89,0.36183
4256.74,0.34837
4233.6,0.34987
4210.45,0.34983
4187.31,0.35659
4164.16,0.36166
4141.02,0.36127
4117.87,0.35476
4094.73,0.34848
4071.58,0.32623
4048.44,0.30854
4025.29,0.32257
4002.15,0.35112
3979,0.35920
3955.86,0.36170
3932.71,0.36102
3909.57,0.36308
3886.42,0.36540
3863.28,0.36518
3840.13,0.36511
3816.99,0.36213
3793.84,0.36325
3770.7,0.36596
3747.55,0.36859
3724.41,0.36475
3701.26,0.36286
3678.12,0.36362
3654.97,0.35498
3631.83,0.36127
3608.68,0.36400
3585.54,0.36692
3562.39,0.36602
3539.25,0.36247
3516.1,0.36121
3492.96,0.35785
3469.81,0.35574
3446.67,0.35303
3423.52,0.35560
3400.38,0.35646
3377.23,0.35679
3354.09,0.35755
3330.94,0.35739
3307.8,0.35798
3284.65,0.35696
3261.51,0.35489
3238.36,0.35516
3215.22,0.35212
3192.07,0.34648
3168.93,0.33773
3145.78,0.33565
3122.64,0.31795
3099.49,0.23516
3076.35,0.18845
3053.2,0.17803
3030.06,0.13207
3006.91,0.21756
2983.77,0.26612
2960.62,0.22216
2937.48,0.13621
2914.33,0.13033
2891.19,0.18943
2868.04,0.21874
2844.9,0.18708
2821.75,0.30663
2798.61,0.32119
2775.46,0.33004
2752.32,0.34097
2729.17,0.33790
2706.03,0.33775
2682.88,0.33698
2659.74,0.33889
2636.59,0.33316
2613.45,0.33995
2590.3,0.34192
2567.16,0.34387
2544.02,0.34331
2520.87,0.34308
2497.73,0.34503
2474.58,0.35103
2451.44,0.35427
2428.29,0.35715
2405.15,0.35604
2382,0.35469
2358.86,0.34942
2335.71,0.33349
2312.57,0.34266
2289.42,0.35479
2266.28,0.35617
2243.13,0.35747
2219.99,0.36006
2196.84,0.36226
2173.7,0.36359
2150.55,0.36489
2127.41,0.36669
2104.26,0.36739
2081.12,0.36826
2057.97,0.36712
2034.83,0.36533
2011.68,0.36191
1988.54,0.34639
1965.39,0.30770
1942.25,0.26385
1919.1,0.33736
1895.96,0.32142
1872.81,0.27947
1849.67,0.33964
1826.52,0.32581
1803.38,0.27565
1780.23,0.33307
1757.09,0.30928
1733.94,0.29905
1710.8,0.33411
1687.65,0.32280
1664.51,0.30530
1641.36,0.32981
1618.22,0.30041
1595.07,0.21359
1571.93,0.30728
1548.78,0.29586
1525.64,0.31127
1502.49,0.23630
1479.35,0.26034
1456.2,0.15002
1433.06,0.25505
1409.91,0.30831
1386.77,0.25408
1363.62,0.23148
1340.48,0.25379
1317.33,0.24874
1294.19,0.26149
1271.04,0.29036
1247.9,0.29791
1224.75,0.29446
1201.61,0.26438
1178.46,0.24438
1155.32,0.24222
1132.17,0.31916
1109.03,0.29384
1085.88,0.26995
1062.74,0.24445
1039.59,0.27211
1016.45,0.25360
993.304,0.29156
970.159,0.27378
947.014,0.28586
923.869,0.30393
900.724,0.25896
877.579,0.33072
854.434,0.32399
831.289,0.32006
808.144,0.31789
784.999,0.23322
761.854,0.12949
738.709,0.21492
715.565,0.21839
692.42,0.25198
669.275,0.32093
646.13,0.35811
622.985,0.31068
599.84,0.31305