File: 01_Data/XPS_Foam_Board/FTIR/IS/XPS_Foam_Board_IS_S_220929_R8.dpt
7497.03,0.39818
7473.89,0.39317
7450.74,0.39217
7427.6,0.39189
7404.45,0.39677
7381.31,0.39256
7358.16,0.38953
7335.02,0.39481
7311.87,0.39908
7288.73,0.39398
7265.58,0.39366
7242.44,0.38580
7219.29,0.38968
7196.15,0.39337
7173,0.39158
7149.86,0.39073
7126.71,0.39141
7103.57,0.38895
7080.42,0.38658
7057.28,0.39002
7034.13,0.38642
7010.99,0.39419
6987.84,0.39175
6964.7,0.39001
6941.55,0.39308
6918.41,0.38908
6895.26,0.39418
6872.12,0.39186
6848.97,0.39344
6825.83,0.39333
6802.68,0.39038
6779.54,0.39125
6756.39,0.39225
6733.25,0.38978
6710.1,0.39165
6686.96,0.39274
6663.82,0.39124
6640.67,0.39428
6617.53,0.39211
6594.38,0.39348
6571.24,0.39193
6548.09,0.39289
6524.95,0.38902
6501.8,0.39142
6478.66,0.39201
6455.51,0.39089
6432.37,0.39097
6409.22,0.39262
6386.08,0.39445
6362.93,0.39007
6339.79,0.38597
6316.64,0.38980
6293.5,0.38856
6270.35,0.39020
6247.21,0.38856
6224.06,0.39088
6200.92,0.38819
6177.77,0.38707
6154.63,0.38489
6131.48,0.38463
6108.34,0.38296
6085.19,0.38137
6062.05,0.38215
6038.9,0.38579
6015.76,0.37774
5992.61,0.36927
5969.47,0.35863
5946.32,0.35655
5923.18,0.36492
5900.03,0.36403
5876.89,0.37438
5853.74,0.37628
5830.6,0.38093
5807.45,0.37794
5784.31,0.38039
5761.16,0.38462
5738.02,0.38248
5714.87,0.38367
5691.73,0.38359
5668.58,0.38048
5645.44,0.38404
5622.29,0.38391
5599.15,0.38389
5576,0.38392
5552.86,0.38499
5529.71,0.38273
5506.57,0.38492
5483.42,0.38606
5460.28,0.38613
5437.13,0.38570
5413.99,0.38516
5390.84,0.38633
5367.7,0.38579
5344.55,0.38726
5321.41,0.38679
5298.26,0.38643
5275.12,0.38794
5251.97,0.38712
5228.83,0.38678
5205.68,0.38735
5182.54,0.38770
5159.39,0.38688
5136.25,0.38749
5113.1,0.38652
5089.96,0.38849
5066.81,0.38823
5043.67,0.38767
5020.52,0.38765
4997.38,0.38742
4974.23,0.38808
4951.09,0.38796
4927.94,0.38750
4904.8,0.38758
4881.65,0.38902
4858.51,0.38858
4835.36,0.38738
4812.22,0.38785
4789.07,0.38737
4765.93,0.38737
4742.78,0.38621
4719.64,0.38515
4696.49,0.38112
4673.35,0.36026
4650.2,0.36157
4627.06,0.35327
4603.92,0.35156
4580.77,0.36775
4557.63,0.37250
4534.48,0.37895
4511.34,0.37945
4488.19,0.38222
4465.05,0.38244
4441.9,0.38029
4418.76,0.38033
4395.61,0.37755
4372.47,0.37118
4349.32,0.36289
4326.18,0.36069
4303.03,0.36979
4279.89,0.36197
4256.74,0.34912
4233.6,0.35137
4210.45,0.35137
4187.31,0.35838
4164.16,0.36183
4141.02,0.36205
4117.87,0.35533
4094.73,0.34994
4071.58,0.32708
4048.44,0.30887
4025.29,0.32336
4002.15,0.35169
3979,0.35998
3955.86,0.36250
3932.71,0.36250
3909.57,0.36396
3886.42,0.36630
3863.28,0.36671
3840.13,0.36575
3816.99,0.36263
3793.84,0.36399
3770.7,0.36689
3747.55,0.37039
3724.41,0.36587
3701.26,0.36414
3678.12,0.36506
3654.97,0.35637
3631.83,0.36251
3608.68,0.36527
3585.54,0.36770
3562.39,0.36704
3539.25,0.36494
3516.1,0.36234
3492.96,0.35938
3469.81,0.35637
3446.67,0.35406
3423.52,0.35654
3400.38,0.35764
3377.23,0.35814
3354.09,0.35954
3330.94,0.35837
3307.8,0.35929
3284.65,0.35796
3261.51,0.35696
3238.36,0.35649
3215.22,0.35337
3192.07,0.34847
3168.93,0.33819
3145.78,0.33626
3122.64,0.31967
3099.49,0.23574
3076.35,0.18857
3053.2,0.17868
3030.06,0.13250
3006.91,0.21854
2983.77,0.26653
2960.62,0.22307
2937.48,0.13691
2914.33,0.12981
2891.19,0.19046
2868.04,0.21912
2844.9,0.18735
2821.75,0.30769
2798.61,0.32213
2775.46,0.33147
2752.32,0.34238
2729.17,0.33906
2706.03,0.33866
2682.88,0.33783
2659.74,0.33975
2636.59,0.33399
2613.45,0.34135
2590.3,0.34260
2567.16,0.34532
2544.02,0.34350
2520.87,0.34423
2497.73,0.34581
2474.58,0.35202
2451.44,0.35559
2428.29,0.35858
2405.15,0.35685
2382,0.35559
2358.86,0.35052
2335.71,0.33486
2312.57,0.34353
2289.42,0.35599
2266.28,0.35749
2243.13,0.35845
2219.99,0.36131
2196.84,0.36348
2173.7,0.36472
2150.55,0.36610
2127.41,0.36744
2104.26,0.36862
2081.12,0.36921
2057.97,0.36803
2034.83,0.36628
2011.68,0.36271
1988.54,0.34770
1965.39,0.30808
1942.25,0.26457
1919.1,0.33814
1895.96,0.32241
1872.81,0.28015
1849.67,0.34082
1826.52,0.32641
1803.38,0.27660
1780.23,0.33400
1757.09,0.31022
1733.94,0.29999
1710.8,0.33484
1687.65,0.32334
1664.51,0.30634
1641.36,0.33080
1618.22,0.30162
1595.07,0.21469
1571.93,0.30859
1548.78,0.29641
1525.64,0.31178
1502.49,0.23721
1479.35,0.26099
1456.2,0.15021
1433.06,0.25544
1409.91,0.30895
1386.77,0.25497
1363.62,0.23188
1340.48,0.25430
1317.33,0.24946
1294.19,0.26235
1271.04,0.29086
1247.9,0.29901
1224.75,0.29600
1201.61,0.26521
1178.46,0.24484
1155.32,0.24241
1132.17,0.32009
1109.03,0.29466
1085.88,0.26978
1062.74,0.24461
1039.59,0.27264
1016.45,0.25373
993.304,0.29114
970.159,0.27463
947.014,0.28664
923.869,0.30480
900.724,0.25940
877.579,0.33140
854.434,0.32385
831.289,0.32078
808.144,0.31789
784.999,0.23317
761.854,0.13003
738.709,0.21534
715.565,0.21939
692.42,0.25145
669.275,0.32053
646.13,0.35926
622.985,0.31254
599.84,0.31424