File: 01_Data/XPS_Foam_Board/FTIR/IS/XPS_Foam_Board_IS_T_220929_R7.dpt
7497.03,0.02356
7473.89,0.02084
7450.74,0.02446
7427.6,0.02403
7404.45,0.01977
7381.31,0.02445
7358.16,0.02123
7335.02,0.02354
7311.87,0.02993
7288.73,0.03010
7265.58,0.03542
7242.44,0.03302
7219.29,0.02499
7196.15,0.02758
7173,0.02334
7149.86,0.02629
7126.71,0.02381
7103.57,0.02283
7080.42,0.02512
7057.28,0.03218
7034.13,0.02673
7010.99,0.02575
6987.84,0.02763
6964.7,0.02366
6941.55,0.02580
6918.41,0.02559
6895.26,0.02565
6872.12,0.01635
6848.97,0.02519
6825.83,0.02427
6802.68,0.02092
6779.54,0.02054
6756.39,0.02219
6733.25,0.02318
6710.1,0.01971
6686.96,0.02737
6663.82,0.02215
6640.67,0.02671
6617.53,0.01959
6594.38,0.02371
6571.24,0.02727
6548.09,0.02158
6524.95,0.02329
6501.8,0.02558
6478.66,0.02446
6455.51,0.02279
6432.37,0.02273
6409.22,0.02267
6386.08,0.02321
6362.93,0.02311
6339.79,0.01839
6316.64,0.02216
6293.5,0.02372
6270.35,0.02282
6247.21,0.01876
6224.06,0.02141
6200.92,0.02676
6177.77,0.02376
6154.63,0.02280
6131.48,0.02146
6108.34,0.02097
6085.19,0.02239
6062.05,0.02135
6038.9,0.02025
6015.76,0.02221
5992.61,0.02427
5969.47,0.02271
5946.32,0.02122
5923.18,0.01955
5900.03,0.02065
5876.89,0.02349
5853.74,0.02374
5830.6,0.01924
5807.45,0.02088
5784.31,0.02218
5761.16,0.02304
5738.02,0.02127
5714.87,0.02228
5691.73,0.02180
5668.58,0.02285
5645.44,0.01911
5622.29,0.02176
5599.15,0.02325
5576,0.02137
5552.86,0.02095
5529.71,0.02092
5506.57,0.02221
5483.42,0.02235
5460.28,0.02074
5437.13,0.02226
5413.99,0.02249
5390.84,0.02204
5367.7,0.02091
5344.55,0.02402
5321.41,0.02280
5298.26,0.02107
5275.12,0.02031
5251.97,0.02306
5228.83,0.02174
5205.68,0.02308
5182.54,0.02296
5159.39,0.02213
5136.25,0.02089
5113.1,0.02234
5089.96,0.02180
5066.81,0.02095
5043.67,0.02223
5020.52,0.02197
4997.38,0.02272
4974.23,0.02220
4951.09,0.02257
4927.94,0.02218
4904.8,0.02171
4881.65,0.02192
4858.51,0.02200
4835.36,0.02172
4812.22,0.02276
4789.07,0.02253
4765.93,0.02208
4742.78,0.02167
4719.64,0.02146
4696.49,0.02243
4673.35,0.02252
4650.2,0.02258
4627.06,0.02254
4603.92,0.02165
4580.77,0.02264
4557.63,0.02250
4534.48,0.02253
4511.34,0.02206
4488.19,0.02156
4465.05,0.02215
4441.9,0.02161
4418.76,0.02291
4395.61,0.02191
4372.47,0.02205
4349.32,0.02221
4326.18,0.02325
4303.03,0.02196
4279.89,0.02187
4256.74,0.02268
4233.6,0.02242
4210.45,0.02226
4187.31,0.02262
4164.16,0.02256
4141.02,0.02222
4117.87,0.02204
4094.73,0.02265
4071.58,0.02180
4048.44,0.02244
4025.29,0.02234
4002.15,0.02199
3979,0.02306
3955.86,0.02172
3932.71,0.02213
3909.57,0.02292
3886.42,0.02294
3863.28,0.02278
3840.13,0.02273
3816.99,0.02204
3793.84,0.02245
3770.7,0.02222
3747.55,0.02253
3724.41,0.02197
3701.26,0.02242
3678.12,0.02140
3654.97,0.02211
3631.83,0.02266
3608.68,0.02135
3585.54,0.02165
3562.39,0.02132
3539.25,0.02118
3516.1,0.02130
3492.96,0.02086
3469.81,0.02071
3446.67,0.02091
3423.52,0.02005
3400.38,0.02023
3377.23,0.02039
3354.09,0.01945
3330.94,0.01996
3307.8,0.01987
3284.65,0.01983
3261.51,0.02098
3238.36,0.02091
3215.22,0.02097
3192.07,0.02106
3168.93,0.01994
3145.78,0.02063
3122.64,0.02079
3099.49,0.02025
3076.35,0.02082
3053.2,0.01987
3030.06,0.02040
3006.91,0.02008
2983.77,0.01983
2960.62,0.01966
2937.48,0.01901
2914.33,0.02020
2891.19,0.02060
2868.04,0.02003
2844.9,0.02050
2821.75,0.02110
2798.61,0.02088
2775.46,0.02070
2752.32,0.02062
2729.17,0.02129
2706.03,0.02069
2682.88,0.02102
2659.74,0.02082
2636.59,0.02105
2613.45,0.02124
2590.3,0.02096
2567.16,0.02126
2544.02,0.02068
2520.87,0.02114
2497.73,0.02124
2474.58,0.02069
2451.44,0.02123
2428.29,0.02133
2405.15,0.02166
2382,0.02096
2358.86,0.02096
2335.71,0.02132
2312.57,0.02099
2289.42,0.02105
2266.28,0.02099
2243.13,0.02034
2219.99,0.02099
2196.84,0.02090
2173.7,0.02068
2150.55,0.02081
2127.41,0.02068
2104.26,0.02061
2081.12,0.02078
2057.97,0.02071
2034.83,0.02059
2011.68,0.02025
1988.54,0.02064
1965.39,0.02043
1942.25,0.02068
1919.1,0.02057
1895.96,0.02061
1872.81,0.02053
1849.67,0.02017
1826.52,0.01990
1803.38,0.01957
1780.23,0.01893
1757.09,0.01742
1733.94,0.01961
1710.8,0.02060
1687.65,0.01917
1664.51,0.01840
1641.36,0.01844
1618.22,0.01884
1595.07,0.01891
1571.93,0.01843
1548.78,0.01829
1525.64,0.01886
1502.49,0.01847
1479.35,0.01821
1456.2,0.01843
1433.06,0.01876
1409.91,0.01819
1386.77,0.01790
1363.62,0.01851
1340.48,0.01749
1317.33,0.01696
1294.19,0.01763
1271.04,0.01927
1247.9,0.02005
1224.75,0.01984
1201.61,0.01828
1178.46,0.01826
1155.32,0.01743
1132.17,0.01800
1109.03,0.01877
1085.88,0.01844
1062.74,0.01960
1039.59,0.01963
1016.45,0.01890
993.304,0.02032
970.159,0.02050
947.014,0.02005
923.869,0.01955
900.724,0.01952
877.579,0.01865
854.434,0.01915
831.289,0.01911
808.144,0.01877
784.999,0.01838
761.854,0.01805
738.709,0.01792
715.565,0.01738
692.42,0.01733
669.275,0.01704
646.13,0.01756
622.985,0.01501
599.84,0.01474