File: 01_Data/XPS_Foam_Board/FTIR/IS/XPS_Foam_Board_IS_S_220929_R6.dpt
7497.03,0.39279
7473.89,0.38819
7450.74,0.39558
7427.6,0.39457
7404.45,0.39331
7381.31,0.39626
7358.16,0.39353
7335.02,0.38970
7311.87,0.39132
7288.73,0.38436
7265.58,0.39258
7242.44,0.39407
7219.29,0.39231
7196.15,0.39485
7173,0.38880
7149.86,0.39193
7126.71,0.39282
7103.57,0.39170
7080.42,0.39375
7057.28,0.39099
7034.13,0.38850
7010.99,0.39216
6987.84,0.38770
6964.7,0.38854
6941.55,0.38855
6918.41,0.39095
6895.26,0.39199
6872.12,0.39090
6848.97,0.38546
6825.83,0.39400
6802.68,0.39204
6779.54,0.39107
6756.39,0.39048
6733.25,0.39367
6710.1,0.39465
6686.96,0.39040
6663.82,0.39696
6640.67,0.38830
6617.53,0.38987
6594.38,0.39176
6571.24,0.38880
6548.09,0.38783
6524.95,0.39418
6501.8,0.39102
6478.66,0.39434
6455.51,0.39002
6432.37,0.39032
6409.22,0.39338
6386.08,0.39348
6362.93,0.38875
6339.79,0.38806
6316.64,0.39084
6293.5,0.39200
6270.35,0.39223
6247.21,0.39169
6224.06,0.38762
6200.92,0.39125
6177.77,0.38975
6154.63,0.38747
6131.48,0.38643
6108.34,0.38291
6085.19,0.38195
6062.05,0.38233
6038.9,0.38559
6015.76,0.37553
5992.61,0.36693
5969.47,0.35624
5946.32,0.35866
5923.18,0.36114
5900.03,0.36709
5876.89,0.37356
5853.74,0.37541
5830.6,0.37763
5807.45,0.37856
5784.31,0.37860
5761.16,0.38252
5738.02,0.38384
5714.87,0.38296
5691.73,0.38044
5668.58,0.38131
5645.44,0.38374
5622.29,0.38322
5599.15,0.38439
5576,0.38593
5552.86,0.38366
5529.71,0.38435
5506.57,0.38318
5483.42,0.38483
5460.28,0.38693
5437.13,0.38515
5413.99,0.38516
5390.84,0.38529
5367.7,0.38468
5344.55,0.38521
5321.41,0.38543
5298.26,0.38598
5275.12,0.38556
5251.97,0.38430
5228.83,0.38692
5205.68,0.38744
5182.54,0.38694
5159.39,0.38724
5136.25,0.38807
5113.1,0.38652
5089.96,0.38749
5066.81,0.38659
5043.67,0.38778
5020.52,0.38729
4997.38,0.38641
4974.23,0.38794
4951.09,0.38764
4927.94,0.38841
4904.8,0.38868
4881.65,0.38775
4858.51,0.38727
4835.36,0.38700
4812.22,0.38600
4789.07,0.38679
4765.93,0.38565
4742.78,0.38654
4719.64,0.38476
4696.49,0.38101
4673.35,0.35894
4650.2,0.36048
4627.06,0.35378
4603.92,0.35243
4580.77,0.36573
4557.63,0.37098
4534.48,0.37773
4511.34,0.37862
4488.19,0.38091
4465.05,0.38223
4441.9,0.37998
4418.76,0.38006
4395.61,0.37674
4372.47,0.37024
4349.32,0.36193
4326.18,0.36034
4303.03,0.36877
4279.89,0.36142
4256.74,0.34924
4233.6,0.35074
4210.45,0.35096
4187.31,0.35694
4164.16,0.36100
4141.02,0.36123
4117.87,0.35515
4094.73,0.34924
4071.58,0.32618
4048.44,0.30871
4025.29,0.32291
4002.15,0.35076
3979,0.35917
3955.86,0.36259
3932.71,0.36194
3909.57,0.36392
3886.42,0.36557
3863.28,0.36568
3840.13,0.36508
3816.99,0.36220
3793.84,0.36339
3770.7,0.36633
3747.55,0.36902
3724.41,0.36595
3701.26,0.36333
3678.12,0.36383
3654.97,0.35573
3631.83,0.36210
3608.68,0.36376
3585.54,0.36645
3562.39,0.36666
3539.25,0.36433
3516.1,0.36215
3492.96,0.35823
3469.81,0.35599
3446.67,0.35323
3423.52,0.35678
3400.38,0.35783
3377.23,0.35799
3354.09,0.35891
3330.94,0.35850
3307.8,0.35859
3284.65,0.35787
3261.51,0.35677
3238.36,0.35580
3215.22,0.35297
3192.07,0.34661
3168.93,0.33803
3145.78,0.33635
3122.64,0.31874
3099.49,0.23573
3076.35,0.18883
3053.2,0.17833
3030.06,0.13204
3006.91,0.21784
2983.77,0.26662
2960.62,0.22274
2937.48,0.13694
2914.33,0.12991
2891.19,0.19006
2868.04,0.21891
2844.9,0.18692
2821.75,0.30707
2798.61,0.32166
2775.46,0.33087
2752.32,0.34207
2729.17,0.33897
2706.03,0.33850
2682.88,0.33763
2659.74,0.33916
2636.59,0.33426
2613.45,0.34054
2590.3,0.34228
2567.16,0.34452
2544.02,0.34330
2520.87,0.34410
2497.73,0.34556
2474.58,0.35187
2451.44,0.35516
2428.29,0.35785
2405.15,0.35685
2382,0.35502
2358.86,0.34911
2335.71,0.33342
2312.57,0.34271
2289.42,0.35550
2266.28,0.35697
2243.13,0.35833
2219.99,0.36074
2196.84,0.36278
2173.7,0.36410
2150.55,0.36520
2127.41,0.36725
2104.26,0.36804
2081.12,0.36842
2057.97,0.36758
2034.83,0.36593
2011.68,0.36253
1988.54,0.34726
1965.39,0.30799
1942.25,0.26434
1919.1,0.33768
1895.96,0.32178
1872.81,0.27973
1849.67,0.34042
1826.52,0.32621
1803.38,0.27625
1780.23,0.33360
1757.09,0.30993
1733.94,0.29973
1710.8,0.33434
1687.65,0.32341
1664.51,0.30627
1641.36,0.33060
1618.22,0.30148
1595.07,0.21434
1571.93,0.30779
1548.78,0.29631
1525.64,0.31130
1502.49,0.23679
1479.35,0.26094
1456.2,0.15067
1433.06,0.25528
1409.91,0.30886
1386.77,0.25469
1363.62,0.23139
1340.48,0.25383
1317.33,0.24901
1294.19,0.26205
1271.04,0.29065
1247.9,0.29854
1224.75,0.29552
1201.61,0.26487
1178.46,0.24453
1155.32,0.24250
1132.17,0.31985
1109.03,0.29387
1085.88,0.26987
1062.74,0.24525
1039.59,0.27332
1016.45,0.25364
993.304,0.29120
970.159,0.27410
947.014,0.28600
923.869,0.30501
900.724,0.25918
877.579,0.33113
854.434,0.32497
831.289,0.32084
808.144,0.31737
784.999,0.23197
761.854,0.12947
738.709,0.21513
715.565,0.21844
692.42,0.25215
669.275,0.32257
646.13,0.36009
622.985,0.31216
599.84,0.31343