File: 01_Data/XPS_Foam_Board/FTIR/IS/XPS_Foam_Board_IS_S_220929_R4.dpt
7497.03,0.38432
7473.89,0.38791
7450.74,0.38958
7427.6,0.39684
7404.45,0.38752
7381.31,0.39370
7358.16,0.39752
7335.02,0.38717
7311.87,0.39331
7288.73,0.38886
7265.58,0.39528
7242.44,0.40081
7219.29,0.38749
7196.15,0.39007
7173,0.39373
7149.86,0.38591
7126.71,0.39325
7103.57,0.39067
7080.42,0.38926
7057.28,0.38996
7034.13,0.38951
7010.99,0.39419
6987.84,0.38970
6964.7,0.38865
6941.55,0.38775
6918.41,0.39030
6895.26,0.39525
6872.12,0.39628
6848.97,0.38988
6825.83,0.38921
6802.68,0.39099
6779.54,0.39152
6756.39,0.39037
6733.25,0.38536
6710.1,0.38993
6686.96,0.38924
6663.82,0.39175
6640.67,0.39421
6617.53,0.39048
6594.38,0.38703
6571.24,0.38772
6548.09,0.39148
6524.95,0.38688
6501.8,0.38746
6478.66,0.39157
6455.51,0.38958
6432.37,0.38970
6409.22,0.39034
6386.08,0.38946
6362.93,0.39212
6339.79,0.38675
6316.64,0.38928
6293.5,0.39216
6270.35,0.38745
6247.21,0.39018
6224.06,0.38787
6200.92,0.38848
6177.77,0.38163
6154.63,0.38544
6131.48,0.38657
6108.34,0.38073
6085.19,0.38597
6062.05,0.38287
6038.9,0.38270
6015.76,0.37634
5992.61,0.36913
5969.47,0.35841
5946.32,0.35739
5923.18,0.35996
5900.03,0.36185
5876.89,0.37147
5853.74,0.37509
5830.6,0.37875
5807.45,0.38092
5784.31,0.38013
5761.16,0.38336
5738.02,0.38619
5714.87,0.38329
5691.73,0.38307
5668.58,0.38144
5645.44,0.38091
5622.29,0.38452
5599.15,0.38457
5576,0.38374
5552.86,0.38483
5529.71,0.38428
5506.57,0.38538
5483.42,0.38580
5460.28,0.38555
5437.13,0.38539
5413.99,0.38598
5390.84,0.38455
5367.7,0.38561
5344.55,0.38660
5321.41,0.38595
5298.26,0.38549
5275.12,0.38530
5251.97,0.38814
5228.83,0.38502
5205.68,0.38544
5182.54,0.38801
5159.39,0.38631
5136.25,0.38662
5113.1,0.38691
5089.96,0.38650
5066.81,0.38702
5043.67,0.38692
5020.52,0.38809
4997.38,0.38815
4974.23,0.38784
4951.09,0.38710
4927.94,0.38812
4904.8,0.38788
4881.65,0.38784
4858.51,0.38766
4835.36,0.38622
4812.22,0.38645
4789.07,0.38695
4765.93,0.38610
4742.78,0.38544
4719.64,0.38344
4696.49,0.38010
4673.35,0.35986
4650.2,0.36049
4627.06,0.35350
4603.92,0.35034
4580.77,0.36609
4557.63,0.37064
4534.48,0.37853
4511.34,0.37862
4488.19,0.38080
4465.05,0.38219
4441.9,0.38058
4418.76,0.37968
4395.61,0.37754
4372.47,0.37092
4349.32,0.36250
4326.18,0.35968
4303.03,0.36836
4279.89,0.36157
4256.74,0.34932
4233.6,0.34962
4210.45,0.35095
4187.31,0.35754
4164.16,0.36142
4141.02,0.36141
4117.87,0.35506
4094.73,0.34951
4071.58,0.32713
4048.44,0.30843
4025.29,0.32349
4002.15,0.35143
3979,0.35960
3955.86,0.36206
3932.71,0.36165
3909.57,0.36417
3886.42,0.36632
3863.28,0.36607
3840.13,0.36529
3816.99,0.36187
3793.84,0.36356
3770.7,0.36657
3747.55,0.36909
3724.41,0.36562
3701.26,0.36297
3678.12,0.36412
3654.97,0.35562
3631.83,0.36165
3608.68,0.36418
3585.54,0.36739
3562.39,0.36586
3539.25,0.36422
3516.1,0.36180
3492.96,0.35870
3469.81,0.35565
3446.67,0.35293
3423.52,0.35635
3400.38,0.35751
3377.23,0.35766
3354.09,0.35769
3330.94,0.35868
3307.8,0.35874
3284.65,0.35778
3261.51,0.35648
3238.36,0.35560
3215.22,0.35298
3192.07,0.34722
3168.93,0.33801
3145.78,0.33631
3122.64,0.31884
3099.49,0.23570
3076.35,0.18861
3053.2,0.17818
3030.06,0.13183
3006.91,0.21774
2983.77,0.26673
2960.62,0.22224
2937.48,0.13646
2914.33,0.13002
2891.19,0.19028
2868.04,0.21897
2844.9,0.18746
2821.75,0.30718
2798.61,0.32209
2775.46,0.33065
2752.32,0.34202
2729.17,0.33852
2706.03,0.33861
2682.88,0.33769
2659.74,0.33936
2636.59,0.33409
2613.45,0.34076
2590.3,0.34266
2567.16,0.34498
2544.02,0.34344
2520.87,0.34370
2497.73,0.34601
2474.58,0.35191
2451.44,0.35501
2428.29,0.35817
2405.15,0.35709
2382,0.35503
2358.86,0.34959
2335.71,0.33379
2312.57,0.34321
2289.42,0.35529
2266.28,0.35695
2243.13,0.35806
2219.99,0.36082
2196.84,0.36314
2173.7,0.36412
2150.55,0.36534
2127.41,0.36735
2104.26,0.36807
2081.12,0.36901
2057.97,0.36778
2034.83,0.36617
2011.68,0.36246
1988.54,0.34747
1965.39,0.30797
1942.25,0.26425
1919.1,0.33786
1895.96,0.32230
1872.81,0.28015
1849.67,0.34026
1826.52,0.32617
1803.38,0.27642
1780.23,0.33339
1757.09,0.31003
1733.94,0.29901
1710.8,0.33486
1687.65,0.32367
1664.51,0.30598
1641.36,0.33066
1618.22,0.30116
1595.07,0.21431
1571.93,0.30782
1548.78,0.29595
1525.64,0.31182
1502.49,0.23693
1479.35,0.26080
1456.2,0.14989
1433.06,0.25566
1409.91,0.30899
1386.77,0.25443
1363.62,0.23143
1340.48,0.25402
1317.33,0.24889
1294.19,0.26221
1271.04,0.29088
1247.9,0.29845
1224.75,0.29556
1201.61,0.26461
1178.46,0.24371
1155.32,0.24208
1132.17,0.31990
1109.03,0.29426
1085.88,0.26965
1062.74,0.24477
1039.59,0.27336
1016.45,0.25392
993.304,0.29105
970.159,0.27363
947.014,0.28626
923.869,0.30436
900.724,0.25907
877.579,0.33094
854.434,0.32453
831.289,0.32017
808.144,0.31783
784.999,0.23232
761.854,0.12985
738.709,0.21502
715.565,0.21885
692.42,0.25123
669.275,0.32133
646.13,0.35951
622.985,0.30988
599.84,0.31384