File: 01_Data/XPS_Foam_Board/FTIR/IS/XPS_Foam_Board_IS_S_220929_R7.dpt
7497.03,0.39078
7473.89,0.40060
7450.74,0.38723
7427.6,0.38573
7404.45,0.39280
7381.31,0.39154
7358.16,0.39346
7335.02,0.38946
7311.87,0.39792
7288.73,0.38999
7265.58,0.38630
7242.44,0.39364
7219.29,0.39184
7196.15,0.40178
7173,0.39279
7149.86,0.39025
7126.71,0.39163
7103.57,0.39929
7080.42,0.39361
7057.28,0.39495
7034.13,0.39847
7010.99,0.39647
6987.84,0.39111
6964.7,0.39159
6941.55,0.38464
6918.41,0.39037
6895.26,0.38740
6872.12,0.39085
6848.97,0.38925
6825.83,0.38980
6802.68,0.39049
6779.54,0.39185
6756.39,0.39313
6733.25,0.39243
6710.1,0.39262
6686.96,0.39142
6663.82,0.39201
6640.67,0.39010
6617.53,0.39100
6594.38,0.39170
6571.24,0.39053
6548.09,0.39265
6524.95,0.39238
6501.8,0.39156
6478.66,0.38996
6455.51,0.39005
6432.37,0.39091
6409.22,0.39132
6386.08,0.39181
6362.93,0.39403
6339.79,0.38625
6316.64,0.39125
6293.5,0.38551
6270.35,0.38872
6247.21,0.39099
6224.06,0.38572
6200.92,0.38809
6177.77,0.38559
6154.63,0.38058
6131.48,0.38603
6108.34,0.38268
6085.19,0.38234
6062.05,0.38114
6038.9,0.38161
6015.76,0.37644
5992.61,0.37078
5969.47,0.35783
5946.32,0.35605
5923.18,0.35978
5900.03,0.36570
5876.89,0.37295
5853.74,0.37862
5830.6,0.37987
5807.45,0.37763
5784.31,0.37816
5761.16,0.38286
5738.02,0.38294
5714.87,0.38241
5691.73,0.38200
5668.58,0.38036
5645.44,0.38467
5622.29,0.38516
5599.15,0.38558
5576,0.38507
5552.86,0.38400
5529.71,0.38527
5506.57,0.38519
5483.42,0.38354
5460.28,0.38624
5437.13,0.38564
5413.99,0.38475
5390.84,0.38596
5367.7,0.38494
5344.55,0.38442
5321.41,0.38581
5298.26,0.38539
5275.12,0.38736
5251.97,0.38677
5228.83,0.38681
5205.68,0.38850
5182.54,0.38765
5159.39,0.38695
5136.25,0.38746
5113.1,0.38763
5089.96,0.38786
5066.81,0.38793
5043.67,0.38810
5020.52,0.38712
4997.38,0.38790
4974.23,0.38720
4951.09,0.38874
4927.94,0.38820
4904.8,0.38813
4881.65,0.38738
4858.51,0.38814
4835.36,0.38664
4812.22,0.38722
4789.07,0.38840
4765.93,0.38598
4742.78,0.38610
4719.64,0.38403
4696.49,0.38045
4673.35,0.36040
4650.2,0.36094
4627.06,0.35372
4603.92,0.35083
4580.77,0.36693
4557.63,0.37131
4534.48,0.37939
4511.34,0.37877
4488.19,0.38033
4465.05,0.38155
4441.9,0.37983
4418.76,0.38008
4395.61,0.37676
4372.47,0.37097
4349.32,0.36249
4326.18,0.36071
4303.03,0.36946
4279.89,0.36171
4256.74,0.34958
4233.6,0.35037
4210.45,0.35104
4187.31,0.35790
4164.16,0.36182
4141.02,0.36157
4117.87,0.35609
4094.73,0.34947
4071.58,0.32723
4048.44,0.30859
4025.29,0.32348
4002.15,0.35186
3979,0.36007
3955.86,0.36277
3932.71,0.36138
3909.57,0.36470
3886.42,0.36617
3863.28,0.36602
3840.13,0.36493
3816.99,0.36246
3793.84,0.36371
3770.7,0.36640
3747.55,0.36850
3724.41,0.36589
3701.26,0.36325
3678.12,0.36419
3654.97,0.35569
3631.83,0.36215
3608.68,0.36540
3585.54,0.36778
3562.39,0.36669
3539.25,0.36445
3516.1,0.36163
3492.96,0.35956
3469.81,0.35563
3446.67,0.35336
3423.52,0.35639
3400.38,0.35751
3377.23,0.35794
3354.09,0.35929
3330.94,0.35839
3307.8,0.35925
3284.65,0.35703
3261.51,0.35702
3238.36,0.35634
3215.22,0.35296
3192.07,0.34758
3168.93,0.33827
3145.78,0.33571
3122.64,0.31885
3099.49,0.23516
3076.35,0.18856
3053.2,0.17852
3030.06,0.13237
3006.91,0.21814
2983.77,0.26679
2960.62,0.22272
2937.48,0.13672
2914.33,0.13012
2891.19,0.18990
2868.04,0.21961
2844.9,0.18724
2821.75,0.30715
2798.61,0.32216
2775.46,0.33113
2752.32,0.34250
2729.17,0.33860
2706.03,0.33863
2682.88,0.33777
2659.74,0.33913
2636.59,0.33477
2613.45,0.34080
2590.3,0.34293
2567.16,0.34463
2544.02,0.34358
2520.87,0.34414
2497.73,0.34580
2474.58,0.35159
2451.44,0.35592
2428.29,0.35811
2405.15,0.35688
2382,0.35519
2358.86,0.34961
2335.71,0.33358
2312.57,0.34321
2289.42,0.35585
2266.28,0.35732
2243.13,0.35838
2219.99,0.36095
2196.84,0.36336
2173.7,0.36422
2150.55,0.36553
2127.41,0.36742
2104.26,0.36852
2081.12,0.36910
2057.97,0.36772
2034.83,0.36643
2011.68,0.36259
1988.54,0.34731
1965.39,0.30784
1942.25,0.26426
1919.1,0.33816
1895.96,0.32232
1872.81,0.27984
1849.67,0.34065
1826.52,0.32629
1803.38,0.27646
1780.23,0.33389
1757.09,0.31018
1733.94,0.29944
1710.8,0.33460
1687.65,0.32339
1664.51,0.30621
1641.36,0.33049
1618.22,0.30119
1595.07,0.21438
1571.93,0.30808
1548.78,0.29646
1525.64,0.31189
1502.49,0.23696
1479.35,0.26083
1456.2,0.15052
1433.06,0.25571
1409.91,0.30899
1386.77,0.25470
1363.62,0.23152
1340.48,0.25437
1317.33,0.24902
1294.19,0.26212
1271.04,0.29093
1247.9,0.29905
1224.75,0.29575
1201.61,0.26513
1178.46,0.24433
1155.32,0.24289
1132.17,0.31976
1109.03,0.29437
1085.88,0.27012
1062.74,0.24540
1039.59,0.27353
1016.45,0.25340
993.304,0.29178
970.159,0.27441
947.014,0.28602
923.869,0.30487
900.724,0.25907
877.579,0.33093
854.434,0.32474
831.289,0.32074
808.144,0.31804
784.999,0.23272
761.854,0.12986
738.709,0.21475
715.565,0.21872
692.42,0.25272
669.275,0.31960
646.13,0.36027
622.985,0.31114
599.84,0.31521