File: 01_Data/XPS_Foam_Board/FTIR/IS/XPS_Foam_Board_IS_S_220929_R5.dpt
7497.03,0.39338
7473.89,0.38938
7450.74,0.39035
7427.6,0.39412
7404.45,0.38916
7381.31,0.38908
7358.16,0.39006
7335.02,0.39319
7311.87,0.40080
7288.73,0.39042
7265.58,0.38737
7242.44,0.39749
7219.29,0.38431
7196.15,0.39125
7173,0.38276
7149.86,0.39153
7126.71,0.39448
7103.57,0.39105
7080.42,0.38523
7057.28,0.38447
7034.13,0.38805
7010.99,0.38092
6987.84,0.39169
6964.7,0.39469
6941.55,0.39129
6918.41,0.39104
6895.26,0.39269
6872.12,0.38923
6848.97,0.38842
6825.83,0.39243
6802.68,0.39369
6779.54,0.38976
6756.39,0.39395
6733.25,0.39024
6710.1,0.39497
6686.96,0.39291
6663.82,0.38655
6640.67,0.39340
6617.53,0.39069
6594.38,0.39450
6571.24,0.38970
6548.09,0.39233
6524.95,0.39268
6501.8,0.39285
6478.66,0.39244
6455.51,0.39116
6432.37,0.39411
6409.22,0.39220
6386.08,0.38893
6362.93,0.39156
6339.79,0.39253
6316.64,0.38641
6293.5,0.38722
6270.35,0.38797
6247.21,0.39092
6224.06,0.38986
6200.92,0.38931
6177.77,0.38730
6154.63,0.38376
6131.48,0.38600
6108.34,0.38208
6085.19,0.38222
6062.05,0.38463
6038.9,0.38355
6015.76,0.37687
5992.61,0.36767
5969.47,0.35776
5946.32,0.35834
5923.18,0.35992
5900.03,0.36490
5876.89,0.37575
5853.74,0.37592
5830.6,0.37824
5807.45,0.37961
5784.31,0.37972
5761.16,0.38422
5738.02,0.38300
5714.87,0.38531
5691.73,0.38136
5668.58,0.38064
5645.44,0.38376
5622.29,0.38662
5599.15,0.38418
5576,0.38442
5552.86,0.38555
5529.71,0.38519
5506.57,0.38338
5483.42,0.38757
5460.28,0.38656
5437.13,0.38488
5413.99,0.38591
5390.84,0.38766
5367.7,0.38529
5344.55,0.38839
5321.41,0.38590
5298.26,0.38792
5275.12,0.38576
5251.97,0.38715
5228.83,0.38706
5205.68,0.38644
5182.54,0.38834
5159.39,0.38892
5136.25,0.38787
5113.1,0.38826
5089.96,0.38904
5066.81,0.38642
5043.67,0.38820
5020.52,0.38825
4997.38,0.38800
4974.23,0.38765
4951.09,0.38834
4927.94,0.38830
4904.8,0.38942
4881.65,0.38745
4858.51,0.38619
4835.36,0.38664
4812.22,0.38795
4789.07,0.38630
4765.93,0.38666
4742.78,0.38656
4719.64,0.38406
4696.49,0.38120
4673.35,0.35961
4650.2,0.36066
4627.06,0.35441
4603.92,0.35134
4580.77,0.36691
4557.63,0.37184
4534.48,0.37894
4511.34,0.37955
4488.19,0.38103
4465.05,0.38152
4441.9,0.38094
4418.76,0.38043
4395.61,0.37709
4372.47,0.37159
4349.32,0.36248
4326.18,0.36135
4303.03,0.36916
4279.89,0.36173
4256.74,0.34918
4233.6,0.35028
4210.45,0.35156
4187.31,0.35873
4164.16,0.36236
4141.02,0.36098
4117.87,0.35557
4094.73,0.34976
4071.58,0.32708
4048.44,0.30994
4025.29,0.32419
4002.15,0.35240
3979,0.36114
3955.86,0.36346
3932.71,0.36213
3909.57,0.36506
3886.42,0.36620
3863.28,0.36657
3840.13,0.36542
3816.99,0.36317
3793.84,0.36398
3770.7,0.36764
3747.55,0.36997
3724.41,0.36633
3701.26,0.36411
3678.12,0.36551
3654.97,0.35625
3631.83,0.36234
3608.68,0.36485
3585.54,0.36743
3562.39,0.36709
3539.25,0.36432
3516.1,0.36246
3492.96,0.35923
3469.81,0.35626
3446.67,0.35426
3423.52,0.35698
3400.38,0.35792
3377.23,0.35839
3354.09,0.35882
3330.94,0.35903
3307.8,0.35830
3284.65,0.35872
3261.51,0.35654
3238.36,0.35706
3215.22,0.35414
3192.07,0.34743
3168.93,0.33846
3145.78,0.33654
3122.64,0.31961
3099.49,0.23682
3076.35,0.18916
3053.2,0.17818
3030.06,0.13228
3006.91,0.21838
2983.77,0.26669
2960.62,0.22267
2937.48,0.13650
2914.33,0.13042
2891.19,0.18994
2868.04,0.21975
2844.9,0.18672
2821.75,0.30780
2798.61,0.32249
2775.46,0.33172
2752.32,0.34286
2729.17,0.33902
2706.03,0.33864
2682.88,0.33830
2659.74,0.33936
2636.59,0.33463
2613.45,0.34093
2590.3,0.34301
2567.16,0.34484
2544.02,0.34404
2520.87,0.34478
2497.73,0.34637
2474.58,0.35238
2451.44,0.35582
2428.29,0.35841
2405.15,0.35743
2382,0.35591
2358.86,0.35001
2335.71,0.33402
2312.57,0.34362
2289.42,0.35626
2266.28,0.35797
2243.13,0.35904
2219.99,0.36171
2196.84,0.36371
2173.7,0.36516
2150.55,0.36585
2127.41,0.36792
2104.26,0.36847
2081.12,0.36944
2057.97,0.36811
2034.83,0.36672
2011.68,0.36324
1988.54,0.34766
1965.39,0.30870
1942.25,0.26505
1919.1,0.33865
1895.96,0.32298
1872.81,0.28020
1849.67,0.34102
1826.52,0.32700
1803.38,0.27702
1780.23,0.33403
1757.09,0.31062
1733.94,0.30016
1710.8,0.33515
1687.65,0.32389
1664.51,0.30613
1641.36,0.33140
1618.22,0.30133
1595.07,0.21479
1571.93,0.30811
1548.78,0.29711
1525.64,0.31215
1502.49,0.23717
1479.35,0.26129
1456.2,0.15047
1433.06,0.25609
1409.91,0.30934
1386.77,0.25489
1363.62,0.23189
1340.48,0.25446
1317.33,0.24955
1294.19,0.26279
1271.04,0.29129
1247.9,0.29935
1224.75,0.29565
1201.61,0.26542
1178.46,0.24451
1155.32,0.24263
1132.17,0.32029
1109.03,0.29511
1085.88,0.27022
1062.74,0.24493
1039.59,0.27295
1016.45,0.25348
993.304,0.29180
970.159,0.27479
947.014,0.28643
923.869,0.30505
900.724,0.25943
877.579,0.33166
854.434,0.32489
831.289,0.32087
808.144,0.31834
784.999,0.23309
761.854,0.12970
738.709,0.21503
715.565,0.21840
692.42,0.25211
669.275,0.32023
646.13,0.36033
622.985,0.31000
599.84,0.31539