File: 01_Data/XPS_Foam_Board/FTIR/IS/XPS_Foam_Board_IS_S_220929_R3.dpt
7497.03,0.39032
7473.89,0.39212
7450.74,0.39299
7427.6,0.39350
7404.45,0.39053
7381.31,0.38805
7358.16,0.38784
7335.02,0.39140
7311.87,0.38883
7288.73,0.39369
7265.58,0.39201
7242.44,0.39131
7219.29,0.39299
7196.15,0.39391
7173,0.39593
7149.86,0.39311
7126.71,0.39195
7103.57,0.39308
7080.42,0.39061
7057.28,0.38885
7034.13,0.38480
7010.99,0.39268
6987.84,0.39242
6964.7,0.38883
6941.55,0.38679
6918.41,0.38896
6895.26,0.39147
6872.12,0.39193
6848.97,0.39359
6825.83,0.39717
6802.68,0.39634
6779.54,0.39416
6756.39,0.39571
6733.25,0.38799
6710.1,0.39127
6686.96,0.39193
6663.82,0.38830
6640.67,0.39071
6617.53,0.38579
6594.38,0.39732
6571.24,0.38685
6548.09,0.39330
6524.95,0.39098
6501.8,0.39257
6478.66,0.38959
6455.51,0.38988
6432.37,0.39043
6409.22,0.38932
6386.08,0.38509
6362.93,0.39191
6339.79,0.39529
6316.64,0.38943
6293.5,0.39376
6270.35,0.38837
6247.21,0.39316
6224.06,0.38944
6200.92,0.38686
6177.77,0.38817
6154.63,0.38819
6131.48,0.38350
6108.34,0.38301
6085.19,0.38294
6062.05,0.38255
6038.9,0.38436
6015.76,0.38012
5992.61,0.36849
5969.47,0.36143
5946.32,0.35493
5923.18,0.36129
5900.03,0.36494
5876.89,0.36886
5853.74,0.37832
5830.6,0.37926
5807.45,0.37927
5784.31,0.38083
5761.16,0.38454
5738.02,0.38467
5714.87,0.38368
5691.73,0.37794
5668.58,0.37982
5645.44,0.38378
5622.29,0.38554
5599.15,0.38576
5576,0.38508
5552.86,0.38355
5529.71,0.38364
5506.57,0.38525
5483.42,0.38472
5460.28,0.38591
5437.13,0.38506
5413.99,0.38408
5390.84,0.38533
5367.7,0.38608
5344.55,0.38596
5321.41,0.38626
5298.26,0.38751
5275.12,0.38649
5251.97,0.38511
5228.83,0.38758
5205.68,0.38744
5182.54,0.38828
5159.39,0.38779
5136.25,0.38697
5113.1,0.38717
5089.96,0.38681
5066.81,0.38821
5043.67,0.38704
5020.52,0.38825
4997.38,0.38756
4974.23,0.38733
4951.09,0.38796
4927.94,0.38770
4904.8,0.38815
4881.65,0.38802
4858.51,0.38750
4835.36,0.38608
4812.22,0.38758
4789.07,0.38666
4765.93,0.38570
4742.78,0.38675
4719.64,0.38474
4696.49,0.38048
4673.35,0.35974
4650.2,0.36144
4627.06,0.35234
4603.92,0.35068
4580.77,0.36695
4557.63,0.37237
4534.48,0.37816
4511.34,0.37918
4488.19,0.38103
4465.05,0.38296
4441.9,0.38039
4418.76,0.38040
4395.61,0.37729
4372.47,0.36991
4349.32,0.36242
4326.18,0.36082
4303.03,0.37001
4279.89,0.36222
4256.74,0.34911
4233.6,0.34950
4210.45,0.35129
4187.31,0.35731
4164.16,0.36193
4141.02,0.36152
4117.87,0.35512
4094.73,0.34937
4071.58,0.32748
4048.44,0.30910
4025.29,0.32351
4002.15,0.35184
3979,0.35943
3955.86,0.36244
3932.71,0.36225
3909.57,0.36455
3886.42,0.36570
3863.28,0.36536
3840.13,0.36580
3816.99,0.36284
3793.84,0.36372
3770.7,0.36673
3747.55,0.36973
3724.41,0.36587
3701.26,0.36326
3678.12,0.36384
3654.97,0.35582
3631.83,0.36255
3608.68,0.36552
3585.54,0.36736
3562.39,0.36651
3539.25,0.36431
3516.1,0.36194
3492.96,0.35880
3469.81,0.35554
3446.67,0.35394
3423.52,0.35608
3400.38,0.35769
3377.23,0.35820
3354.09,0.35869
3330.94,0.35807
3307.8,0.35886
3284.65,0.35776
3261.51,0.35661
3238.36,0.35626
3215.22,0.35286
3192.07,0.34751
3168.93,0.33826
3145.78,0.33626
3122.64,0.31918
3099.49,0.23572
3076.35,0.18881
3053.2,0.17795
3030.06,0.13242
3006.91,0.21793
2983.77,0.26687
2960.62,0.22269
2937.48,0.13649
2914.33,0.13016
2891.19,0.19025
2868.04,0.21953
2844.9,0.18732
2821.75,0.30722
2798.61,0.32199
2775.46,0.33122
2752.32,0.34193
2729.17,0.33894
2706.03,0.33855
2682.88,0.33737
2659.74,0.33922
2636.59,0.33435
2613.45,0.34079
2590.3,0.34247
2567.16,0.34484
2544.02,0.34380
2520.87,0.34437
2497.73,0.34594
2474.58,0.35209
2451.44,0.35563
2428.29,0.35817
2405.15,0.35717
2382,0.35498
2358.86,0.34960
2335.71,0.33422
2312.57,0.34350
2289.42,0.35572
2266.28,0.35747
2243.13,0.35829
2219.99,0.36139
2196.84,0.36319
2173.7,0.36444
2150.55,0.36552
2127.41,0.36763
2104.26,0.36811
2081.12,0.36897
2057.97,0.36788
2034.83,0.36584
2011.68,0.36261
1988.54,0.34724
1965.39,0.30804
1942.25,0.26462
1919.1,0.33842
1895.96,0.32233
1872.81,0.28012
1849.67,0.34066
1826.52,0.32622
1803.38,0.27653
1780.23,0.33382
1757.09,0.31019
1733.94,0.30006
1710.8,0.33476
1687.65,0.32299
1664.51,0.30615
1641.36,0.33063
1618.22,0.30118
1595.07,0.21446
1571.93,0.30766
1548.78,0.29652
1525.64,0.31165
1502.49,0.23726
1479.35,0.26100
1456.2,0.14987
1433.06,0.25575
1409.91,0.30937
1386.77,0.25468
1363.62,0.23188
1340.48,0.25413
1317.33,0.24939
1294.19,0.26195
1271.04,0.29119
1247.9,0.29869
1224.75,0.29504
1201.61,0.26466
1178.46,0.24410
1155.32,0.24267
1132.17,0.32023
1109.03,0.29447
1085.88,0.26937
1062.74,0.24441
1039.59,0.27298
1016.45,0.25367
993.304,0.29107
970.159,0.27392
947.014,0.28655
923.869,0.30446
900.724,0.25895
877.579,0.33118
854.434,0.32479
831.289,0.32057
808.144,0.31780
784.999,0.23317
761.854,0.12943
738.709,0.21506
715.565,0.21941
692.42,0.25172
669.275,0.32148
646.13,0.35852
622.985,0.31169
599.84,0.31406