File: 01_Data/Vinyl_Plank_Flooring/FTIR/IS/Vinyl_Plank_Flooring_IS_T_220819_R3.dpt
7497.03,0.01880
7473.89,0.02136
7450.74,0.02519
7427.6,0.01909
7404.45,0.02380
7381.31,0.02138
7358.16,0.02049
7335.02,0.02059
7311.87,0.02390
7288.73,0.02406
7265.58,0.02469
7242.44,0.02505
7219.29,0.02142
7196.15,0.02628
7173,0.02221
7149.86,0.02476
7126.71,0.02175
7103.57,0.01844
7080.42,0.01969
7057.28,0.02516
7034.13,0.02071
7010.99,0.01919
6987.84,0.01740
6964.7,0.02030
6941.55,0.02018
6918.41,0.02504
6895.26,0.02308
6872.12,0.02098
6848.97,0.01957
6825.83,0.01652
6802.68,0.02153
6779.54,0.02328
6756.39,0.01915
6733.25,0.02228
6710.1,0.02428
6686.96,0.02315
6663.82,0.01671
6640.67,0.02265
6617.53,0.02108
6594.38,0.01818
6571.24,0.02371
6548.09,0.01981
6524.95,0.01727
6501.8,0.01871
6478.66,0.01702
6455.51,0.01632
6432.37,0.01550
6409.22,0.01935
6386.08,0.02015
6362.93,0.02050
6339.79,0.01958
6316.64,0.01814
6293.5,0.01573
6270.35,0.01840
6247.21,0.01758
6224.06,0.01905
6200.92,0.01748
6177.77,0.01701
6154.63,0.01919
6131.48,0.02336
6108.34,0.02046
6085.19,0.01807
6062.05,0.02001
6038.9,0.01945
6015.76,0.01814
5992.61,0.01620
5969.47,0.01862
5946.32,0.01921
5923.18,0.01865
5900.03,0.01789
5876.89,0.01744
5853.74,0.01825
5830.6,0.02097
5807.45,0.01946
5784.31,0.01792
5761.16,0.01924
5738.02,0.01911
5714.87,0.01797
5691.73,0.01856
5668.58,0.01914
5645.44,0.01859
5622.29,0.01861
5599.15,0.01987
5576,0.02009
5552.86,0.01820
5529.71,0.01881
5506.57,0.01856
5483.42,0.01876
5460.28,0.01875
5437.13,0.01935
5413.99,0.01924
5390.84,0.01892
5367.7,0.01953
5344.55,0.02073
5321.41,0.01921
5298.26,0.01800
5275.12,0.01967
5251.97,0.01848
5228.83,0.01947
5205.68,0.01915
5182.54,0.01869
5159.39,0.01810
5136.25,0.01782
5113.1,0.01875
5089.96,0.01898
5066.81,0.01956
5043.67,0.01927
5020.52,0.01929
4997.38,0.01863
4974.23,0.01867
4951.09,0.01909
4927.94,0.01902
4904.8,0.01941
4881.65,0.01872
4858.51,0.01857
4835.36,0.02046
4812.22,0.01838
4789.07,0.01821
4765.93,0.01847
4742.78,0.01939
4719.64,0.01928
4696.49,0.01841
4673.35,0.01942
4650.2,0.02002
4627.06,0.01863
4603.92,0.01911
4580.77,0.01922
4557.63,0.02000
4534.48,0.01896
4511.34,0.01970
4488.19,0.01946
4465.05,0.01935
4441.9,0.01895
4418.76,0.01911
4395.61,0.01842
4372.47,0.01903
4349.32,0.01916
4326.18,0.02002
4303.03,0.01883
4279.89,0.01964
4256.74,0.01905
4233.6,0.01935
4210.45,0.01951
4187.31,0.01926
4164.16,0.01990
4141.02,0.01874
4117.87,0.01946
4094.73,0.01904
4071.58,0.02030
4048.44,0.01980
4025.29,0.01922
4002.15,0.01981
3979,0.01920
3955.86,0.01985
3932.71,0.01902
3909.57,0.01987
3886.42,0.01928
3863.28,0.01997
3840.13,0.01944
3816.99,0.01925
3793.84,0.01933
3770.7,0.01977
3747.55,0.01921
3724.41,0.01962
3701.26,0.01857
3678.12,0.01973
3654.97,0.01880
3631.83,0.01986
3608.68,0.01835
3585.54,0.01826
3562.39,0.01790
3539.25,0.01842
3516.1,0.01788
3492.96,0.01817
3469.81,0.01777
3446.67,0.01812
3423.52,0.01704
3400.38,0.01768
3377.23,0.01671
3354.09,0.01747
3330.94,0.01782
3307.8,0.01713
3284.65,0.01695
3261.51,0.01671
3238.36,0.01779
3215.22,0.01773
3192.07,0.01750
3168.93,0.01680
3145.78,0.01769
3122.64,0.01717
3099.49,0.01754
3076.35,0.01750
3053.2,0.01797
3030.06,0.01740
3006.91,0.01694
2983.77,0.01671
2960.62,0.01632
2937.48,0.01644
2914.33,0.01742
2891.19,0.01702
2868.04,0.01724
2844.9,0.01796
2821.75,0.01791
2798.61,0.01778
2775.46,0.01801
2752.32,0.01810
2729.17,0.01817
2706.03,0.01805
2682.88,0.01784
2659.74,0.01812
2636.59,0.01820
2613.45,0.01802
2590.3,0.01804
2567.16,0.01802
2544.02,0.01782
2520.87,0.01848
2497.73,0.01787
2474.58,0.01796
2451.44,0.01783
2428.29,0.01761
2405.15,0.01827
2382,0.01801
2358.86,0.01846
2335.71,0.01785
2312.57,0.01796
2289.42,0.01795
2266.28,0.01808
2243.13,0.01833
2219.99,0.01787
2196.84,0.01807
2173.7,0.01819
2150.55,0.01746
2127.41,0.01800
2104.26,0.01777
2081.12,0.01759
2057.97,0.01788
2034.83,0.01762
2011.68,0.01764
1988.54,0.01772
1965.39,0.01718
1942.25,0.01745
1919.1,0.01731
1895.96,0.01769
1872.81,0.01745
1849.67,0.01748
1826.52,0.01699
1803.38,0.01670
1780.23,0.01634
1757.09,0.01460
1733.94,0.01670
1710.8,0.01735
1687.65,0.01635
1664.51,0.01545
1641.36,0.01523
1618.22,0.01558
1595.07,0.01577
1571.93,0.01524
1548.78,0.01501
1525.64,0.01560
1502.49,0.01586
1479.35,0.01583
1456.2,0.01566
1433.06,0.01536
1409.91,0.01544
1386.77,0.01480
1363.62,0.01495
1340.48,0.01493
1317.33,0.01403
1294.19,0.01460
1271.04,0.01661
1247.9,0.01714
1224.75,0.01631
1201.61,0.01578
1178.46,0.01501
1155.32,0.01442
1132.17,0.01520
1109.03,0.01510
1085.88,0.01578
1062.74,0.01644
1039.59,0.01640
1016.45,0.01593
993.304,0.01793
970.159,0.01702
947.014,0.01693
923.869,0.01587
900.724,0.01686
877.579,0.01585
854.434,0.01582
831.289,0.01584
808.144,0.01542
784.999,0.01586
761.854,0.01559
738.709,0.01555
715.565,0.01623
692.42,0.01497
669.275,0.01335
646.13,0.01330
622.985,0.01302
599.84,0.01570