File: 01_Data/Vinyl_Plank_Flooring/FTIR/IS/Vinyl_Plank_Flooring_IS_S_220819_R3.dpt
7497.03,0.50924
7473.89,0.49556
7450.74,0.50163
7427.6,0.49089
7404.45,0.49616
7381.31,0.48385
7358.16,0.46753
7335.02,0.47209
7311.87,0.45917
7288.73,0.45462
7265.58,0.43453
7242.44,0.43172
7219.29,0.43132
7196.15,0.42329
7173,0.41759
7149.86,0.41713
7126.71,0.41625
7103.57,0.41469
7080.42,0.41280
7057.28,0.42386
7034.13,0.42231
7010.99,0.41371
6987.84,0.42180
6964.7,0.43289
6941.55,0.43320
6918.41,0.44547
6895.26,0.44667
6872.12,0.45210
6848.97,0.45836
6825.83,0.46222
6802.68,0.46197
6779.54,0.46231
6756.39,0.47161
6733.25,0.46774
6710.1,0.47297
6686.96,0.47643
6663.82,0.47665
6640.67,0.47562
6617.53,0.48264
6594.38,0.48570
6571.24,0.48670
6548.09,0.48134
6524.95,0.48459
6501.8,0.48760
6478.66,0.49010
6455.51,0.48753
6432.37,0.49025
6409.22,0.48832
6386.08,0.48854
6362.93,0.48973
6339.79,0.49119
6316.64,0.49201
6293.5,0.49212
6270.35,0.49132
6247.21,0.49056
6224.06,0.49118
6200.92,0.48399
6177.77,0.48347
6154.63,0.47948
6131.48,0.47071
6108.34,0.45848
6085.19,0.42490
6062.05,0.38502
6038.9,0.34711
6015.76,0.32142
5992.61,0.35393
5969.47,0.37523
5946.32,0.35282
5923.18,0.30299
5900.03,0.26772
5876.89,0.22233
5853.74,0.18876
5830.6,0.15729
5807.45,0.18032
5784.31,0.21682
5761.16,0.23433
5738.02,0.22381
5714.87,0.22641
5691.73,0.23227
5668.58,0.25382
5645.44,0.26310
5622.29,0.28159
5599.15,0.29021
5576,0.30130
5552.86,0.30915
5529.71,0.31140
5506.57,0.31385
5483.42,0.31491
5460.28,0.31516
5437.13,0.32559
5413.99,0.33658
5390.84,0.33987
5367.7,0.34939
5344.55,0.35369
5321.41,0.35830
5298.26,0.36171
5275.12,0.35170
5251.97,0.34538
5228.83,0.34926
5205.68,0.35070
5182.54,0.34960
5159.39,0.34714
5136.25,0.34841
5113.1,0.34512
5089.96,0.34810
5066.81,0.35397
5043.67,0.35599
5020.52,0.35707
4997.38,0.35402
4974.23,0.35517
4951.09,0.35627
4927.94,0.35457
4904.8,0.35570
4881.65,0.35537
4858.51,0.35460
4835.36,0.35709
4812.22,0.35138
4789.07,0.34700
4765.93,0.35106
4742.78,0.34506
4719.64,0.31164
4696.49,0.28143
4673.35,0.27349
4650.2,0.28484
4627.06,0.26302
4603.92,0.30414
4580.77,0.29690
4557.63,0.31158
4534.48,0.30508
4511.34,0.28871
4488.19,0.24834
4465.05,0.22545
4441.9,0.17424
4418.76,0.12333
4395.61,0.09816
4372.47,0.08112
4349.32,0.06430
4326.18,0.06073
4303.03,0.07122
4279.89,0.07056
4256.74,0.07386
4233.6,0.07152
4210.45,0.07048
4187.31,0.07644
4164.16,0.07520
4141.02,0.08617
4117.87,0.08975
4094.73,0.08149
4071.58,0.08042
4048.44,0.09502
4025.29,0.09683
4002.15,0.10356
3979,0.11444
3955.86,0.11869
3932.71,0.11993
3909.57,0.12541
3886.42,0.13129
3863.28,0.13332
3840.13,0.13625
3816.99,0.14200
3793.84,0.14981
3770.7,0.15362
3747.55,0.15592
3724.41,0.16441
3701.26,0.14414
3678.12,0.10256
3654.97,0.10514
3631.83,0.10345
3608.68,0.09285
3585.54,0.08615
3562.39,0.07652
3539.25,0.06978
3516.1,0.06911
3492.96,0.06749
3469.81,0.06455
3446.67,0.05830
3423.52,0.05100
3400.38,0.05210
3377.23,0.05621
3354.09,0.05850
3330.94,0.05664
3307.8,0.05731
3284.65,0.05835
3261.51,0.06046
3238.36,0.05892
3215.22,0.05649
3192.07,0.05544
3168.93,0.05752
3145.78,0.05675
3122.64,0.05586
3099.49,0.05384
3076.35,0.05017
3053.2,0.04831
3030.06,0.04776
3006.91,0.04524
2983.77,0.04367
2960.62,0.04472
2937.48,0.04531
2914.33,0.04832
2891.19,0.04763
2868.04,0.04773
2844.9,0.05010
2821.75,0.04963
2798.61,0.05061
2775.46,0.05373
2752.32,0.05413
2729.17,0.05346
2706.03,0.05889
2682.88,0.05978
2659.74,0.06130
2636.59,0.06111
2613.45,0.05577
2590.3,0.05386
2567.16,0.05315
2544.02,0.05313
2520.87,0.05075
2497.73,0.05348
2474.58,0.06334
2451.44,0.06915
2428.29,0.06789
2405.15,0.06357
2382,0.06166
2358.86,0.06684
2335.71,0.07494
2312.57,0.07844
2289.42,0.07296
2266.28,0.07160
2243.13,0.06719
2219.99,0.06515
2196.84,0.07160
2173.7,0.07999
2150.55,0.07529
2127.41,0.07400
2104.26,0.07690
2081.12,0.07505
2057.97,0.07483
2034.83,0.07887
2011.68,0.08190
1988.54,0.07459
1965.39,0.06450
1942.25,0.05639
1919.1,0.06937
1895.96,0.07040
1872.81,0.07008
1849.67,0.06010
1826.52,0.04704
1803.38,0.04267
1780.23,0.04022
1757.09,0.03561
1733.94,0.03677
1710.8,0.05334
1687.65,0.05046
1664.51,0.04880
1641.36,0.05025
1618.22,0.04977
1595.07,0.04877
1571.93,0.04647
1548.78,0.05315
1525.64,0.04717
1502.49,0.04509
1479.35,0.04217
1456.2,0.04288
1433.06,0.04416
1409.91,0.04179
1386.77,0.04042
1363.62,0.04074
1340.48,0.03873
1317.33,0.03686
1294.19,0.03514
1271.04,0.03981
1247.9,0.04293
1224.75,0.04391
1201.61,0.04337
1178.46,0.04326
1155.32,0.04661
1132.17,0.05168
1109.03,0.06326
1085.88,0.07131
1062.74,0.07597
1039.59,0.07336
1016.45,0.06759
993.304,0.06245
970.159,0.06066
947.014,0.06042
923.869,0.05984
900.724,0.05810
877.579,0.05645
854.434,0.05500
831.289,0.05543
808.144,0.05488
784.999,0.05534
761.854,0.05336
738.709,0.05400
715.565,0.05284
692.42,0.05342
669.275,0.05212
646.13,0.04912
622.985,0.04911
599.84,0.04789