File: 01_Data/Vinyl_Plank_Flooring/FTIR/IS/Vinyl_Plank_Flooring_IS_T_220819_R2.dpt
7497.03,0.02518
7473.89,0.02372
7450.74,0.02325
7427.6,0.01335
7404.45,0.03301
7381.31,0.02146
7358.16,0.02122
7335.02,0.03039
7311.87,0.02344
7288.73,0.02300
7265.58,0.02053
7242.44,0.01822
7219.29,0.01566
7196.15,0.01488
7173,0.02147
7149.86,0.01853
7126.71,0.02115
7103.57,0.01991
7080.42,0.02348
7057.28,0.01858
7034.13,0.02001
7010.99,0.02390
6987.84,0.02414
6964.7,0.02158
6941.55,0.01939
6918.41,0.01906
6895.26,0.02278
6872.12,0.02302
6848.97,0.02467
6825.83,0.01971
6802.68,0.01864
6779.54,0.02309
6756.39,0.02269
6733.25,0.01969
6710.1,0.02399
6686.96,0.02112
6663.82,0.01738
6640.67,0.02188
6617.53,0.01916
6594.38,0.01813
6571.24,0.02193
6548.09,0.01896
6524.95,0.01995
6501.8,0.01670
6478.66,0.01618
6455.51,0.02219
6432.37,0.02125
6409.22,0.01990
6386.08,0.01803
6362.93,0.01910
6339.79,0.01922
6316.64,0.01935
6293.5,0.01715
6270.35,0.01701
6247.21,0.01958
6224.06,0.01863
6200.92,0.01998
6177.77,0.02058
6154.63,0.02171
6131.48,0.02108
6108.34,0.02137
6085.19,0.02026
6062.05,0.01526
6038.9,0.01867
6015.76,0.01680
5992.61,0.01881
5969.47,0.01865
5946.32,0.02075
5923.18,0.01859
5900.03,0.01714
5876.89,0.01979
5853.74,0.01904
5830.6,0.02288
5807.45,0.01957
5784.31,0.01717
5761.16,0.02044
5738.02,0.01893
5714.87,0.02000
5691.73,0.01887
5668.58,0.01801
5645.44,0.02029
5622.29,0.01739
5599.15,0.01981
5576,0.01807
5552.86,0.01927
5529.71,0.01861
5506.57,0.01982
5483.42,0.02077
5460.28,0.01995
5437.13,0.01990
5413.99,0.02118
5390.84,0.01809
5367.7,0.01905
5344.55,0.01883
5321.41,0.01959
5298.26,0.01882
5275.12,0.01975
5251.97,0.01874
5228.83,0.01989
5205.68,0.01883
5182.54,0.01937
5159.39,0.02028
5136.25,0.02016
5113.1,0.01864
5089.96,0.01957
5066.81,0.01931
5043.67,0.01933
5020.52,0.02047
4997.38,0.01950
4974.23,0.01828
4951.09,0.01956
4927.94,0.01925
4904.8,0.01935
4881.65,0.01964
4858.51,0.02027
4835.36,0.02051
4812.22,0.01943
4789.07,0.01926
4765.93,0.02009
4742.78,0.01968
4719.64,0.02043
4696.49,0.01949
4673.35,0.01902
4650.2,0.01971
4627.06,0.01980
4603.92,0.01930
4580.77,0.01928
4557.63,0.01955
4534.48,0.01934
4511.34,0.01967
4488.19,0.01994
4465.05,0.01975
4441.9,0.02046
4418.76,0.02029
4395.61,0.01952
4372.47,0.02013
4349.32,0.01994
4326.18,0.02020
4303.03,0.01943
4279.89,0.01936
4256.74,0.01963
4233.6,0.01964
4210.45,0.01939
4187.31,0.01937
4164.16,0.01950
4141.02,0.02018
4117.87,0.02028
4094.73,0.02007
4071.58,0.01974
4048.44,0.02008
4025.29,0.02016
4002.15,0.01964
3979,0.01974
3955.86,0.01986
3932.71,0.02003
3909.57,0.01948
3886.42,0.02004
3863.28,0.02002
3840.13,0.02027
3816.99,0.02015
3793.84,0.02003
3770.7,0.02010
3747.55,0.01989
3724.41,0.01933
3701.26,0.01962
3678.12,0.01955
3654.97,0.01977
3631.83,0.02001
3608.68,0.01920
3585.54,0.01871
3562.39,0.01921
3539.25,0.01821
3516.1,0.01869
3492.96,0.01836
3469.81,0.01809
3446.67,0.01804
3423.52,0.01789
3400.38,0.01737
3377.23,0.01767
3354.09,0.01724
3330.94,0.01727
3307.8,0.01833
3284.65,0.01664
3261.51,0.01783
3238.36,0.01691
3215.22,0.01778
3192.07,0.01756
3168.93,0.01801
3145.78,0.01816
3122.64,0.01849
3099.49,0.01802
3076.35,0.01766
3053.2,0.01831
3030.06,0.01798
3006.91,0.01783
2983.77,0.01680
2960.62,0.01641
2937.48,0.01720
2914.33,0.01768
2891.19,0.01815
2868.04,0.01780
2844.9,0.01864
2821.75,0.01810
2798.61,0.01869
2775.46,0.01886
2752.32,0.01850
2729.17,0.01923
2706.03,0.01873
2682.88,0.01875
2659.74,0.01854
2636.59,0.01882
2613.45,0.01816
2590.3,0.01853
2567.16,0.01916
2544.02,0.01876
2520.87,0.01836
2497.73,0.01841
2474.58,0.01899
2451.44,0.01844
2428.29,0.01890
2405.15,0.01869
2382,0.01836
2358.86,0.01882
2335.71,0.01860
2312.57,0.01850
2289.42,0.01830
2266.28,0.01860
2243.13,0.01869
2219.99,0.01847
2196.84,0.01834
2173.7,0.01835
2150.55,0.01825
2127.41,0.01854
2104.26,0.01838
2081.12,0.01837
2057.97,0.01830
2034.83,0.01831
2011.68,0.01832
1988.54,0.01843
1965.39,0.01843
1942.25,0.01822
1919.1,0.01809
1895.96,0.01815
1872.81,0.01818
1849.67,0.01790
1826.52,0.01770
1803.38,0.01710
1780.23,0.01646
1757.09,0.01491
1733.94,0.01673
1710.8,0.01791
1687.65,0.01653
1664.51,0.01580
1641.36,0.01573
1618.22,0.01643
1595.07,0.01613
1571.93,0.01573
1548.78,0.01584
1525.64,0.01614
1502.49,0.01616
1479.35,0.01568
1456.2,0.01612
1433.06,0.01621
1409.91,0.01571
1386.77,0.01530
1363.62,0.01535
1340.48,0.01543
1317.33,0.01447
1294.19,0.01508
1271.04,0.01663
1247.9,0.01774
1224.75,0.01655
1201.61,0.01592
1178.46,0.01559
1155.32,0.01523
1132.17,0.01512
1109.03,0.01610
1085.88,0.01472
1062.74,0.01791
1039.59,0.01736
1016.45,0.01647
993.304,0.01808
970.159,0.01755
947.014,0.01732
923.869,0.01647
900.724,0.01637
877.579,0.01626
854.434,0.01643
831.289,0.01621
808.144,0.01561
784.999,0.01567
761.854,0.01523
738.709,0.01641
715.565,0.01437
692.42,0.01458
669.275,0.01387
646.13,0.01417
622.985,0.01367
599.84,0.00933