File: 01_Data/Vinyl_Plank_Flooring/FTIR/IS/Vinyl_Plank_Flooring_IS_S_220819_R8.dpt
7497.03,0.50344
7473.89,0.50123
7450.74,0.51046
7427.6,0.49519
7404.45,0.48786
7381.31,0.48966
7358.16,0.47860
7335.02,0.47726
7311.87,0.45473
7288.73,0.45083
7265.58,0.43699
7242.44,0.43267
7219.29,0.42093
7196.15,0.41989
7173,0.41755
7149.86,0.41265
7126.71,0.41655
7103.57,0.41882
7080.42,0.41510
7057.28,0.41897
7034.13,0.41925
7010.99,0.41761
6987.84,0.41933
6964.7,0.43096
6941.55,0.43569
6918.41,0.44743
6895.26,0.44844
6872.12,0.45520
6848.97,0.45476
6825.83,0.45758
6802.68,0.45963
6779.54,0.46260
6756.39,0.47006
6733.25,0.46892
6710.1,0.47550
6686.96,0.47928
6663.82,0.47762
6640.67,0.48147
6617.53,0.47441
6594.38,0.48294
6571.24,0.47936
6548.09,0.48474
6524.95,0.48579
6501.8,0.48438
6478.66,0.49008
6455.51,0.48846
6432.37,0.48736
6409.22,0.49401
6386.08,0.49321
6362.93,0.49077
6339.79,0.48832
6316.64,0.49060
6293.5,0.48990
6270.35,0.49038
6247.21,0.49274
6224.06,0.48881
6200.92,0.48514
6177.77,0.48156
6154.63,0.47630
6131.48,0.47022
6108.34,0.45734
6085.19,0.42137
6062.05,0.38402
6038.9,0.34641
6015.76,0.31715
5992.61,0.35338
5969.47,0.37616
5946.32,0.35000
5923.18,0.30327
5900.03,0.26373
5876.89,0.22287
5853.74,0.19006
5830.6,0.15697
5807.45,0.17730
5784.31,0.21837
5761.16,0.23101
5738.02,0.22386
5714.87,0.22979
5691.73,0.23079
5668.58,0.25279
5645.44,0.26404
5622.29,0.27891
5599.15,0.29128
5576,0.29996
5552.86,0.30917
5529.71,0.31258
5506.57,0.31470
5483.42,0.31454
5460.28,0.31225
5437.13,0.32748
5413.99,0.33655
5390.84,0.34037
5367.7,0.34771
5344.55,0.35224
5321.41,0.35820
5298.26,0.36132
5275.12,0.35283
5251.97,0.34671
5228.83,0.35138
5205.68,0.35183
5182.54,0.35126
5159.39,0.35218
5136.25,0.34782
5113.1,0.34497
5089.96,0.34890
5066.81,0.35362
5043.67,0.35777
5020.52,0.35739
4997.38,0.35352
4974.23,0.35665
4951.09,0.35617
4927.94,0.35330
4904.8,0.35431
4881.65,0.35565
4858.51,0.35372
4835.36,0.35644
4812.22,0.35181
4789.07,0.34824
4765.93,0.35027
4742.78,0.34503
4719.64,0.31103
4696.49,0.28127
4673.35,0.27302
4650.2,0.28523
4627.06,0.26260
4603.92,0.30398
4580.77,0.29617
4557.63,0.31143
4534.48,0.30496
4511.34,0.28821
4488.19,0.24974
4465.05,0.22545
4441.9,0.17404
4418.76,0.12249
4395.61,0.09865
4372.47,0.08021
4349.32,0.06441
4326.18,0.06052
4303.03,0.07131
4279.89,0.07055
4256.74,0.07329
4233.6,0.07140
4210.45,0.06999
4187.31,0.07681
4164.16,0.07445
4141.02,0.08611
4117.87,0.09021
4094.73,0.08198
4071.58,0.08018
4048.44,0.09476
4025.29,0.09759
4002.15,0.10388
3979,0.11481
3955.86,0.11905
3932.71,0.12035
3909.57,0.12507
3886.42,0.13200
3863.28,0.13385
3840.13,0.13631
3816.99,0.14299
3793.84,0.15023
3770.7,0.15406
3747.55,0.15679
3724.41,0.16603
3701.26,0.14722
3678.12,0.10860
3654.97,0.11149
3631.83,0.10913
3608.68,0.09686
3585.54,0.08859
3562.39,0.07938
3539.25,0.07324
3516.1,0.07179
3492.96,0.06972
3469.81,0.06672
3446.67,0.05879
3423.52,0.05117
3400.38,0.05296
3377.23,0.05618
3354.09,0.05809
3330.94,0.05651
3307.8,0.05758
3284.65,0.05844
3261.51,0.06118
3238.36,0.05903
3215.22,0.05626
3192.07,0.05618
3168.93,0.05792
3145.78,0.05837
3122.64,0.05615
3099.49,0.05365
3076.35,0.05042
3053.2,0.04859
3030.06,0.04757
3006.91,0.04523
2983.77,0.04378
2960.62,0.04458
2937.48,0.04529
2914.33,0.04809
2891.19,0.04832
2868.04,0.04830
2844.9,0.05019
2821.75,0.04911
2798.61,0.04997
2775.46,0.05360
2752.32,0.05425
2729.17,0.05294
2706.03,0.05902
2682.88,0.06013
2659.74,0.06142
2636.59,0.06069
2613.45,0.05572
2590.3,0.05348
2567.16,0.05334
2544.02,0.05280
2520.87,0.05115
2497.73,0.05321
2474.58,0.06263
2451.44,0.06911
2428.29,0.06756
2405.15,0.06396
2382,0.06144
2358.86,0.06653
2335.71,0.07517
2312.57,0.07885
2289.42,0.07323
2266.28,0.07140
2243.13,0.06711
2219.99,0.06488
2196.84,0.07177
2173.7,0.07936
2150.55,0.07520
2127.41,0.07394
2104.26,0.07672
2081.12,0.07502
2057.97,0.07493
2034.83,0.07870
2011.68,0.08224
1988.54,0.07502
1965.39,0.06482
1942.25,0.05676
1919.1,0.06916
1895.96,0.07003
1872.81,0.06961
1849.67,0.06007
1826.52,0.04690
1803.38,0.04300
1780.23,0.04030
1757.09,0.03558
1733.94,0.03740
1710.8,0.05334
1687.65,0.05006
1664.51,0.04854
1641.36,0.05060
1618.22,0.04966
1595.07,0.04895
1571.93,0.04633
1548.78,0.05287
1525.64,0.04678
1502.49,0.04451
1479.35,0.04237
1456.2,0.04262
1433.06,0.04448
1409.91,0.04198
1386.77,0.04024
1363.62,0.04074
1340.48,0.03880
1317.33,0.03716
1294.19,0.03517
1271.04,0.04010
1247.9,0.04318
1224.75,0.04404
1201.61,0.04368
1178.46,0.04283
1155.32,0.04643
1132.17,0.05120
1109.03,0.06360
1085.88,0.07136
1062.74,0.07530
1039.59,0.07277
1016.45,0.06790
993.304,0.06216
970.159,0.06022
947.014,0.06023
923.869,0.05962
900.724,0.05794
877.579,0.05645
854.434,0.05483
831.289,0.05478
808.144,0.05472
784.999,0.05568
761.854,0.05426
738.709,0.05333
715.565,0.05377
692.42,0.05423
669.275,0.05242
646.13,0.05002
622.985,0.05143
599.84,0.04994