File: 01_Data/Vinyl_Plank_Flooring/FTIR/IS/Vinyl_Plank_Flooring_IS_S_220819_R5.dpt
7497.03,0.49988
7473.89,0.50268
7450.74,0.50069
7427.6,0.48603
7404.45,0.49131
7381.31,0.48114
7358.16,0.47244
7335.02,0.47063
7311.87,0.46027
7288.73,0.44923
7265.58,0.44279
7242.44,0.42652
7219.29,0.42736
7196.15,0.41558
7173,0.42358
7149.86,0.41090
7126.71,0.41781
7103.57,0.41600
7080.42,0.41339
7057.28,0.41632
7034.13,0.41609
7010.99,0.41677
6987.84,0.42068
6964.7,0.43034
6941.55,0.43377
6918.41,0.44295
6895.26,0.44172
6872.12,0.45073
6848.97,0.45585
6825.83,0.46090
6802.68,0.45980
6779.54,0.46170
6756.39,0.46959
6733.25,0.46767
6710.1,0.47257
6686.96,0.47025
6663.82,0.47819
6640.67,0.47675
6617.53,0.47651
6594.38,0.48154
6571.24,0.48364
6548.09,0.48473
6524.95,0.48579
6501.8,0.48895
6478.66,0.48752
6455.51,0.49181
6432.37,0.49136
6409.22,0.49143
6386.08,0.49198
6362.93,0.49052
6339.79,0.48613
6316.64,0.48729
6293.5,0.49176
6270.35,0.49040
6247.21,0.49118
6224.06,0.49129
6200.92,0.48207
6177.77,0.47892
6154.63,0.47553
6131.48,0.47115
6108.34,0.45663
6085.19,0.41988
6062.05,0.38660
6038.9,0.34769
6015.76,0.31808
5992.61,0.35377
5969.47,0.37771
5946.32,0.34947
5923.18,0.30248
5900.03,0.26410
5876.89,0.22160
5853.74,0.18956
5830.6,0.15778
5807.45,0.17803
5784.31,0.21698
5761.16,0.23260
5738.02,0.22518
5714.87,0.22886
5691.73,0.23185
5668.58,0.25464
5645.44,0.26374
5622.29,0.27887
5599.15,0.29047
5576,0.30063
5552.86,0.30784
5529.71,0.31312
5506.57,0.31577
5483.42,0.31363
5460.28,0.31459
5437.13,0.32656
5413.99,0.33571
5390.84,0.33939
5367.7,0.34645
5344.55,0.35110
5321.41,0.35681
5298.26,0.35996
5275.12,0.35093
5251.97,0.34565
5228.83,0.35071
5205.68,0.35010
5182.54,0.34930
5159.39,0.34956
5136.25,0.34707
5113.1,0.34364
5089.96,0.34664
5066.81,0.35208
5043.67,0.35414
5020.52,0.35574
4997.38,0.35300
4974.23,0.35506
4951.09,0.35416
4927.94,0.35253
4904.8,0.35239
4881.65,0.35292
4858.51,0.35397
4835.36,0.35482
4812.22,0.35018
4789.07,0.34666
4765.93,0.34955
4742.78,0.34235
4719.64,0.31061
4696.49,0.27842
4673.35,0.27213
4650.2,0.28425
4627.06,0.26108
4603.92,0.30325
4580.77,0.29529
4557.63,0.31031
4534.48,0.30429
4511.34,0.28665
4488.19,0.24743
4465.05,0.22464
4441.9,0.17334
4418.76,0.12228
4395.61,0.09842
4372.47,0.08047
4349.32,0.06421
4326.18,0.06025
4303.03,0.07154
4279.89,0.07071
4256.74,0.07399
4233.6,0.07163
4210.45,0.07013
4187.31,0.07591
4164.16,0.07483
4141.02,0.08599
4117.87,0.08991
4094.73,0.08037
4071.58,0.08033
4048.44,0.09483
4025.29,0.09639
4002.15,0.10272
3979,0.11456
3955.86,0.11863
3932.71,0.11965
3909.57,0.12461
3886.42,0.13122
3863.28,0.13381
3840.13,0.13631
3816.99,0.14178
3793.84,0.14926
3770.7,0.15313
3747.55,0.15620
3724.41,0.16415
3701.26,0.14542
3678.12,0.10463
3654.97,0.10727
3631.83,0.10531
3608.68,0.09493
3585.54,0.08648
3562.39,0.07702
3539.25,0.07179
3516.1,0.07016
3492.96,0.06908
3469.81,0.06543
3446.67,0.05847
3423.52,0.05037
3400.38,0.05211
3377.23,0.05664
3354.09,0.05758
3330.94,0.05667
3307.8,0.05677
3284.65,0.05815
3261.51,0.06119
3238.36,0.05938
3215.22,0.05478
3192.07,0.05618
3168.93,0.05771
3145.78,0.05776
3122.64,0.05611
3099.49,0.05343
3076.35,0.05080
3053.2,0.04865
3030.06,0.04801
3006.91,0.04529
2983.77,0.04381
2960.62,0.04426
2937.48,0.04489
2914.33,0.04806
2891.19,0.04752
2868.04,0.04825
2844.9,0.05013
2821.75,0.04928
2798.61,0.05014
2775.46,0.05324
2752.32,0.05377
2729.17,0.05329
2706.03,0.05846
2682.88,0.06024
2659.74,0.06121
2636.59,0.06103
2613.45,0.05588
2590.3,0.05363
2567.16,0.05356
2544.02,0.05298
2520.87,0.05091
2497.73,0.05299
2474.58,0.06247
2451.44,0.06880
2428.29,0.06756
2405.15,0.06369
2382,0.06115
2358.86,0.06636
2335.71,0.07483
2312.57,0.07811
2289.42,0.07299
2266.28,0.07174
2243.13,0.06694
2219.99,0.06508
2196.84,0.07123
2173.7,0.07945
2150.55,0.07490
2127.41,0.07374
2104.26,0.07650
2081.12,0.07463
2057.97,0.07443
2034.83,0.07843
2011.68,0.08153
1988.54,0.07485
1965.39,0.06425
1942.25,0.05654
1919.1,0.06911
1895.96,0.06984
1872.81,0.06944
1849.67,0.05989
1826.52,0.04717
1803.38,0.04242
1780.23,0.04012
1757.09,0.03519
1733.94,0.03677
1710.8,0.05307
1687.65,0.05035
1664.51,0.04886
1641.36,0.05041
1618.22,0.04950
1595.07,0.04878
1571.93,0.04642
1548.78,0.05279
1525.64,0.04682
1502.49,0.04473
1479.35,0.04219
1456.2,0.04272
1433.06,0.04387
1409.91,0.04242
1386.77,0.04055
1363.62,0.04091
1340.48,0.03885
1317.33,0.03714
1294.19,0.03510
1271.04,0.04021
1247.9,0.04320
1224.75,0.04389
1201.61,0.04342
1178.46,0.04278
1155.32,0.04646
1132.17,0.05161
1109.03,0.06343
1085.88,0.07142
1062.74,0.07572
1039.59,0.07339
1016.45,0.06759
993.304,0.06145
970.159,0.06049
947.014,0.06039
923.869,0.06000
900.724,0.05801
877.579,0.05690
854.434,0.05484
831.289,0.05554
808.144,0.05458
784.999,0.05480
761.854,0.05418
738.709,0.05375
715.565,0.05405
692.42,0.05352
669.275,0.05161
646.13,0.05261
622.985,0.04960
599.84,0.04887