File: 01_Data/Vinyl_Plank_Flooring/FTIR/IS/Vinyl_Plank_Flooring_IS_T_220819_R1.dpt
7497.03,0.01907
7473.89,0.02213
7450.74,0.02282
7427.6,0.02156
7404.45,0.01676
7381.31,0.02787
7358.16,0.01504
7335.02,0.02130
7311.87,0.02034
7288.73,0.02206
7265.58,0.01712
7242.44,0.02811
7219.29,0.02586
7196.15,0.02025
7173,0.02327
7149.86,0.02201
7126.71,0.01953
7103.57,0.01711
7080.42,0.02837
7057.28,0.02362
7034.13,0.02010
7010.99,0.02858
6987.84,0.01416
6964.7,0.01872
6941.55,0.01958
6918.41,0.02739
6895.26,0.02297
6872.12,0.02100
6848.97,0.02104
6825.83,0.01979
6802.68,0.01638
6779.54,0.01331
6756.39,0.01888
6733.25,0.01555
6710.1,0.01830
6686.96,0.01828
6663.82,0.01903
6640.67,0.01736
6617.53,0.02254
6594.38,0.01634
6571.24,0.01824
6548.09,0.02286
6524.95,0.01952
6501.8,0.02004
6478.66,0.01971
6455.51,0.01718
6432.37,0.02099
6409.22,0.01658
6386.08,0.01927
6362.93,0.01937
6339.79,0.01713
6316.64,0.02151
6293.5,0.02015
6270.35,0.01852
6247.21,0.01613
6224.06,0.01911
6200.92,0.01946
6177.77,0.01675
6154.63,0.02197
6131.48,0.01802
6108.34,0.01965
6085.19,0.01703
6062.05,0.01790
6038.9,0.02141
6015.76,0.01854
5992.61,0.01867
5969.47,0.01925
5946.32,0.02131
5923.18,0.02015
5900.03,0.01652
5876.89,0.01862
5853.74,0.01922
5830.6,0.02119
5807.45,0.01723
5784.31,0.01873
5761.16,0.02013
5738.02,0.01788
5714.87,0.01921
5691.73,0.01877
5668.58,0.01845
5645.44,0.01786
5622.29,0.02003
5599.15,0.01777
5576,0.01894
5552.86,0.02063
5529.71,0.01862
5506.57,0.01828
5483.42,0.02088
5460.28,0.02000
5437.13,0.01825
5413.99,0.01702
5390.84,0.01776
5367.7,0.02148
5344.55,0.01876
5321.41,0.01955
5298.26,0.01827
5275.12,0.01839
5251.97,0.01877
5228.83,0.01915
5205.68,0.01956
5182.54,0.01985
5159.39,0.01876
5136.25,0.01982
5113.1,0.01964
5089.96,0.02061
5066.81,0.01884
5043.67,0.01952
5020.52,0.01912
4997.38,0.01983
4974.23,0.02013
4951.09,0.02037
4927.94,0.01950
4904.8,0.01979
4881.65,0.01990
4858.51,0.01912
4835.36,0.02030
4812.22,0.02034
4789.07,0.01892
4765.93,0.01862
4742.78,0.01975
4719.64,0.01990
4696.49,0.01913
4673.35,0.01976
4650.2,0.02047
4627.06,0.02023
4603.92,0.01897
4580.77,0.01921
4557.63,0.01910
4534.48,0.01934
4511.34,0.01961
4488.19,0.01908
4465.05,0.02005
4441.9,0.02019
4418.76,0.01983
4395.61,0.01874
4372.47,0.01953
4349.32,0.01897
4326.18,0.01961
4303.03,0.01891
4279.89,0.01922
4256.74,0.01963
4233.6,0.01984
4210.45,0.01965
4187.31,0.01974
4164.16,0.01945
4141.02,0.01940
4117.87,0.01972
4094.73,0.01990
4071.58,0.01946
4048.44,0.01980
4025.29,0.01983
4002.15,0.01955
3979,0.02000
3955.86,0.01974
3932.71,0.01950
3909.57,0.01970
3886.42,0.01971
3863.28,0.01991
3840.13,0.01949
3816.99,0.01958
3793.84,0.02039
3770.7,0.02011
3747.55,0.01981
3724.41,0.01949
3701.26,0.02008
3678.12,0.01961
3654.97,0.01983
3631.83,0.01905
3608.68,0.01887
3585.54,0.01856
3562.39,0.01836
3539.25,0.01858
3516.1,0.01817
3492.96,0.01785
3469.81,0.01806
3446.67,0.01807
3423.52,0.01743
3400.38,0.01724
3377.23,0.01727
3354.09,0.01694
3330.94,0.01789
3307.8,0.01764
3284.65,0.01707
3261.51,0.01766
3238.36,0.01732
3215.22,0.01787
3192.07,0.01727
3168.93,0.01757
3145.78,0.01822
3122.64,0.01831
3099.49,0.01755
3076.35,0.01751
3053.2,0.01759
3030.06,0.01767
3006.91,0.01715
2983.77,0.01667
2960.62,0.01670
2937.48,0.01693
2914.33,0.01710
2891.19,0.01761
2868.04,0.01753
2844.9,0.01830
2821.75,0.01854
2798.61,0.01833
2775.46,0.01809
2752.32,0.01830
2729.17,0.01872
2706.03,0.01878
2682.88,0.01836
2659.74,0.01793
2636.59,0.01840
2613.45,0.01867
2590.3,0.01852
2567.16,0.01795
2544.02,0.01829
2520.87,0.01822
2497.73,0.01848
2474.58,0.01804
2451.44,0.01855
2428.29,0.01822
2405.15,0.01846
2382,0.01785
2358.86,0.01838
2335.71,0.01814
2312.57,0.01807
2289.42,0.01853
2266.28,0.01795
2243.13,0.01817
2219.99,0.01789
2196.84,0.01827
2173.7,0.01842
2150.55,0.01843
2127.41,0.01791
2104.26,0.01805
2081.12,0.01829
2057.97,0.01799
2034.83,0.01790
2011.68,0.01805
1988.54,0.01777
1965.39,0.01777
1942.25,0.01783
1919.1,0.01764
1895.96,0.01778
1872.81,0.01731
1849.67,0.01750
1826.52,0.01674
1803.38,0.01710
1780.23,0.01608
1757.09,0.01496
1733.94,0.01682
1710.8,0.01781
1687.65,0.01654
1664.51,0.01603
1641.36,0.01554
1618.22,0.01593
1595.07,0.01594
1571.93,0.01563
1548.78,0.01499
1525.64,0.01567
1502.49,0.01594
1479.35,0.01535
1456.2,0.01600
1433.06,0.01566
1409.91,0.01556
1386.77,0.01531
1363.62,0.01493
1340.48,0.01503
1317.33,0.01394
1294.19,0.01462
1271.04,0.01642
1247.9,0.01719
1224.75,0.01653
1201.61,0.01608
1178.46,0.01509
1155.32,0.01467
1132.17,0.01526
1109.03,0.01534
1085.88,0.01579
1062.74,0.01678
1039.59,0.01688
1016.45,0.01690
993.304,0.01780
970.159,0.01751
947.014,0.01706
923.869,0.01670
900.724,0.01580
877.579,0.01644
854.434,0.01577
831.289,0.01553
808.144,0.01568
784.999,0.01614
761.854,0.01512
738.709,0.01597
715.565,0.01480
692.42,0.01504
669.275,0.01453
646.13,0.01287
622.985,0.01403
599.84,0.01099