File: 01_Data/Vinyl_Plank_Flooring/FTIR/IS/Vinyl_Plank_Flooring_IS_S_220819_R6.dpt
7497.03,0.49306
7473.89,0.49475
7450.74,0.49498
7427.6,0.49593
7404.45,0.50087
7381.31,0.48646
7358.16,0.47709
7335.02,0.46965
7311.87,0.46280
7288.73,0.45471
7265.58,0.43428
7242.44,0.42105
7219.29,0.42551
7196.15,0.41561
7173,0.41524
7149.86,0.42200
7126.71,0.41856
7103.57,0.42097
7080.42,0.41114
7057.28,0.41485
7034.13,0.42090
7010.99,0.42192
6987.84,0.42244
6964.7,0.43134
6941.55,0.44054
6918.41,0.44109
6895.26,0.44538
6872.12,0.45349
6848.97,0.45720
6825.83,0.45998
6802.68,0.46173
6779.54,0.46747
6756.39,0.47341
6733.25,0.46806
6710.1,0.47339
6686.96,0.47385
6663.82,0.48077
6640.67,0.47515
6617.53,0.47596
6594.38,0.47589
6571.24,0.48022
6548.09,0.48725
6524.95,0.48090
6501.8,0.48451
6478.66,0.48917
6455.51,0.48510
6432.37,0.48636
6409.22,0.48758
6386.08,0.49079
6362.93,0.48814
6339.79,0.48719
6316.64,0.49280
6293.5,0.49087
6270.35,0.49014
6247.21,0.49247
6224.06,0.48967
6200.92,0.48128
6177.77,0.48063
6154.63,0.47691
6131.48,0.47318
6108.34,0.45803
6085.19,0.42237
6062.05,0.38583
6038.9,0.34824
6015.76,0.32013
5992.61,0.35408
5969.47,0.37566
5946.32,0.35069
5923.18,0.30507
5900.03,0.26524
5876.89,0.22315
5853.74,0.19117
5830.6,0.16137
5807.45,0.18160
5784.31,0.22107
5761.16,0.23283
5738.02,0.22780
5714.87,0.22875
5691.73,0.23372
5668.58,0.25549
5645.44,0.26575
5622.29,0.28202
5599.15,0.28983
5576,0.29976
5552.86,0.31114
5529.71,0.31314
5506.57,0.31618
5483.42,0.31379
5460.28,0.31473
5437.13,0.32774
5413.99,0.33766
5390.84,0.34048
5367.7,0.34900
5344.55,0.35424
5321.41,0.35834
5298.26,0.36056
5275.12,0.35273
5251.97,0.34698
5228.83,0.35245
5205.68,0.35348
5182.54,0.35202
5159.39,0.35016
5136.25,0.34927
5113.1,0.34602
5089.96,0.34891
5066.81,0.35396
5043.67,0.35603
5020.52,0.35697
4997.38,0.35535
4974.23,0.35653
4951.09,0.35644
4927.94,0.35483
4904.8,0.35489
4881.65,0.35522
4858.51,0.35572
4835.36,0.35659
4812.22,0.35177
4789.07,0.34719
4765.93,0.35122
4742.78,0.34471
4719.64,0.31215
4696.49,0.28153
4673.35,0.27339
4650.2,0.28478
4627.06,0.26299
4603.92,0.30548
4580.77,0.29806
4557.63,0.31233
4534.48,0.30637
4511.34,0.28956
4488.19,0.24960
4465.05,0.22712
4441.9,0.17487
4418.76,0.12476
4395.61,0.10125
4372.47,0.08406
4349.32,0.06662
4326.18,0.06387
4303.03,0.07364
4279.89,0.07324
4256.74,0.07632
4233.6,0.07474
4210.45,0.07364
4187.31,0.07925
4164.16,0.07775
4141.02,0.08912
4117.87,0.09262
4094.73,0.08439
4071.58,0.08233
4048.44,0.09745
4025.29,0.09910
4002.15,0.10559
3979,0.11690
3955.86,0.12144
3932.71,0.12258
3909.57,0.12713
3886.42,0.13364
3863.28,0.13609
3840.13,0.13930
3816.99,0.14493
3793.84,0.15165
3770.7,0.15617
3747.55,0.15874
3724.41,0.16769
3701.26,0.14842
3678.12,0.10850
3654.97,0.11168
3631.83,0.10924
3608.68,0.09849
3585.54,0.09048
3562.39,0.08131
3539.25,0.07520
3516.1,0.07366
3492.96,0.07189
3469.81,0.06885
3446.67,0.06202
3423.52,0.05428
3400.38,0.05529
3377.23,0.05887
3354.09,0.06059
3330.94,0.06044
3307.8,0.06008
3284.65,0.06086
3261.51,0.06408
3238.36,0.06196
3215.22,0.05912
3192.07,0.05979
3168.93,0.06044
3145.78,0.06108
3122.64,0.06003
3099.49,0.05694
3076.35,0.05402
3053.2,0.05133
3030.06,0.05093
3006.91,0.04875
2983.77,0.04672
2960.62,0.04728
2937.48,0.04848
2914.33,0.05119
2891.19,0.05105
2868.04,0.05170
2844.9,0.05348
2821.75,0.05258
2798.61,0.05352
2775.46,0.05679
2752.32,0.05727
2729.17,0.05603
2706.03,0.06197
2682.88,0.06321
2659.74,0.06420
2636.59,0.06366
2613.45,0.05917
2590.3,0.05682
2567.16,0.05636
2544.02,0.05596
2520.87,0.05392
2497.73,0.05656
2474.58,0.06512
2451.44,0.07194
2428.29,0.07047
2405.15,0.06681
2382,0.06477
2358.86,0.06956
2335.71,0.07781
2312.57,0.08129
2289.42,0.07573
2266.28,0.07423
2243.13,0.07006
2219.99,0.06807
2196.84,0.07448
2173.7,0.08251
2150.55,0.07794
2127.41,0.07669
2104.26,0.07939
2081.12,0.07776
2057.97,0.07726
2034.83,0.08138
2011.68,0.08444
1988.54,0.07731
1965.39,0.06725
1942.25,0.05924
1919.1,0.07207
1895.96,0.07286
1872.81,0.07250
1849.67,0.06286
1826.52,0.04982
1803.38,0.04591
1780.23,0.04314
1757.09,0.03833
1733.94,0.03983
1710.8,0.05647
1687.65,0.05354
1664.51,0.05194
1641.36,0.05350
1618.22,0.05353
1595.07,0.05231
1571.93,0.04989
1548.78,0.05603
1525.64,0.05022
1502.49,0.04774
1479.35,0.04549
1456.2,0.04606
1433.06,0.04760
1409.91,0.04529
1386.77,0.04363
1363.62,0.04446
1340.48,0.04204
1317.33,0.04025
1294.19,0.03803
1271.04,0.04326
1247.9,0.04629
1224.75,0.04735
1201.61,0.04669
1178.46,0.04632
1155.32,0.04995
1132.17,0.05461
1109.03,0.06750
1085.88,0.07536
1062.74,0.07997
1039.59,0.07710
1016.45,0.07085
993.304,0.06592
970.159,0.06426
947.014,0.06401
923.869,0.06313
900.724,0.06189
877.579,0.06054
854.434,0.05805
831.289,0.05781
808.144,0.05960
784.999,0.05873
761.854,0.05810
738.709,0.05663
715.565,0.05784
692.42,0.05644
669.275,0.05553
646.13,0.05488
622.985,0.05025
599.84,0.05293