File: 01_Data/Vinyl_Plank_Flooring/FTIR/IS/Vinyl_Plank_Flooring_IS_S_220819_R7.dpt
7497.03,0.50649
7473.89,0.49726
7450.74,0.49870
7427.6,0.48936
7404.45,0.49705
7381.31,0.48379
7358.16,0.47850
7335.02,0.46422
7311.87,0.46414
7288.73,0.44869
7265.58,0.43151
7242.44,0.43314
7219.29,0.42493
7196.15,0.41887
7173,0.41807
7149.86,0.42428
7126.71,0.41976
7103.57,0.41289
7080.42,0.41200
7057.28,0.41460
7034.13,0.41459
7010.99,0.41969
6987.84,0.41530
6964.7,0.43422
6941.55,0.44105
6918.41,0.44721
6895.26,0.44548
6872.12,0.45186
6848.97,0.45556
6825.83,0.45896
6802.68,0.46141
6779.54,0.45888
6756.39,0.46506
6733.25,0.46812
6710.1,0.46838
6686.96,0.47500
6663.82,0.47385
6640.67,0.47689
6617.53,0.47774
6594.38,0.47755
6571.24,0.48149
6548.09,0.47740
6524.95,0.48273
6501.8,0.48316
6478.66,0.48628
6455.51,0.48821
6432.37,0.48607
6409.22,0.49187
6386.08,0.48853
6362.93,0.48904
6339.79,0.48846
6316.64,0.48807
6293.5,0.49240
6270.35,0.48790
6247.21,0.48676
6224.06,0.48775
6200.92,0.48271
6177.77,0.47861
6154.63,0.47538
6131.48,0.46376
6108.34,0.45841
6085.19,0.41739
6062.05,0.38531
6038.9,0.34677
6015.76,0.31808
5992.61,0.35548
5969.47,0.37413
5946.32,0.34933
5923.18,0.30208
5900.03,0.26294
5876.89,0.22254
5853.74,0.18884
5830.6,0.15491
5807.45,0.17805
5784.31,0.21703
5761.16,0.23249
5738.02,0.22296
5714.87,0.22521
5691.73,0.22992
5668.58,0.25311
5645.44,0.26331
5622.29,0.27853
5599.15,0.28928
5576,0.29825
5552.86,0.30824
5529.71,0.31168
5506.57,0.31321
5483.42,0.31222
5460.28,0.30966
5437.13,0.32550
5413.99,0.33522
5390.84,0.33799
5367.7,0.34577
5344.55,0.35253
5321.41,0.35562
5298.26,0.35818
5275.12,0.35255
5251.97,0.34430
5228.83,0.35193
5205.68,0.35060
5182.54,0.34849
5159.39,0.34816
5136.25,0.34529
5113.1,0.34397
5089.96,0.34494
5066.81,0.35155
5043.67,0.35454
5020.52,0.35505
4997.38,0.35370
4974.23,0.35376
4951.09,0.35520
4927.94,0.35327
4904.8,0.35169
4881.65,0.35230
4858.51,0.35315
4835.36,0.35314
4812.22,0.35015
4789.07,0.34491
4765.93,0.34876
4742.78,0.34241
4719.64,0.30920
4696.49,0.27909
4673.35,0.27210
4650.2,0.28368
4627.06,0.26050
4603.92,0.30200
4580.77,0.29537
4557.63,0.30962
4534.48,0.30327
4511.34,0.28544
4488.19,0.24798
4465.05,0.22467
4441.9,0.17339
4418.76,0.12160
4395.61,0.09770
4372.47,0.08010
4349.32,0.06325
4326.18,0.06059
4303.03,0.07100
4279.89,0.07079
4256.74,0.07344
4233.6,0.07190
4210.45,0.06968
4187.31,0.07558
4164.16,0.07494
4141.02,0.08597
4117.87,0.08998
4094.73,0.08140
4071.58,0.08036
4048.44,0.09447
4025.29,0.09668
4002.15,0.10326
3979,0.11484
3955.86,0.11829
3932.71,0.11930
3909.57,0.12377
3886.42,0.13042
3863.28,0.13264
3840.13,0.13596
3816.99,0.14265
3793.84,0.14935
3770.7,0.15365
3747.55,0.15663
3724.41,0.16473
3701.26,0.14593
3678.12,0.10681
3654.97,0.11027
3631.83,0.10659
3608.68,0.09624
3585.54,0.08800
3562.39,0.07850
3539.25,0.07244
3516.1,0.07080
3492.96,0.06904
3469.81,0.06526
3446.67,0.05784
3423.52,0.05127
3400.38,0.05207
3377.23,0.05660
3354.09,0.05671
3330.94,0.05543
3307.8,0.05680
3284.65,0.05844
3261.51,0.06056
3238.36,0.05979
3215.22,0.05626
3192.07,0.05557
3168.93,0.05733
3145.78,0.05768
3122.64,0.05587
3099.49,0.05294
3076.35,0.05015
3053.2,0.04828
3030.06,0.04792
3006.91,0.04479
2983.77,0.04381
2960.62,0.04389
2937.48,0.04495
2914.33,0.04815
2891.19,0.04750
2868.04,0.04845
2844.9,0.04946
2821.75,0.04917
2798.61,0.05005
2775.46,0.05335
2752.32,0.05360
2729.17,0.05312
2706.03,0.05846
2682.88,0.05988
2659.74,0.06113
2636.59,0.06030
2613.45,0.05536
2590.3,0.05354
2567.16,0.05327
2544.02,0.05246
2520.87,0.05086
2497.73,0.05346
2474.58,0.06241
2451.44,0.06882
2428.29,0.06696
2405.15,0.06345
2382,0.06135
2358.86,0.06622
2335.71,0.07491
2312.57,0.07838
2289.42,0.07302
2266.28,0.07149
2243.13,0.06707
2219.99,0.06495
2196.84,0.07143
2173.7,0.07912
2150.55,0.07488
2127.41,0.07376
2104.26,0.07631
2081.12,0.07482
2057.97,0.07450
2034.83,0.07850
2011.68,0.08164
1988.54,0.07487
1965.39,0.06427
1942.25,0.05634
1919.1,0.06893
1895.96,0.07017
1872.81,0.06967
1849.67,0.05989
1826.52,0.04644
1803.38,0.04262
1780.23,0.03996
1757.09,0.03546
1733.94,0.03675
1710.8,0.05263
1687.65,0.05014
1664.51,0.04872
1641.36,0.05026
1618.22,0.04960
1595.07,0.04905
1571.93,0.04645
1548.78,0.05276
1525.64,0.04657
1502.49,0.04463
1479.35,0.04173
1456.2,0.04305
1433.06,0.04358
1409.91,0.04182
1386.77,0.04035
1363.62,0.04107
1340.48,0.03895
1317.33,0.03729
1294.19,0.03489
1271.04,0.04000
1247.9,0.04299
1224.75,0.04413
1201.61,0.04342
1178.46,0.04278
1155.32,0.04666
1132.17,0.05133
1109.03,0.06348
1085.88,0.07181
1062.74,0.07509
1039.59,0.07265
1016.45,0.06770
993.304,0.06154
970.159,0.06019
947.014,0.05963
923.869,0.05952
900.724,0.05776
877.579,0.05670
854.434,0.05476
831.289,0.05453
808.144,0.05476
784.999,0.05551
761.854,0.05451
738.709,0.05314
715.565,0.05435
692.42,0.05345
669.275,0.05151
646.13,0.05057
622.985,0.04929
599.84,0.05022