File: 01_Data/Vinyl_Plank_Flooring/FTIR/IS/Vinyl_Plank_Flooring_IS_S_220819_R1.dpt
7497.03,0.50079
7473.89,0.49832
7450.74,0.49867
7427.6,0.50182
7404.45,0.48669
7381.31,0.48702
7358.16,0.47172
7335.02,0.45953
7311.87,0.45892
7288.73,0.44757
7265.58,0.42966
7242.44,0.42956
7219.29,0.41932
7196.15,0.41766
7173,0.41246
7149.86,0.41581
7126.71,0.42106
7103.57,0.41210
7080.42,0.41086
7057.28,0.40897
7034.13,0.41688
7010.99,0.41710
6987.84,0.41413
6964.7,0.42908
6941.55,0.43395
6918.41,0.43649
6895.26,0.44784
6872.12,0.44774
6848.97,0.45620
6825.83,0.45437
6802.68,0.45808
6779.54,0.45850
6756.39,0.46480
6733.25,0.46587
6710.1,0.46954
6686.96,0.46803
6663.82,0.47678
6640.67,0.47201
6617.53,0.47717
6594.38,0.47949
6571.24,0.47516
6548.09,0.48176
6524.95,0.47987
6501.8,0.48380
6478.66,0.48737
6455.51,0.49247
6432.37,0.48642
6409.22,0.49204
6386.08,0.48756
6362.93,0.48707
6339.79,0.48256
6316.64,0.48939
6293.5,0.48672
6270.35,0.49019
6247.21,0.48890
6224.06,0.48833
6200.92,0.48336
6177.77,0.47915
6154.63,0.46969
6131.48,0.46963
6108.34,0.45239
6085.19,0.41705
6062.05,0.38028
6038.9,0.34576
6015.76,0.31781
5992.61,0.35501
5969.47,0.37300
5946.32,0.34549
5923.18,0.30243
5900.03,0.26356
5876.89,0.22237
5853.74,0.18713
5830.6,0.15671
5807.45,0.17766
5784.31,0.21481
5761.16,0.23131
5738.02,0.22483
5714.87,0.22579
5691.73,0.23044
5668.58,0.25314
5645.44,0.26281
5622.29,0.27839
5599.15,0.28757
5576,0.29968
5552.86,0.30490
5529.71,0.31151
5506.57,0.31369
5483.42,0.31041
5460.28,0.31131
5437.13,0.32576
5413.99,0.33326
5390.84,0.33947
5367.7,0.34631
5344.55,0.35004
5321.41,0.35569
5298.26,0.35764
5275.12,0.34568
5251.97,0.33934
5228.83,0.34490
5205.68,0.34762
5182.54,0.34556
5159.39,0.34669
5136.25,0.34436
5113.1,0.34218
5089.96,0.34445
5066.81,0.35123
5043.67,0.35287
5020.52,0.35287
4997.38,0.35234
4974.23,0.35242
4951.09,0.35399
4927.94,0.35210
4904.8,0.35219
4881.65,0.35134
4858.51,0.35189
4835.36,0.35336
4812.22,0.34913
4789.07,0.34389
4765.93,0.34780
4742.78,0.34193
4719.64,0.30876
4696.49,0.27836
4673.35,0.27167
4650.2,0.28236
4627.06,0.26081
4603.92,0.30210
4580.77,0.29418
4557.63,0.30920
4534.48,0.30251
4511.34,0.28559
4488.19,0.24704
4465.05,0.22342
4441.9,0.17290
4418.76,0.12195
4395.61,0.09807
4372.47,0.08012
4349.32,0.06372
4326.18,0.06036
4303.03,0.07094
4279.89,0.07022
4256.74,0.07302
4233.6,0.07115
4210.45,0.06981
4187.31,0.07579
4164.16,0.07472
4141.02,0.08615
4117.87,0.08940
4094.73,0.08173
4071.58,0.08013
4048.44,0.09492
4025.29,0.09693
4002.15,0.10274
3979,0.11341
3955.86,0.11753
3932.71,0.11874
3909.57,0.12392
3886.42,0.13055
3863.28,0.13292
3840.13,0.13538
3816.99,0.14145
3793.84,0.14740
3770.7,0.15163
3747.55,0.15461
3724.41,0.16257
3701.26,0.14131
3678.12,0.09932
3654.97,0.10005
3631.83,0.09983
3608.68,0.09018
3585.54,0.08258
3562.39,0.07318
3539.25,0.06839
3516.1,0.06668
3492.96,0.06581
3469.81,0.06336
3446.67,0.05734
3423.52,0.05015
3400.38,0.05207
3377.23,0.05541
3354.09,0.05827
3330.94,0.05492
3307.8,0.05619
3284.65,0.05791
3261.51,0.06021
3238.36,0.05858
3215.22,0.05500
3192.07,0.05578
3168.93,0.05645
3145.78,0.05747
3122.64,0.05619
3099.49,0.05305
3076.35,0.05067
3053.2,0.04855
3030.06,0.04784
3006.91,0.04553
2983.77,0.04355
2960.62,0.04434
2937.48,0.04511
2914.33,0.04842
2891.19,0.04777
2868.04,0.04783
2844.9,0.04947
2821.75,0.04920
2798.61,0.05011
2775.46,0.05325
2752.32,0.05358
2729.17,0.05313
2706.03,0.05859
2682.88,0.06011
2659.74,0.06088
2636.59,0.06071
2613.45,0.05549
2590.3,0.05360
2567.16,0.05317
2544.02,0.05290
2520.87,0.05078
2497.73,0.05279
2474.58,0.06245
2451.44,0.06868
2428.29,0.06693
2405.15,0.06376
2382,0.06146
2358.86,0.06623
2335.71,0.07488
2312.57,0.07813
2289.42,0.07246
2266.28,0.07112
2243.13,0.06682
2219.99,0.06484
2196.84,0.07103
2173.7,0.07936
2150.55,0.07443
2127.41,0.07347
2104.26,0.07627
2081.12,0.07480
2057.97,0.07461
2034.83,0.07809
2011.68,0.08152
1988.54,0.07436
1965.39,0.06398
1942.25,0.05638
1919.1,0.06857
1895.96,0.06951
1872.81,0.06940
1849.67,0.05979
1826.52,0.04690
1803.38,0.04258
1780.23,0.04006
1757.09,0.03542
1733.94,0.03724
1710.8,0.05280
1687.65,0.05036
1664.51,0.04864
1641.36,0.05000
1618.22,0.04943
1595.07,0.04857
1571.93,0.04635
1548.78,0.05245
1525.64,0.04667
1502.49,0.04487
1479.35,0.04171
1456.2,0.04290
1433.06,0.04396
1409.91,0.04175
1386.77,0.03980
1363.62,0.04036
1340.48,0.03880
1317.33,0.03730
1294.19,0.03488
1271.04,0.03999
1247.9,0.04311
1224.75,0.04374
1201.61,0.04328
1178.46,0.04274
1155.32,0.04673
1132.17,0.05097
1109.03,0.06356
1085.88,0.07189
1062.74,0.07644
1039.59,0.07351
1016.45,0.06732
993.304,0.06198
970.159,0.06052
947.014,0.06065
923.869,0.05926
900.724,0.05776
877.579,0.05688
854.434,0.05433
831.289,0.05479
808.144,0.05504
784.999,0.05471
761.854,0.05413
738.709,0.05255
715.565,0.05397
692.42,0.05397
669.275,0.05124
646.13,0.05079
622.985,0.04882
599.84,0.05068