File: 01_Data/Vinyl_Plank_Flooring/FTIR/IS/Vinyl_Plank_Flooring_IS_S_220819_R4.dpt
7497.03,0.50393
7473.89,0.49906
7450.74,0.48753
7427.6,0.49834
7404.45,0.48330
7381.31,0.48156
7358.16,0.47380
7335.02,0.46709
7311.87,0.45499
7288.73,0.44514
7265.58,0.43381
7242.44,0.42423
7219.29,0.41825
7196.15,0.41562
7173,0.41147
7149.86,0.41510
7126.71,0.41719
7103.57,0.41615
7080.42,0.41256
7057.28,0.40380
7034.13,0.41435
7010.99,0.41488
6987.84,0.42072
6964.7,0.42550
6941.55,0.43508
6918.41,0.44036
6895.26,0.44738
6872.12,0.44997
6848.97,0.45815
6825.83,0.45898
6802.68,0.45810
6779.54,0.46850
6756.39,0.46485
6733.25,0.46512
6710.1,0.46721
6686.96,0.47078
6663.82,0.47086
6640.67,0.47432
6617.53,0.47533
6594.38,0.47387
6571.24,0.47839
6548.09,0.48045
6524.95,0.47674
6501.8,0.48351
6478.66,0.48293
6455.51,0.48246
6432.37,0.48846
6409.22,0.48844
6386.08,0.48792
6362.93,0.48796
6339.79,0.48498
6316.64,0.48712
6293.5,0.48853
6270.35,0.48727
6247.21,0.48777
6224.06,0.48711
6200.92,0.48063
6177.77,0.47804
6154.63,0.47399
6131.48,0.46723
6108.34,0.45510
6085.19,0.42269
6062.05,0.38193
6038.9,0.34677
6015.76,0.31489
5992.61,0.34987
5969.47,0.37067
5946.32,0.34610
5923.18,0.30195
5900.03,0.26328
5876.89,0.22273
5853.74,0.18778
5830.6,0.15854
5807.45,0.17671
5784.31,0.21647
5761.16,0.23249
5738.02,0.22472
5714.87,0.22782
5691.73,0.23172
5668.58,0.25369
5645.44,0.26314
5622.29,0.27812
5599.15,0.28754
5576,0.29924
5552.86,0.30655
5529.71,0.31075
5506.57,0.31255
5483.42,0.31282
5460.28,0.31183
5437.13,0.32563
5413.99,0.33295
5390.84,0.33571
5367.7,0.34345
5344.55,0.34987
5321.41,0.35509
5298.26,0.35719
5275.12,0.34898
5251.97,0.34186
5228.83,0.34853
5205.68,0.34819
5182.54,0.34626
5159.39,0.34600
5136.25,0.34468
5113.1,0.34235
5089.96,0.34525
5066.81,0.35078
5043.67,0.35358
5020.52,0.35354
4997.38,0.35138
4974.23,0.35347
4951.09,0.35338
4927.94,0.35108
4904.8,0.35210
4881.65,0.35195
4858.51,0.35112
4835.36,0.35282
4812.22,0.34830
4789.07,0.34485
4765.93,0.34797
4742.78,0.34189
4719.64,0.30856
4696.49,0.27837
4673.35,0.27035
4650.2,0.28304
4627.06,0.26027
4603.92,0.30163
4580.77,0.29409
4557.63,0.30807
4534.48,0.30267
4511.34,0.28491
4488.19,0.24691
4465.05,0.22255
4441.9,0.17342
4418.76,0.12092
4395.61,0.09801
4372.47,0.08037
4349.32,0.06290
4326.18,0.06029
4303.03,0.07060
4279.89,0.07054
4256.74,0.07364
4233.6,0.07157
4210.45,0.07018
4187.31,0.07578
4164.16,0.07438
4141.02,0.08565
4117.87,0.08940
4094.73,0.08076
4071.58,0.07987
4048.44,0.09384
4025.29,0.09738
4002.15,0.10265
3979,0.11397
3955.86,0.11784
3932.71,0.11886
3909.57,0.12341
3886.42,0.13034
3863.28,0.13240
3840.13,0.13579
3816.99,0.14195
3793.84,0.14808
3770.7,0.15245
3747.55,0.15547
3724.41,0.16342
3701.26,0.14405
3678.12,0.10344
3654.97,0.10521
3631.83,0.10433
3608.68,0.09341
3585.54,0.08588
3562.39,0.07582
3539.25,0.07066
3516.1,0.06938
3492.96,0.06800
3469.81,0.06480
3446.67,0.05835
3423.52,0.05060
3400.38,0.05218
3377.23,0.05617
3354.09,0.05790
3330.94,0.05675
3307.8,0.05562
3284.65,0.05797
3261.51,0.06132
3238.36,0.05979
3215.22,0.05605
3192.07,0.05529
3168.93,0.05689
3145.78,0.05837
3122.64,0.05596
3099.49,0.05357
3076.35,0.04993
3053.2,0.04805
3030.06,0.04732
3006.91,0.04512
2983.77,0.04407
2960.62,0.04428
2937.48,0.04571
2914.33,0.04820
2891.19,0.04730
2868.04,0.04792
2844.9,0.05005
2821.75,0.04895
2798.61,0.05002
2775.46,0.05310
2752.32,0.05357
2729.17,0.05300
2706.03,0.05801
2682.88,0.05995
2659.74,0.06063
2636.59,0.06071
2613.45,0.05515
2590.3,0.05382
2567.16,0.05281
2544.02,0.05241
2520.87,0.05044
2497.73,0.05305
2474.58,0.06216
2451.44,0.06841
2428.29,0.06731
2405.15,0.06348
2382,0.06142
2358.86,0.06638
2335.71,0.07454
2312.57,0.07794
2289.42,0.07276
2266.28,0.07113
2243.13,0.06682
2219.99,0.06471
2196.84,0.07114
2173.7,0.07866
2150.55,0.07494
2127.41,0.07321
2104.26,0.07596
2081.12,0.07452
2057.97,0.07476
2034.83,0.07835
2011.68,0.08143
1988.54,0.07441
1965.39,0.06400
1942.25,0.05616
1919.1,0.06896
1895.96,0.06973
1872.81,0.06945
1849.67,0.05977
1826.52,0.04701
1803.38,0.04258
1780.23,0.03998
1757.09,0.03497
1733.94,0.03662
1710.8,0.05286
1687.65,0.05005
1664.51,0.04856
1641.36,0.05015
1618.22,0.04940
1595.07,0.04879
1571.93,0.04612
1548.78,0.05249
1525.64,0.04635
1502.49,0.04433
1479.35,0.04214
1456.2,0.04324
1433.06,0.04393
1409.91,0.04214
1386.77,0.04000
1363.62,0.04063
1340.48,0.03851
1317.33,0.03682
1294.19,0.03501
1271.04,0.03996
1247.9,0.04291
1224.75,0.04340
1201.61,0.04337
1178.46,0.04234
1155.32,0.04714
1132.17,0.05130
1109.03,0.06411
1085.88,0.07153
1062.74,0.07520
1039.59,0.07288
1016.45,0.06790
993.304,0.06200
970.159,0.06017
947.014,0.06001
923.869,0.06008
900.724,0.05782
877.579,0.05620
854.434,0.05502
831.289,0.05382
808.144,0.05505
784.999,0.05453
761.854,0.05419
738.709,0.05292
715.565,0.05355
692.42,0.05218
669.275,0.05227
646.13,0.05020
622.985,0.04894
599.84,0.04918