File: 01_Data/Vinyl_Plank_Flooring/FTIR/IS/Vinyl_Plank_Flooring_IS_S_220819_R2.dpt
7497.03,0.49791
7473.89,0.49168
7450.74,0.50164
7427.6,0.50183
7404.45,0.49565
7381.31,0.48790
7358.16,0.47795
7335.02,0.46911
7311.87,0.45900
7288.73,0.45487
7265.58,0.43922
7242.44,0.43119
7219.29,0.42465
7196.15,0.41752
7173,0.41672
7149.86,0.41653
7126.71,0.41392
7103.57,0.41117
7080.42,0.41203
7057.28,0.40776
7034.13,0.41613
7010.99,0.41047
6987.84,0.41625
6964.7,0.43044
6941.55,0.43565
6918.41,0.44593
6895.26,0.44900
6872.12,0.44969
6848.97,0.45303
6825.83,0.45805
6802.68,0.45843
6779.54,0.46117
6756.39,0.45982
6733.25,0.46703
6710.1,0.46814
6686.96,0.47540
6663.82,0.47521
6640.67,0.47424
6617.53,0.47827
6594.38,0.47722
6571.24,0.48316
6548.09,0.47785
6524.95,0.47839
6501.8,0.48412
6478.66,0.48571
6455.51,0.48403
6432.37,0.49073
6409.22,0.48839
6386.08,0.48649
6362.93,0.48572
6339.79,0.48347
6316.64,0.48671
6293.5,0.49048
6270.35,0.48984
6247.21,0.48833
6224.06,0.48945
6200.92,0.48090
6177.77,0.47611
6154.63,0.47390
6131.48,0.46822
6108.34,0.45420
6085.19,0.41734
6062.05,0.38491
6038.9,0.34410
6015.76,0.31544
5992.61,0.35245
5969.47,0.37352
5946.32,0.34700
5923.18,0.30110
5900.03,0.26122
5876.89,0.22173
5853.74,0.18747
5830.6,0.15600
5807.45,0.17975
5784.31,0.21688
5761.16,0.23202
5738.02,0.22398
5714.87,0.22667
5691.73,0.23082
5668.58,0.25198
5645.44,0.26267
5622.29,0.27738
5599.15,0.28888
5576,0.29891
5552.86,0.30510
5529.71,0.31102
5506.57,0.31312
5483.42,0.31153
5460.28,0.31173
5437.13,0.32362
5413.99,0.33437
5390.84,0.33845
5367.7,0.34351
5344.55,0.35026
5321.41,0.35576
5298.26,0.35655
5275.12,0.34703
5251.97,0.34178
5228.83,0.34892
5205.68,0.34824
5182.54,0.34728
5159.39,0.34543
5136.25,0.34458
5113.1,0.34099
5089.96,0.34521
5066.81,0.35216
5043.67,0.35428
5020.52,0.35307
4997.38,0.35365
4974.23,0.35294
4951.09,0.35473
4927.94,0.35293
4904.8,0.35180
4881.65,0.35271
4858.51,0.35216
4835.36,0.35443
4812.22,0.34976
4789.07,0.34511
4765.93,0.34659
4742.78,0.34223
4719.64,0.30978
4696.49,0.27924
4673.35,0.27165
4650.2,0.28183
4627.06,0.26090
4603.92,0.30285
4580.77,0.29447
4557.63,0.30948
4534.48,0.30319
4511.34,0.28606
4488.19,0.24706
4465.05,0.22428
4441.9,0.17280
4418.76,0.12212
4395.61,0.09800
4372.47,0.08062
4349.32,0.06323
4326.18,0.06094
4303.03,0.07131
4279.89,0.07062
4256.74,0.07397
4233.6,0.07154
4210.45,0.07011
4187.31,0.07557
4164.16,0.07505
4141.02,0.08531
4117.87,0.09021
4094.73,0.08063
4071.58,0.07989
4048.44,0.09468
4025.29,0.09640
4002.15,0.10363
3979,0.11386
3955.86,0.11784
3932.71,0.11946
3909.57,0.12390
3886.42,0.13048
3863.28,0.13288
3840.13,0.13580
3816.99,0.14224
3793.84,0.14777
3770.7,0.15264
3747.55,0.15550
3724.41,0.16260
3701.26,0.14334
3678.12,0.10031
3654.97,0.10274
3631.83,0.10191
3608.68,0.09166
3585.54,0.08437
3562.39,0.07446
3539.25,0.06906
3516.1,0.06866
3492.96,0.06725
3469.81,0.06411
3446.67,0.05766
3423.52,0.05087
3400.38,0.05278
3377.23,0.05550
3354.09,0.05740
3330.94,0.05587
3307.8,0.05648
3284.65,0.05819
3261.51,0.06087
3238.36,0.05814
3215.22,0.05689
3192.07,0.05599
3168.93,0.05772
3145.78,0.05781
3122.64,0.05670
3099.49,0.05340
3076.35,0.05050
3053.2,0.04823
3030.06,0.04764
3006.91,0.04496
2983.77,0.04409
2960.62,0.04482
2937.48,0.04545
2914.33,0.04856
2891.19,0.04778
2868.04,0.04821
2844.9,0.04976
2821.75,0.04941
2798.61,0.05017
2775.46,0.05345
2752.32,0.05372
2729.17,0.05325
2706.03,0.05868
2682.88,0.05991
2659.74,0.06133
2636.59,0.06055
2613.45,0.05516
2590.3,0.05370
2567.16,0.05339
2544.02,0.05303
2520.87,0.05097
2497.73,0.05318
2474.58,0.06225
2451.44,0.06871
2428.29,0.06740
2405.15,0.06357
2382,0.06130
2358.86,0.06642
2335.71,0.07447
2312.57,0.07837
2289.42,0.07272
2266.28,0.07152
2243.13,0.06708
2219.99,0.06508
2196.84,0.07110
2173.7,0.07924
2150.55,0.07497
2127.41,0.07363
2104.26,0.07640
2081.12,0.07470
2057.97,0.07469
2034.83,0.07831
2011.68,0.08151
1988.54,0.07475
1965.39,0.06427
1942.25,0.05655
1919.1,0.06870
1895.96,0.06975
1872.81,0.06946
1849.67,0.05992
1826.52,0.04699
1803.38,0.04263
1780.23,0.03988
1757.09,0.03553
1733.94,0.03654
1710.8,0.05309
1687.65,0.05040
1664.51,0.04881
1641.36,0.04988
1618.22,0.04976
1595.07,0.04831
1571.93,0.04619
1548.78,0.05284
1525.64,0.04659
1502.49,0.04438
1479.35,0.04193
1456.2,0.04274
1433.06,0.04407
1409.91,0.04218
1386.77,0.04059
1363.62,0.04085
1340.48,0.03885
1317.33,0.03728
1294.19,0.03548
1271.04,0.03989
1247.9,0.04298
1224.75,0.04387
1201.61,0.04361
1178.46,0.04313
1155.32,0.04615
1132.17,0.05150
1109.03,0.06406
1085.88,0.07096
1062.74,0.07606
1039.59,0.07311
1016.45,0.06714
993.304,0.06212
970.159,0.06077
947.014,0.06012
923.869,0.06022
900.724,0.05853
877.579,0.05649
854.434,0.05512
831.289,0.05434
808.144,0.05476
784.999,0.05526
761.854,0.05430
738.709,0.05373
715.565,0.05423
692.42,0.05249
669.275,0.05172
646.13,0.05087
622.985,0.05016
599.84,0.04901