File: 01_Data/Vinyl_Plank_Flooring/FTIR/IS/Vinyl_Plank_Flooring_IS_T_220819_R6.dpt
7497.03,0.02812
7473.89,0.01658
7450.74,0.01953
7427.6,0.02264
7404.45,0.02456
7381.31,0.02678
7358.16,0.02603
7335.02,0.02630
7311.87,0.02392
7288.73,0.02882
7265.58,0.01542
7242.44,0.01966
7219.29,0.02099
7196.15,0.02201
7173,0.02618
7149.86,0.02633
7126.71,0.02261
7103.57,0.02079
7080.42,0.01772
7057.28,0.02772
7034.13,0.02241
7010.99,0.01447
6987.84,0.02272
6964.7,0.01807
6941.55,0.02523
6918.41,0.02249
6895.26,0.02437
6872.12,0.02229
6848.97,0.01787
6825.83,0.01826
6802.68,0.01958
6779.54,0.02107
6756.39,0.01876
6733.25,0.02197
6710.1,0.01941
6686.96,0.02101
6663.82,0.02058
6640.67,0.02234
6617.53,0.02095
6594.38,0.01964
6571.24,0.02090
6548.09,0.01828
6524.95,0.01791
6501.8,0.01922
6478.66,0.01880
6455.51,0.01958
6432.37,0.02016
6409.22,0.02334
6386.08,0.01923
6362.93,0.02154
6339.79,0.02117
6316.64,0.01727
6293.5,0.01838
6270.35,0.01685
6247.21,0.01652
6224.06,0.01876
6200.92,0.01764
6177.77,0.02243
6154.63,0.02000
6131.48,0.01731
6108.34,0.01845
6085.19,0.01752
6062.05,0.01663
6038.9,0.02020
6015.76,0.02080
5992.61,0.01904
5969.47,0.02098
5946.32,0.01983
5923.18,0.02077
5900.03,0.02010
5876.89,0.01870
5853.74,0.01865
5830.6,0.02119
5807.45,0.01827
5784.31,0.02019
5761.16,0.01722
5738.02,0.01739
5714.87,0.01787
5691.73,0.01950
5668.58,0.01890
5645.44,0.01892
5622.29,0.02058
5599.15,0.01858
5576,0.01852
5552.86,0.01858
5529.71,0.01986
5506.57,0.01926
5483.42,0.01791
5460.28,0.01910
5437.13,0.01939
5413.99,0.01890
5390.84,0.01901
5367.7,0.01918
5344.55,0.02083
5321.41,0.01904
5298.26,0.01855
5275.12,0.01791
5251.97,0.01953
5228.83,0.01919
5205.68,0.02026
5182.54,0.01703
5159.39,0.01836
5136.25,0.01940
5113.1,0.01879
5089.96,0.01865
5066.81,0.02002
5043.67,0.01913
5020.52,0.02101
4997.38,0.01939
4974.23,0.01877
4951.09,0.01907
4927.94,0.01910
4904.8,0.01845
4881.65,0.01955
4858.51,0.01854
4835.36,0.02002
4812.22,0.01852
4789.07,0.01956
4765.93,0.01864
4742.78,0.01928
4719.64,0.01967
4696.49,0.01986
4673.35,0.01897
4650.2,0.01944
4627.06,0.01866
4603.92,0.01899
4580.77,0.01990
4557.63,0.01900
4534.48,0.01933
4511.34,0.02014
4488.19,0.01907
4465.05,0.01918
4441.9,0.01877
4418.76,0.01898
4395.61,0.01963
4372.47,0.01831
4349.32,0.01863
4326.18,0.01948
4303.03,0.01902
4279.89,0.01920
4256.74,0.01951
4233.6,0.01927
4210.45,0.01917
4187.31,0.01938
4164.16,0.01950
4141.02,0.01974
4117.87,0.01928
4094.73,0.01984
4071.58,0.01977
4048.44,0.01965
4025.29,0.01897
4002.15,0.01990
3979,0.01969
3955.86,0.01948
3932.71,0.01945
3909.57,0.01999
3886.42,0.01962
3863.28,0.01906
3840.13,0.02015
3816.99,0.01971
3793.84,0.01994
3770.7,0.01926
3747.55,0.01989
3724.41,0.01940
3701.26,0.01991
3678.12,0.01935
3654.97,0.01888
3631.83,0.01937
3608.68,0.01873
3585.54,0.01793
3562.39,0.01821
3539.25,0.01847
3516.1,0.01778
3492.96,0.01789
3469.81,0.01749
3446.67,0.01703
3423.52,0.01720
3400.38,0.01696
3377.23,0.01720
3354.09,0.01744
3330.94,0.01675
3307.8,0.01693
3284.65,0.01713
3261.51,0.01816
3238.36,0.01653
3215.22,0.01730
3192.07,0.01718
3168.93,0.01772
3145.78,0.01744
3122.64,0.01728
3099.49,0.01751
3076.35,0.01735
3053.2,0.01735
3030.06,0.01693
3006.91,0.01725
2983.77,0.01658
2960.62,0.01642
2937.48,0.01662
2914.33,0.01761
2891.19,0.01743
2868.04,0.01759
2844.9,0.01825
2821.75,0.01834
2798.61,0.01828
2775.46,0.01832
2752.32,0.01815
2729.17,0.01826
2706.03,0.01752
2682.88,0.01836
2659.74,0.01819
2636.59,0.01791
2613.45,0.01773
2590.3,0.01794
2567.16,0.01840
2544.02,0.01818
2520.87,0.01821
2497.73,0.01835
2474.58,0.01850
2451.44,0.01778
2428.29,0.01835
2405.15,0.01769
2382,0.01788
2358.86,0.01782
2335.71,0.01810
2312.57,0.01803
2289.42,0.01805
2266.28,0.01782
2243.13,0.01787
2219.99,0.01799
2196.84,0.01799
2173.7,0.01743
2150.55,0.01803
2127.41,0.01755
2104.26,0.01774
2081.12,0.01763
2057.97,0.01768
2034.83,0.01712
2011.68,0.01782
1988.54,0.01772
1965.39,0.01795
1942.25,0.01780
1919.1,0.01753
1895.96,0.01750
1872.81,0.01741
1849.67,0.01708
1826.52,0.01708
1803.38,0.01696
1780.23,0.01604
1757.09,0.01456
1733.94,0.01641
1710.8,0.01741
1687.65,0.01628
1664.51,0.01525
1641.36,0.01527
1618.22,0.01600
1595.07,0.01566
1571.93,0.01531
1548.78,0.01498
1525.64,0.01551
1502.49,0.01529
1479.35,0.01542
1456.2,0.01532
1433.06,0.01573
1409.91,0.01529
1386.77,0.01515
1363.62,0.01492
1340.48,0.01433
1317.33,0.01403
1294.19,0.01491
1271.04,0.01627
1247.9,0.01715
1224.75,0.01599
1201.61,0.01580
1178.46,0.01472
1155.32,0.01464
1132.17,0.01504
1109.03,0.01596
1085.88,0.01533
1062.74,0.01681
1039.59,0.01656
1016.45,0.01608
993.304,0.01775
970.159,0.01733
947.014,0.01690
923.869,0.01627
900.724,0.01629
877.579,0.01564
854.434,0.01593
831.289,0.01589
808.144,0.01602
784.999,0.01588
761.854,0.01434
738.709,0.01581
715.565,0.01476
692.42,0.01522
669.275,0.01389
646.13,0.01302
622.985,0.01469
599.84,0.01133