File: 01_Data/Vinyl_Plank_Flooring/FTIR/IS/Vinyl_Plank_Flooring_IS_T_220819_R7.dpt
7497.03,0.00925
7473.89,0.01669
7450.74,0.02670
7427.6,0.02471
7404.45,0.01655
7381.31,0.01862
7358.16,0.02512
7335.02,0.01957
7311.87,0.01752
7288.73,0.02753
7265.58,0.02548
7242.44,0.02699
7219.29,0.02321
7196.15,0.02012
7173,0.02221
7149.86,0.02343
7126.71,0.02286
7103.57,0.01812
7080.42,0.01958
7057.28,0.02612
7034.13,0.02907
7010.99,0.02231
6987.84,0.02628
6964.7,0.02131
6941.55,0.02593
6918.41,0.02439
6895.26,0.01879
6872.12,0.02006
6848.97,0.02020
6825.83,0.01414
6802.68,0.02270
6779.54,0.01888
6756.39,0.02122
6733.25,0.01604
6710.1,0.02047
6686.96,0.01873
6663.82,0.01908
6640.67,0.02091
6617.53,0.01468
6594.38,0.02000
6571.24,0.02142
6548.09,0.01690
6524.95,0.02099
6501.8,0.01780
6478.66,0.01858
6455.51,0.01924
6432.37,0.02225
6409.22,0.01792
6386.08,0.01959
6362.93,0.01881
6339.79,0.01822
6316.64,0.01932
6293.5,0.02149
6270.35,0.01820
6247.21,0.02278
6224.06,0.01752
6200.92,0.02005
6177.77,0.02116
6154.63,0.02264
6131.48,0.01920
6108.34,0.02098
6085.19,0.01920
6062.05,0.02031
6038.9,0.02104
6015.76,0.01726
5992.61,0.01814
5969.47,0.01866
5946.32,0.02054
5923.18,0.01982
5900.03,0.01970
5876.89,0.02026
5853.74,0.01872
5830.6,0.01877
5807.45,0.01905
5784.31,0.01686
5761.16,0.01746
5738.02,0.01928
5714.87,0.02101
5691.73,0.02005
5668.58,0.02008
5645.44,0.02069
5622.29,0.01910
5599.15,0.01794
5576,0.01696
5552.86,0.01927
5529.71,0.01906
5506.57,0.02000
5483.42,0.01960
5460.28,0.01835
5437.13,0.01814
5413.99,0.01908
5390.84,0.01848
5367.7,0.01920
5344.55,0.02006
5321.41,0.01852
5298.26,0.01959
5275.12,0.01818
5251.97,0.02024
5228.83,0.02035
5205.68,0.01831
5182.54,0.01876
5159.39,0.01760
5136.25,0.01960
5113.1,0.02028
5089.96,0.01895
5066.81,0.01942
5043.67,0.01879
5020.52,0.02075
4997.38,0.01895
4974.23,0.01775
4951.09,0.01915
4927.94,0.01884
4904.8,0.01850
4881.65,0.01960
4858.51,0.01997
4835.36,0.01970
4812.22,0.01935
4789.07,0.01993
4765.93,0.01899
4742.78,0.02002
4719.64,0.01927
4696.49,0.01928
4673.35,0.02002
4650.2,0.01992
4627.06,0.02033
4603.92,0.01936
4580.77,0.01969
4557.63,0.01976
4534.48,0.02011
4511.34,0.01917
4488.19,0.01898
4465.05,0.01912
4441.9,0.01970
4418.76,0.01988
4395.61,0.01952
4372.47,0.01936
4349.32,0.01981
4326.18,0.01997
4303.03,0.01947
4279.89,0.02031
4256.74,0.01987
4233.6,0.01985
4210.45,0.02023
4187.31,0.01997
4164.16,0.01996
4141.02,0.01983
4117.87,0.02034
4094.73,0.02040
4071.58,0.01948
4048.44,0.02004
4025.29,0.01990
4002.15,0.01988
3979,0.02092
3955.86,0.02086
3932.71,0.01994
3909.57,0.01957
3886.42,0.01949
3863.28,0.01973
3840.13,0.02010
3816.99,0.02047
3793.84,0.02018
3770.7,0.01970
3747.55,0.02046
3724.41,0.01955
3701.26,0.02026
3678.12,0.01931
3654.97,0.02007
3631.83,0.01918
3608.68,0.01900
3585.54,0.01935
3562.39,0.01902
3539.25,0.01847
3516.1,0.01796
3492.96,0.01821
3469.81,0.01739
3446.67,0.01774
3423.52,0.01824
3400.38,0.01729
3377.23,0.01801
3354.09,0.01722
3330.94,0.01809
3307.8,0.01767
3284.65,0.01814
3261.51,0.01714
3238.36,0.01773
3215.22,0.01796
3192.07,0.01847
3168.93,0.01799
3145.78,0.01779
3122.64,0.01818
3099.49,0.01829
3076.35,0.01855
3053.2,0.01786
3030.06,0.01811
3006.91,0.01770
2983.77,0.01718
2960.62,0.01701
2937.48,0.01660
2914.33,0.01752
2891.19,0.01792
2868.04,0.01822
2844.9,0.01851
2821.75,0.01827
2798.61,0.01853
2775.46,0.01893
2752.32,0.01841
2729.17,0.01891
2706.03,0.01859
2682.88,0.01842
2659.74,0.01855
2636.59,0.01849
2613.45,0.01822
2590.3,0.01866
2567.16,0.01904
2544.02,0.01856
2520.87,0.01854
2497.73,0.01867
2474.58,0.01857
2451.44,0.01835
2428.29,0.01851
2405.15,0.01869
2382,0.01839
2358.86,0.01880
2335.71,0.01869
2312.57,0.01838
2289.42,0.01848
2266.28,0.01908
2243.13,0.01862
2219.99,0.01836
2196.84,0.01831
2173.7,0.01850
2150.55,0.01830
2127.41,0.01857
2104.26,0.01854
2081.12,0.01801
2057.97,0.01829
2034.83,0.01843
2011.68,0.01807
1988.54,0.01823
1965.39,0.01826
1942.25,0.01786
1919.1,0.01807
1895.96,0.01803
1872.81,0.01797
1849.67,0.01782
1826.52,0.01758
1803.38,0.01707
1780.23,0.01617
1757.09,0.01500
1733.94,0.01690
1710.8,0.01827
1687.65,0.01667
1664.51,0.01549
1641.36,0.01617
1618.22,0.01664
1595.07,0.01653
1571.93,0.01566
1548.78,0.01588
1525.64,0.01638
1502.49,0.01595
1479.35,0.01566
1456.2,0.01575
1433.06,0.01596
1409.91,0.01586
1386.77,0.01543
1363.62,0.01565
1340.48,0.01528
1317.33,0.01450
1294.19,0.01559
1271.04,0.01656
1247.9,0.01717
1224.75,0.01654
1201.61,0.01578
1178.46,0.01508
1155.32,0.01492
1132.17,0.01549
1109.03,0.01595
1085.88,0.01557
1062.74,0.01671
1039.59,0.01746
1016.45,0.01690
993.304,0.01810
970.159,0.01775
947.014,0.01683
923.869,0.01660
900.724,0.01635
877.579,0.01641
854.434,0.01610
831.289,0.01698
808.144,0.01621
784.999,0.01592
761.854,0.01540
738.709,0.01495
715.565,0.01472
692.42,0.01525
669.275,0.01415
646.13,0.01216
622.985,0.01273
599.84,0.01222