File: 01_Data/HDPE/Cone/HDPE_HRRPUA_25.csv
Time after Ignition,HDPE_R1,HDPE_R2,HDPE_R3,HDPE_R4,HDPE_R5,HDPE_R6,Mean,Std. Dev.
0.0,37.9,85.0,8.4,73.2,8.1,4.8,36.2,35.5
1.0,45.5,90.8,10.2,77.5,9.2,6.6,40.0,37.3
2.0,52.5,98.2,12.4,80.2,10.5,9.2,43.8,39.1
3.0,58.7,105.8,14.1,82.7,12.7,12.7,47.8,40.7
4.0,63.3,111.2,15.5,84.8,16.1,16.6,51.3,41.4
5.0,66.8,119.0,17.2,87.6,20.3,21.5,55.4,42.6
6.0,72.8,127.0,19.1,90.7,25.0,25.7,60.0,44.0
7.0,75.7,133.5,21.8,94.5,28.6,28.9,63.8,45.1
8.0,84.1,141.8,24.1,100.1,31.6,32.0,69.0,47.5
9.0,88.9,153.7,26.5,108.2,34.2,34.8,74.4,51.2
10.0,96.0,159.6,29.1,114.2,37.2,37.3,78.9,52.9
11.0,102.2,172.9,32.2,117.7,39.2,40.0,84.0,56.5
12.0,107.0,183.8,35.5,120.5,42.0,42.0,88.5,59.3
13.0,112.1,194.0,41.4,125.7,45.6,44.2,93.8,61.5
14.0,118.1,205.3,50.4,130.3,50.8,46.1,100.2,63.4
15.0,127.0,214.7,62.7,135.2,56.7,49.0,107.5,64.3
16.0,131.6,223.1,74.8,137.1,61.7,50.6,113.1,64.9
17.0,136.9,234.4,84.9,142.6,66.6,54.4,120.0,66.7
18.0,145.8,242.8,94.1,147.6,71.5,56.9,126.4,68.2
19.0,150.7,260.0,102.3,150.6,76.9,60.5,133.5,72.2
20.0,158.6,270.8,109.7,153.8,82.2,64.7,140.0,74.3
21.0,171.4,284.8,118.1,159.5,85.0,67.5,147.7,78.4
22.0,181.4,291.2,125.0,161.6,88.7,70.5,153.1,79.7
23.0,189.5,309.8,133.9,172.5,91.3,74.4,161.9,85.0
24.0,195.0,317.7,139.7,170.9,95.0,79.1,166.2,86.2
25.0,203.1,325.2,143.5,176.0,100.2,82.3,171.7,87.7
26.0,211.6,342.1,145.9,183.2,103.3,87.4,178.9,92.6
27.0,218.1,352.1,152.9,185.6,107.2,92.8,184.8,94.4
28.0,227.5,364.1,154.9,189.1,112.1,98.4,191.0,97.4
29.0,229.6,389.8,158.1,196.3,118.0,103.8,199.3,104.5
30.0,234.6,416.4,163.4,205.5,120.2,107.7,208.0,113.0
31.0,248.3,427.3,170.2,209.7,122.3,112.8,215.1,116.0
32.0,257.7,428.0,172.2,217.7,126.3,117.1,219.8,115.2
33.0,267.0,446.8,173.2,221.5,128.2,125.5,227.0,120.8
34.0,280.5,459.4,180.9,229.7,132.3,123.9,234.5,125.1
35.0,298.1,478.4,185.9,234.7,137.9,129.5,244.1,130.9
36.0,310.4,481.7,189.8,246.2,142.2,130.3,250.1,131.9
37.0,323.3,507.4,194.6,250.6,146.2,132.1,259.0,140.6
38.0,335.6,509.1,202.0,257.0,154.3,137.0,265.8,139.4
39.0,342.2,509.9,204.7,257.9,161.5,137.1,268.9,139.0
40.0,351.6,526.0,213.9,268.1,172.9,143.9,279.4,141.5
41.0,369.6,541.2,217.9,274.2,182.9,145.2,288.5,146.5
42.0,394.2,558.7,225.0,280.4,186.6,149.0,299.0,153.3
43.0,392.5,568.5,241.0,292.3,198.8,151.9,307.5,152.3
44.0,393.7,566.0,246.8,296.6,204.6,155.9,310.6,149.4
45.0,413.8,587.9,259.7,305.5,211.4,157.9,322.7,156.5
46.0,420.1,578.3,266.0,323.1,223.5,163.2,329.0,150.4
47.0,440.5,586.6,278.1,324.9,234.1,163.5,337.9,153.2
48.0,440.9,583.9,290.3,331.8,242.8,169.6,343.2,148.8
49.0,456.8,583.9,297.9,350.9,253.0,172.2,352.4,148.2
50.0,464.2,630.6,311.3,370.3,257.1,175.4,368.2,161.8
51.0,476.8,649.0,326.7,379.4,264.8,178.2,379.1,166.5
52.0,474.4,666.8,333.4,389.6,275.0,183.5,387.1,168.9
53.0,503.6,661.1,347.7,394.8,278.6,187.7,395.6,168.1
54.0,491.0,664.5,365.7,398.6,290.5,191.5,400.3,164.2
55.0,500.8,660.9,370.5,405.9,295.0,197.2,405.1,162.0
56.0,513.9,699.7,378.8,428.9,302.8,200.9,420.8,173.5
57.0,532.9,685.4,402.4,430.9,310.4,207.4,428.3,167.6
58.0,538.4,714.1,414.0,444.0,308.5,211.9,438.5,176.0
59.0,558.7,724.8,420.7,446.2,312.1,218.2,446.8,179.4
60.0,559.0,728.6,428.5,449.9,317.3,223.0,451.1,178.4
61.0,564.1,766.2,442.2,454.9,323.6,226.5,462.9,188.7
62.0,578.8,745.7,454.5,465.7,325.8,236.0,467.8,180.9
63.0,570.2,740.3,474.9,470.7,336.5,247.9,473.4,173.3
64.0,585.8,733.5,469.6,485.3,339.7,245.7,476.6,173.3
65.0,621.4,771.2,483.9,481.1,347.7,258.3,493.9,184.6
66.0,605.1,756.1,499.4,492.0,343.7,255.9,492.0,179.1
67.0,633.3,745.8,511.7,500.5,351.3,266.9,501.6,175.9
68.0,630.6,745.7,501.2,515.5,354.6,270.1,502.9,174.1
69.0,646.4,749.4,508.8,511.0,357.2,276.5,508.2,175.4
70.0,645.7,787.0,531.1,516.4,361.9,280.7,520.5,184.1
71.0,611.8,742.6,529.2,525.5,364.9,277.9,508.7,167.3
72.0,647.0,767.7,547.5,545.2,367.9,281.9,526.2,178.0
73.0,668.5,795.5,561.4,537.1,372.1,286.2,536.8,187.0
74.0,649.1,778.2,563.2,547.9,374.9,284.4,533.0,179.7
75.0,679.4,791.5,587.1,547.4,380.2,296.0,546.9,184.2
76.0,675.4,810.2,593.8,563.0,376.4,305.8,554.1,187.2
77.0,707.6,819.5,593.2,564.0,381.5,307.2,562.2,192.8
78.0,700.0,813.4,606.0,561.7,386.5,325.6,565.5,184.8
79.0,685.3,868.7,604.2,575.7,387.5,328.4,575.0,197.6
80.0,694.8,830.0,626.7,583.3,392.4,334.9,577.0,186.1
81.0,694.2,899.0,617.8,580.6,393.9,334.5,586.7,205.4
82.0,758.0,880.4,615.3,610.8,393.2,347.8,600.9,205.1
83.0,754.3,891.7,633.2,599.0,394.8,352.5,604.3,206.5
84.0,740.8,860.1,646.1,600.4,400.5,363.8,601.9,192.4
85.0,760.0,891.0,644.9,604.9,399.5,376.5,612.8,200.7
86.0,775.4,922.4,656.8,603.5,400.0,380.7,623.1,211.1
87.0,736.6,1029.5,659.0,608.2,407.3,384.6,637.5,237.4
88.0,765.0,1015.5,664.0,629.3,399.6,385.8,643.2,236.5
89.0,783.4,999.1,656.6,628.0,408.2,398.8,645.7,228.8
90.0,783.9,1013.7,654.0,620.3,411.1,402.4,647.6,232.2
91.0,778.1,1056.6,668.0,628.7,413.4,413.3,659.7,242.5
92.0,786.3,1082.3,672.6,648.6,417.1,427.7,672.4,247.6
93.0,793.1,1088.2,685.5,634.5,410.7,409.0,670.2,255.7
94.0,806.2,1177.3,672.4,661.0,423.0,418.4,693.1,281.8
95.0,837.2,1221.0,682.3,673.9,415.4,429.8,709.9,298.2
96.0,853.7,1189.5,697.0,666.7,427.7,424.0,709.8,287.8
97.0,837.8,1135.6,697.2,694.7,428.2,435.0,704.8,265.6
98.0,828.7,1369.6,700.2,700.9,429.9,437.6,744.5,344.9
99.0,851.8,1327.4,708.5,694.1,432.2,444.4,743.1,329.5
100.0,871.0,1341.4,713.0,683.9,447.3,447.2,750.6,332.7
101.0,866.0,1391.2,719.0,697.9,434.7,445.4,759.0,352.1
102.0,920.3,1230.9,733.8,731.7,449.1,456.0,753.6,295.9
103.0,974.8,1351.7,743.9,715.0,453.9,457.3,782.8,340.8
104.0,875.9,1350.4,743.5,708.7,448.0,462.3,764.8,331.9
105.0,1010.0,1332.7,752.8,740.9,445.1,465.9,791.2,337.9
106.0,981.7,1445.5,745.4,729.2,456.3,464.7,803.8,371.0
107.0,1026.8,1379.9,778.0,749.5,468.8,470.4,812.2,348.8
108.0,964.2,1406.2,784.6,717.9,462.1,476.1,801.8,352.3
109.0,1064.8,1364.3,808.9,733.0,465.9,470.0,817.8,349.8
110.0,970.0,1243.6,786.9,729.8,469.0,470.1,778.2,298.8
111.0,1054.4,1369.1,809.6,751.6,480.9,472.5,823.0,345.5
112.0,996.0,1404.0,801.3,762.8,491.1,480.0,822.6,346.2
113.0,1024.8,1388.2,832.5,784.0,484.9,486.4,833.5,343.2
114.0,1117.4,1311.8,832.0,755.8,493.1,494.4,834.1,330.6
115.0,1110.2,1306.7,836.8,788.7,501.0,513.1,842.8,321.0
116.0,1145.6,1300.3,846.1,786.7,494.8,501.8,845.9,329.1
117.0,1247.0,1209.1,841.9,781.3,521.9,501.0,850.3,322.7
118.0,1181.8,1195.6,877.1,797.9,525.1,515.2,848.8,300.2
119.0,1190.6,1245.1,872.8,801.3,521.1,528.9,860.0,311.7
120.0,1126.7,1167.1,836.3,780.2,537.1,532.0,829.9,275.3
121.0,1121.9,1093.2,885.8,783.4,528.0,524.7,822.8,262.2
122.0,1151.3,1071.8,858.1,779.8,536.5,537.7,822.6,259.3
123.0,1271.2,988.7,874.8,814.3,542.3,527.5,836.5,281.5
124.0,1196.1,911.9,885.8,808.6,542.4,531.2,812.7,250.8
125.0,1254.3,838.8,911.4,832.5,551.5,532.8,820.2,265.3
126.0,1283.5,734.5,911.9,862.4,544.9,546.1,813.9,276.7
127.0,1230.2,635.6,876.3,821.8,572.1,540.5,779.4,258.9
128.0,1309.7,552.2,930.1,861.1,579.9,546.2,796.6,301.5
129.0,1378.8,476.2,934.8,811.2,578.4,547.2,787.8,337.7
130.0,1479.0,416.4,910.0,839.3,568.2,551.2,794.0,384.0
131.0,1337.7,372.0,932.1,842.3,575.2,544.8,767.4,346.6
132.0,1490.7,328.7,986.6,858.4,574.1,567.1,800.9,410.5
133.0,1409.3,285.5,991.8,861.5,595.8,561.6,784.2,393.3
134.0,1342.5,,1004.8,846.0,583.7,560.1,867.4,324.0
135.0,1459.1,,956.0,859.1,587.2,577.7,887.8,360.0
136.0,1567.7,,1030.5,860.2,617.9,578.2,930.9,400.9
137.0,1532.4,,1045.8,890.5,592.5,589.7,930.2,389.8
138.0,1429.8,,1016.0,874.9,607.3,575.1,900.6,348.6
139.0,1432.1,,979.0,889.3,584.5,582.9,893.6,349.8
140.0,1383.0,,979.2,885.0,613.5,606.7,893.5,319.2
141.0,1502.7,,1061.3,872.4,641.0,587.0,932.9,370.7
142.0,1543.7,,1046.4,910.1,632.4,580.6,942.6,387.4
143.0,1447.5,,1102.5,956.2,632.3,617.0,951.1,347.3
144.0,1395.8,,1080.5,901.5,628.8,600.3,921.4,331.5
145.0,1391.5,,1106.8,870.2,657.1,606.2,926.3,326.8
146.0,1357.8,,1114.3,907.7,651.5,597.3,925.7,318.4
147.0,1407.4,,1148.8,902.1,624.3,603.6,937.2,345.1
148.0,1414.5,,1096.6,937.8,653.1,617.2,943.8,330.2
149.0,1268.1,,1115.6,942.3,655.2,609.5,918.1,285.7
150.0,1310.6,,1149.8,918.1,654.0,628.3,932.2,300.2
151.0,1188.7,,1160.9,942.8,665.2,622.0,915.9,266.6
152.0,1181.0,,1082.1,949.4,685.0,627.4,905.0,242.4
153.0,1148.0,,1142.3,934.7,685.2,650.3,912.1,239.4
154.0,1188.1,,1149.2,929.3,686.9,619.6,914.6,259.3
155.0,1153.9,,1143.0,998.9,684.7,645.2,925.1,245.7
156.0,1119.0,,1216.8,1042.6,681.7,644.6,941.0,261.3
157.0,1102.1,,1186.3,965.1,708.7,644.2,921.3,238.1
158.0,1016.2,,1198.6,971.3,678.6,656.7,904.3,232.3
159.0,977.4,,1213.9,959.8,709.0,658.8,903.8,225.1
160.0,910.5,,1264.2,1005.1,697.7,659.8,907.5,246.0
161.0,895.2,,1160.0,1036.1,733.8,677.0,900.4,202.2
162.0,837.6,,1300.6,1006.1,710.4,685.4,908.0,253.6
163.0,771.5,,1235.5,1008.6,714.9,653.5,876.8,241.5
164.0,751.5,,1246.8,1013.7,751.4,679.4,888.5,237.4
165.0,677.1,,1298.8,1106.0,760.8,682.1,905.0,281.9
166.0,629.2,,1281.4,1006.8,714.3,682.0,862.7,276.3
167.0,569.5,,1387.3,1104.1,749.4,685.8,899.2,338.0
168.0,501.1,,1274.3,1002.7,742.2,676.8,839.4,302.5
169.0,444.2,,1339.2,1005.6,734.0,689.8,842.6,341.7
170.0,392.3,,1329.4,988.6,739.7,695.5,829.1,350.9
171.0,347.8,,1413.8,1043.5,719.0,684.1,841.6,403.7
172.0,303.3,,1315.4,1029.5,741.0,704.1,818.7,379.5
173.0,267.1,,1317.9,1010.1,732.5,702.5,806.0,390.6
174.0,240.0,,1331.3,1070.6,719.2,711.8,814.6,413.0
175.0,212.3,,1288.3,1026.6,756.5,747.5,806.2,399.9
176.0,191.5,,1394.0,1026.4,790.9,703.8,821.3,442.0
177.0,181.4,,1394.8,1026.6,749.1,711.0,812.6,446.5
178.0,170.5,,1413.7,1033.9,761.7,728.0,821.6,456.1
179.0,163.3,,1384.0,1029.5,790.9,709.3,815.4,449.0
179.5,160.2,,1353.9,1032.8,802.0,761.5,822.1,438.6