File: 01_Data/HDPE/Cone/HDPE_HRRPUA_50.csv
Time after Ignition,HDPE_R1,HDPE_R3,HDPE_R2,HDPE_R4,Mean,Std. Dev.
0.0,9.3,10.8,17.9,24.8,15.7,7.1
0.5,13.2,14.3,21.7,29.2,19.6,7.4
1.0,17.8,17.0,25.2,34.3,23.6,8.0
1.5,23.2,20.9,28.4,39.5,28.0,8.3
2.0,29.0,24.1,31.6,45.7,32.6,9.3
2.5,34.2,27.8,34.6,50.6,36.8,9.7
3.0,38.5,31.2,38.0,56.2,41.0,10.7
3.5,43.9,33.7,40.6,61.2,44.8,11.7
4.0,49.6,37.2,43.5,65.2,48.9,12.0
4.5,54.6,41.5,46.8,70.1,53.3,12.5
5.0,59.2,45.0,50.8,74.5,57.4,12.8
5.5,63.9,48.8,55.6,78.8,61.8,12.9
6.0,71.1,51.6,58.8,84.8,66.6,14.6
6.5,74.3,55.4,64.3,89.5,70.9,14.6
7.0,81.2,59.2,67.5,94.2,75.5,15.4
7.5,85.0,63.0,73.7,101.7,80.8,16.6
8.0,90.0,67.5,79.7,108.1,86.3,17.2
8.5,95.1,73.5,86.0,114.3,92.2,17.2
9.0,100.1,78.9,91.8,122.5,98.3,18.3
9.5,105.7,80.3,97.7,127.8,102.9,19.7
10.0,110.7,86.5,104.0,131.3,108.1,18.5
10.5,116.3,89.5,111.0,138.1,113.7,20.0
11.0,121.2,96.7,115.7,143.6,119.3,19.3
11.5,126.7,101.3,123.8,152.8,126.2,21.1
12.0,131.2,109.2,129.9,158.2,132.1,20.1
12.5,137.5,115.9,137.6,163.8,138.7,19.6
13.0,146.5,119.7,143.6,169.7,144.9,20.4
13.5,151.9,125.1,154.6,177.1,152.2,21.3
14.0,160.5,131.3,161.7,184.3,159.5,21.7
14.5,175.0,142.1,172.6,186.2,169.0,18.9
15.0,180.1,146.5,182.7,195.4,176.2,20.9
15.5,186.8,156.0,191.9,204.2,184.7,20.5
16.0,198.4,162.8,201.8,206.0,192.2,19.9
16.5,215.3,171.5,212.9,212.0,202.9,21.0
17.0,216.0,177.5,217.7,219.9,207.8,20.2
17.5,231.2,186.9,225.2,228.5,217.9,20.9
18.0,235.3,192.9,237.5,235.4,225.3,21.6
18.5,241.3,195.9,246.6,241.2,231.2,23.7
19.0,252.0,205.3,253.4,252.3,240.7,23.6
19.5,260.6,210.4,263.2,249.6,245.9,24.4
20.0,264.2,219.8,275.9,263.5,255.9,24.7
20.5,274.9,230.0,290.1,273.3,267.1,25.8
21.0,286.7,238.8,299.3,284.8,277.4,26.5
21.5,290.8,245.3,312.5,291.0,284.9,28.3
22.0,300.8,251.7,324.3,299.1,294.0,30.5
22.5,320.6,260.3,333.9,308.2,305.8,32.1
23.0,325.8,270.9,338.6,320.8,314.0,29.7
23.5,330.5,276.2,335.5,329.3,317.9,27.9
24.0,336.8,286.3,357.7,327.2,327.0,30.0
24.5,338.5,291.0,353.6,336.2,329.8,27.0
25.0,372.0,304.9,373.8,342.0,348.2,32.3
25.5,362.6,294.9,381.9,353.0,348.1,37.5
26.0,372.8,313.1,389.5,355.4,357.7,32.8
26.5,390.5,320.1,384.4,367.1,365.5,31.8
27.0,407.9,319.7,391.3,364.3,370.8,38.5
27.5,420.6,332.6,399.6,370.9,380.9,38.1
28.0,428.7,335.8,412.0,379.5,389.0,40.9
28.5,441.8,358.7,410.4,401.9,403.2,34.3
29.0,445.8,349.6,419.0,399.7,403.5,40.6
29.5,474.6,374.1,429.1,409.9,421.9,41.9
30.0,495.1,384.3,440.8,420.0,435.0,46.3
30.5,497.7,386.7,458.8,425.2,442.1,47.3
31.0,491.7,396.8,454.2,415.7,439.6,42.2
31.5,514.3,407.8,460.6,446.4,457.3,44.1
32.0,540.9,423.8,461.8,448.6,468.8,50.6
32.5,550.9,415.5,472.7,453.1,473.1,57.1
33.0,560.6,430.7,490.1,476.0,489.4,53.8
33.5,561.7,438.7,477.8,468.8,486.8,52.7
34.0,594.4,450.8,490.0,485.3,505.1,62.0
34.5,585.7,465.5,509.3,504.7,516.3,50.3
35.0,628.5,470.0,511.7,491.5,525.4,70.8
35.5,659.2,468.1,511.9,514.8,538.5,83.2
36.0,677.9,482.6,525.9,516.5,550.7,86.8
36.5,692.4,501.4,526.7,528.8,562.3,87.6
37.0,690.9,496.6,538.8,542.8,567.3,85.0
37.5,728.4,524.0,541.9,536.0,582.6,97.5
38.0,735.3,523.8,549.1,546.8,588.8,98.4
38.5,744.9,539.0,558.9,548.8,597.9,98.3
39.0,780.1,531.5,552.6,570.9,608.8,115.3
39.5,809.9,546.5,566.1,577.1,624.9,124.0
40.0,816.4,556.8,580.7,584.4,634.6,121.8
40.5,794.8,571.1,562.7,590.6,629.8,110.6
41.0,825.0,559.5,574.7,600.4,639.9,124.6
41.5,833.5,582.9,575.2,588.6,645.1,125.8
42.0,811.0,578.3,575.4,610.8,643.9,112.6
42.5,875.0,595.7,587.6,612.3,667.6,138.6
43.0,838.8,599.9,591.0,643.1,668.2,116.0
43.5,894.6,616.1,587.3,621.8,679.9,143.9
44.0,926.4,649.5,600.9,648.0,706.2,148.5
44.5,954.4,630.4,593.5,655.7,708.5,165.9
45.0,951.7,661.3,626.9,661.9,725.5,151.7
45.5,958.7,632.6,633.5,679.9,726.2,156.6
46.0,992.0,671.6,653.0,674.8,747.9,163.1
46.5,1016.0,642.6,658.2,700.6,754.4,176.1
47.0,1036.0,655.3,650.0,725.9,766.8,182.8
47.5,968.3,686.4,657.5,707.2,754.8,143.8
48.0,999.3,676.4,671.2,752.4,774.8,154.2
48.5,974.6,699.8,665.0,716.3,763.9,142.1
49.0,1060.4,699.3,707.9,790.0,814.4,169.0
49.5,987.5,704.2,703.7,777.3,793.2,134.1
50.0,993.7,722.8,688.7,785.2,797.6,136.7
50.5,1109.5,784.2,721.6,808.3,855.9,173.0
51.0,1076.6,762.5,710.4,847.3,849.2,161.8
51.5,1109.5,756.2,744.5,861.4,867.9,169.4
52.0,1032.9,741.5,767.5,886.1,857.0,133.1
52.5,1136.2,780.4,784.3,860.3,890.3,168.0
53.0,1075.3,797.5,754.7,912.6,885.0,143.3
53.5,1105.6,812.6,789.0,919.2,906.6,144.2
54.0,1162.2,794.1,798.8,859.4,903.6,174.9
54.5,1150.8,810.3,839.7,919.4,930.0,154.2
55.0,1209.4,835.4,825.3,925.4,948.9,179.4
55.5,1178.2,815.6,856.7,970.9,955.4,162.5
56.0,1229.9,796.3,858.3,979.7,966.0,191.7
56.5,1113.4,808.3,921.8,934.4,944.5,126.1
57.0,1127.6,811.5,904.7,963.7,951.9,132.9
57.5,1270.8,905.1,958.9,986.8,1030.4,163.9
58.0,1192.9,893.1,913.3,1039.8,1009.8,138.2
58.5,1110.0,899.0,952.7,1027.7,997.4,91.8
59.0,1234.1,919.1,977.1,1033.6,1041.0,137.0
59.5,1218.6,853.1,990.1,1035.8,1024.4,151.0
60.0,1260.9,912.8,964.1,978.4,1029.0,157.1
60.5,1314.4,909.4,1016.6,1023.7,1066.0,173.6
61.0,1292.5,894.1,1037.5,961.9,1046.5,174.1
61.5,1275.9,993.3,1020.9,1041.5,1082.9,130.2
62.0,1390.1,936.2,1048.7,1056.2,1107.8,196.1
62.5,1306.6,913.5,1101.0,1039.1,1090.1,164.1
63.0,1325.0,950.3,1035.3,1107.1,1104.4,160.4
63.5,1296.0,973.5,1085.3,1068.3,1105.8,136.0
64.0,1251.4,975.0,1071.8,1172.1,1117.6,120.1
64.5,1236.4,993.7,1102.6,1074.2,1101.7,100.9
65.0,1317.0,1013.2,1168.2,1177.2,1168.9,124.1
65.5,1379.2,950.4,1096.1,1219.5,1161.3,182.2
66.0,1318.5,1017.2,1074.6,1217.6,1157.0,136.7
66.5,1333.7,1029.0,1120.8,1188.6,1168.0,128.4
67.0,1259.0,1023.1,1130.8,1252.8,1166.4,112.3
67.5,1431.6,1032.1,1197.0,1273.5,1233.6,166.1
68.0,1354.2,1052.7,1277.5,1358.5,1260.7,143.6
68.5,1281.3,1016.2,1236.5,1249.4,1195.8,121.2
69.0,1408.1,1044.1,1231.1,1313.1,1249.1,154.6
69.5,1416.4,1035.6,1286.6,1291.9,1257.6,159.7
70.0,1445.7,1118.5,1243.9,1279.4,1271.9,134.9
70.5,1363.5,1106.3,1185.0,1302.8,1239.4,115.6
71.0,1498.9,1156.7,1270.6,1375.7,1325.5,146.2
71.5,1466.3,1175.7,1229.4,1307.5,1294.7,126.5
72.0,1533.5,1093.4,1292.9,1272.6,1298.1,180.8
72.5,1567.7,1164.4,1333.3,1346.3,1352.9,165.4
73.0,1443.3,1128.8,1292.1,1344.2,1302.1,131.5
73.5,1438.1,1222.5,1268.6,1575.9,1376.3,162.2
74.0,1382.9,1122.9,1265.8,1487.0,1314.7,156.5
74.5,1566.6,1174.5,1307.9,1444.7,1373.4,169.6
75.0,1553.3,1365.2,1320.2,1583.0,1455.4,132.0
75.5,1735.8,1340.3,1301.6,1431.7,1452.4,196.7
76.0,1796.7,1214.0,1380.2,1404.6,1448.9,246.9
76.5,1700.7,1335.9,1369.9,1599.4,1501.5,177.0
77.0,1761.1,1281.6,1404.8,1383.5,1457.7,209.3
77.5,1690.5,1221.5,1351.6,1421.2,1421.2,197.7
78.0,1689.5,1298.0,1483.8,1454.3,1481.4,160.9
78.5,1475.9,1272.0,1415.3,1436.0,1399.8,88.8
79.0,1775.2,1328.1,1405.8,1427.9,1484.2,198.7
79.5,1747.2,1367.0,1457.8,1635.6,1551.9,171.5
80.0,1739.1,1330.0,1469.0,1552.4,1522.6,171.0
80.5,1747.0,1302.4,1442.3,1579.3,1517.7,190.1
81.0,1800.7,1599.7,1367.2,1720.1,1621.9,188.9
81.5,1606.1,1408.7,1467.5,1569.1,1512.9,90.8
82.0,1740.4,1261.5,1487.0,1558.6,1511.9,198.1
82.5,2323.2,1255.4,1566.8,1539.2,1671.1,456.9
83.0,1761.2,1633.8,1607.7,1680.3,1670.7,67.4
83.5,1779.4,1392.3,1453.9,1779.0,1601.1,207.1
84.0,1929.7,1410.4,1483.7,1659.2,1620.7,230.9
84.5,2417.0,1499.2,1520.5,1825.9,1815.6,427.8
85.0,2231.9,1398.9,1491.7,1646.8,1692.3,374.0
85.5,2262.0,1446.3,1651.4,1569.8,1732.4,363.0
86.0,2328.1,1494.5,1521.6,1670.8,1753.8,390.6
86.5,1894.5,1648.6,1682.0,1700.4,1731.4,110.8
87.0,1711.4,1529.1,1594.9,1914.0,1687.4,168.8
87.5,2121.0,1562.1,1583.7,1747.3,1753.5,258.6
88.0,1982.9,1459.4,1543.3,1764.2,1687.4,235.2
88.5,2038.7,1540.2,1599.3,1666.4,1711.1,224.4
89.0,2682.9,1522.7,1596.1,1685.2,1871.7,544.9
89.5,2206.2,1480.6,1693.7,1785.1,1791.4,304.5
90.0,2121.9,1854.0,1733.4,1765.3,1868.6,176.4
90.5,2133.6,1600.9,1637.5,1653.5,1756.4,252.4
91.0,2374.5,1760.3,1828.9,1832.9,1949.2,285.5
91.5,2425.2,1642.0,1704.9,1723.5,1873.9,369.2
92.0,2243.0,1621.8,1784.2,1744.2,1848.3,272.0
92.5,1836.3,1782.9,1805.0,2080.4,1876.1,137.9
93.0,2194.4,1458.8,1732.8,2024.9,1852.7,324.5
93.5,2800.6,1553.9,1799.4,1944.7,2024.7,541.9
94.0,2095.8,1761.6,1619.7,1803.0,1820.0,199.9
94.5,2474.2,1806.0,1764.3,2004.3,2012.2,325.3
95.0,2595.9,1622.1,1815.8,2038.8,2018.2,421.1
95.5,1933.7,1587.2,1779.6,1867.4,1792.0,150.4
96.0,2427.5,1541.2,1725.7,2066.6,1940.3,391.0
96.5,2580.4,1796.9,1869.7,2002.2,2062.3,355.7
97.0,2634.8,1903.6,1990.8,2121.9,2162.8,327.2
97.5,2926.2,1508.6,1928.6,1889.1,2063.1,605.7
98.0,2300.0,1580.1,1882.2,1695.3,1864.4,316.0
98.5,2798.6,1709.6,1784.6,2121.2,2103.5,496.8
99.0,2041.4,1813.3,1930.7,2339.9,2031.3,225.8
99.5,2658.8,2184.6,1841.6,2257.2,2235.5,335.4
100.0,1988.3,1683.6,1931.7,2159.6,1940.8,196.9
100.5,2235.0,1715.6,2108.3,2158.7,2054.4,231.8
101.0,2166.2,1961.0,1898.3,2128.8,2038.6,129.3
101.5,2371.8,2012.2,1886.4,2126.7,2099.3,206.5
102.0,2384.1,1950.9,2100.0,2192.1,2156.8,181.2
102.5,2183.5,2019.4,1914.9,2435.8,2138.4,227.0
103.0,2306.5,1850.6,1909.4,2322.2,2097.2,252.0
103.5,2184.8,2215.3,1881.4,2336.6,2154.5,193.5
104.0,2045.8,1917.4,2109.7,1986.5,2014.9,82.2
104.5,1910.1,2113.0,2305.8,1995.6,2081.1,171.3
105.0,2011.1,1982.8,1824.3,2224.4,2010.7,164.5
105.5,1849.9,2053.2,2011.3,2351.0,2066.4,209.0
106.0,1740.6,1777.5,2088.7,2265.6,1968.1,252.4
106.5,1686.3,1945.7,2042.4,2151.1,1956.4,198.6
107.0,1592.4,2111.5,1862.4,2309.9,1969.1,310.8
107.5,1466.1,2350.7,2276.2,2196.9,2072.5,409.1
108.0,1339.4,2241.1,2315.1,2185.1,2020.2,457.0
108.5,1258.0,2435.1,2185.9,1921.8,1950.2,506.8
109.0,1141.8,2208.6,2323.5,2007.5,1920.3,535.2
109.5,1031.0,2367.3,2169.2,2295.7,1965.8,628.6
110.0,956.7,2532.8,2231.5,2203.6,1981.2,699.0
110.5,843.8,1849.2,2444.0,2290.0,1856.8,720.8
111.0,794.7,2172.9,2380.4,1985.1,1833.3,710.9
111.5,718.9,2548.2,2309.8,1991.5,1892.1,814.7
112.0,652.0,2435.0,2403.4,2193.1,1920.9,852.7
112.5,601.9,2270.9,2343.1,2142.4,1839.6,829.3