File: 01_Data/HIPS/MCC/HIPS_MCC_30K_min_211021_R2.txt
Sample ID:	C:\MCC\MCC Cal\Test\PlasticB_MCC_30K_min_211021_R2.txt
Sample Weight (mg):	4.3
Heating Rate (C/s):	0.5
Combustor Temp (C):	900
N2 Flow Rate (cc/min):	80
O2 Flow Rate (cc/min):	20
Calibration File:	C:\MCC\MCC Cal\Coeff1 JN10440_30_210304.txt.txt
T Correction Coefficients:	0	1.024463	0
Time Shift (s):	14
*
Time (s)	Temperature (C)	N2 flow rate (cc/min)	O2 flow rate (cc/min)	Flow Rate (cc/min)	Oxygen (%)	HRR (W/g)	Heating rate (C/s)
0.001	107.657	80.001	19.997	103.057	20.170	-0.435	-0.011
8.001	107.656	80.005	19.995	103.065	20.167	-0.209	-0.016
16.001	107.681	80.001	19.996	103.092	20.165	0.008	0.002
24.000	107.859	80.003	19.996	103.154	20.148	1.273	0.005
32.000	108.382	80.004	19.996	103.254	20.138	1.979	0.054
40.002	109.256	80.001	19.996	103.233	20.134	2.278	0.146
48.000	110.591	80.001	19.996	103.276	20.124	3.024	0.193
56.001	112.347	80.001	19.996	103.281	20.121	3.245	0.226
64.001	114.409	80.002	19.996	103.292	20.119	3.395	0.299
72.000	116.740	80.001	19.996	103.296	20.119	3.420	0.293
80.001	119.392	80.001	19.996	103.303	20.119	3.420	0.311
88.000	122.299	80.002	19.995	103.310	20.113	3.858	0.346
96.000	125.444	80.002	19.995	103.311	20.113	3.837	0.405
104.001	128.761	80.003	19.995	103.311	20.113	3.849	0.449
112.001	132.229	80.004	19.995	103.315	20.117	3.604	0.450
120.001	135.831	80.004	19.996	103.309	20.117	3.563	0.471
128.001	139.568	80.001	19.997	103.316	20.115	3.756	0.510
136.000	143.377	80.001	19.995	103.310	20.116	3.640	0.501
144.001	147.259	80.001	19.997	103.309	20.117	3.554	0.475
152.002	151.233	80.002	19.997	103.300	20.118	3.475	0.501
160.002	155.192	80.001	19.995	103.292	20.118	3.487	0.473
168.001	159.212	80.003	19.997	103.276	20.119	3.394	0.507
176.001	163.164	80.005	19.995	103.292	20.119	3.441	0.495
184.001	167.259	80.002	19.995	103.278	20.116	3.613	0.507
192.002	171.178	80.003	19.995	103.273	20.122	3.217	0.514
200.001	175.161	80.005	19.995	103.274	20.119	3.451	0.500
208.000	179.088	80.001	19.996	103.260	20.124	3.065	0.493
216.000	183.027	80.002	19.997	103.248	20.121	3.285	0.487
224.000	187.007	80.003	19.996	103.252	20.124	3.017	0.480
232.000	190.885	80.002	19.997	103.255	20.123	3.138	0.483
240.000	194.813	80.000	19.997	103.240	20.116	3.665	0.505
248.001	198.671	80.000	19.998	103.240	20.119	3.397	0.446
256.000	202.565	80.003	19.996	103.255	20.114	3.760	0.471
264.000	206.534	80.003	19.997	103.237	20.117	3.544	0.483
272.002	210.478	80.002	19.996	103.234	20.114	3.821	0.502
280.002	214.422	80.003	19.995	103.232	20.116	3.664	0.478
288.000	218.373	80.002	19.995	103.230	20.111	4.039	0.540
296.001	222.230	80.002	19.996	103.235	20.111	3.996	0.472
304.000	226.143	80.000	19.997	103.234	20.109	4.129	0.513
312.000	230.124	80.002	19.996	103.235	20.107	4.282	0.503
320.001	234.009	80.001	19.996	103.233	20.110	4.085	0.488
328.000	238.060	80.001	19.997	103.237	20.104	4.522	0.536
336.001	242.019	80.002	19.997	103.234	20.102	4.657	0.505
344.001	245.974	80.000	19.996	103.222	20.105	4.441	0.549
352.000	249.935	80.002	19.997	103.221	20.100	4.841	0.497
360.001	253.943	80.003	19.996	103.215	20.101	4.781	0.517
368.000	257.945	80.004	19.995	103.218	20.098	5.018	0.568
376.001	261.881	80.001	19.995	103.227	20.097	5.088	0.495
384.000	265.865	80.001	19.995	103.223	20.100	4.858	0.488
392.000	269.890	80.002	19.997	103.232	20.098	5.004	0.507
400.001	273.936	80.002	19.997	103.212	20.092	5.454	0.497
408.002	277.975	80.000	19.996	103.206	20.093	5.328	0.514
416.000	282.045	80.002	19.996	103.206	20.088	5.715	0.472
424.001	286.080	80.006	19.996	103.210	20.090	5.584	0.518
432.000	290.111	80.002	19.997	103.208	20.087	5.846	0.498
440.001	294.203	80.002	19.997	103.195	20.084	6.040	0.496
448.002	298.233	80.006	19.995	103.193	20.075	6.720	0.522
456.000	302.237	80.003	19.995	103.193	20.072	6.958	0.470
464.002	306.313	80.000	19.996	103.197	20.072	6.958	0.513
472.000	310.362	80.003	19.995	103.192	20.079	6.436	0.501
480.000	314.487	80.004	19.995	103.194	20.082	6.164	0.510
488.001	318.504	80.002	19.996	103.198	20.085	5.965	0.482
496.001	322.518	79.999	19.997	103.194	20.089	5.686	0.491
504.000	326.515	80.003	19.997	103.196	20.087	5.794	0.463
512.001	330.485	80.003	19.996	103.166	20.089	5.690	0.491
520.001	334.442	80.003	19.996	103.192	20.085	5.986	0.480
528.002	338.410	80.002	19.995	103.195	20.087	5.782	0.479
536.001	342.383	80.003	19.996	103.186	20.089	5.640	0.494
544.001	346.227	80.001	19.995	103.185	20.085	5.984	0.502
552.000	350.204	80.002	19.996	103.188	20.084	6.032	0.492
560.000	354.207	80.001	19.996	103.191	20.076	6.652	0.503
568.001	358.249	80.002	19.995	103.194	20.070	7.097	0.522
576.001	362.315	80.001	19.997	103.189	20.057	8.038	0.528
584.001	366.395	80.002	19.995	103.197	20.046	8.910	0.510
592.000	370.548	80.003	19.995	103.185	20.022	10.667	0.525
600.000	374.749	80.002	19.998	103.187	20.016	11.099	0.538
608.001	378.850	80.001	19.997	103.192	19.973	14.325	0.505
616.001	383.086	80.005	19.996	103.191	19.925	17.972	0.525
624.000	387.199	80.001	19.996	103.155	19.921	18.237	0.511
632.001	391.276	80.000	19.997	103.197	19.866	22.375	0.481
640.002	395.351	80.001	19.996	103.154	19.748	31.213	0.499
648.001	399.340	80.002	19.995	103.238	19.625	40.445	0.523
656.002	403.225	80.000	19.996	103.186	19.474	51.769	0.489
664.000	407.096	80.001	19.996	103.143	19.252	68.363	0.467
672.001	410.991	80.003	19.997	103.216	18.871	96.914	0.529
680.002	414.914	80.003	19.995	103.230	18.397	132.507	0.498
688.001	418.908	80.002	19.996	103.282	17.781	178.671	0.534
696.001	422.908	80.003	19.997	103.274	17.039	234.335	0.517
704.001	426.909	80.005	19.997	103.281	16.211	296.427	0.485
712.001	430.919	80.001	19.996	103.318	15.340	361.596	0.500
720.001	435.059	80.001	19.996	103.263	14.609	416.413	0.520
728.001	439.158	80.002	19.997	103.284	14.185	448.529	0.517
736.001	443.240	80.000	19.995	103.368	14.247	444.175	0.524
744.000	447.355	80.002	19.996	103.405	14.762	405.578	0.525
752.000	451.599	80.001	19.995	103.474	15.583	343.716	0.538
760.001	455.815	80.004	19.996	103.442	16.509	274.118	0.509
768.001	459.918	80.003	19.994	103.370	17.350	210.906	0.530
776.000	463.981	80.002	19.995	103.315	18.041	159.139	0.451
784.000	467.960	80.005	19.995	103.272	18.564	119.872	0.489
792.001	472.075	80.003	19.997	103.249	18.935	92.068	0.543
800.001	476.360	80.002	19.995	103.208	19.210	71.503	0.534
808.001	480.686	80.003	19.997	103.192	19.433	54.770	0.562
816.000	485.104	80.002	19.998	103.178	19.623	40.573	0.564
824.001	489.581	80.002	19.997	103.161	19.786	28.320	0.592
832.001	494.001	80.002	19.996	103.161	19.927	17.762	0.531
840.000	498.467	80.004	19.995	103.155	20.033	9.886	0.572
848.000	502.837	80.004	19.996	103.146	20.103	4.616	0.543
856.002	507.126	80.002	19.995	103.142	20.127	2.828	0.542
864.000	511.325	80.006	19.995	103.142	20.137	2.037	0.495
872.000	515.554	80.006	19.996	103.148	20.138	1.987	0.519
880.001	519.780	80.004	19.996	103.151	20.140	1.873	0.553
888.000	524.015	80.002	19.997	103.146	20.145	1.463	0.523
896.001	528.191	80.002	19.997	103.157	20.135	2.180	0.533
904.001	532.346	80.000	19.995	103.157	20.144	1.545	0.519
912.000	536.508	80.000	19.996	103.146	20.147	1.334	0.501
920.000	540.700	80.004	19.997	103.153	20.143	1.653	0.530
928.002	544.818	80.005	19.995	103.153	20.148	1.247	0.506
936.002	548.937	80.002	19.996	103.148	20.146	1.365	0.502
944.001	552.982	80.002	19.995	103.144	20.146	1.376	0.487
952.000	557.095	80.005	19.996	103.129	20.146	1.367	0.465
960.001	561.147	80.001	19.996	103.152	20.148	1.237	0.481
968.000	565.174	80.002	19.996	103.132	20.143	1.647	0.485
976.001	569.233	80.001	19.997	103.133	20.149	1.181	0.486
984.000	573.330	80.002	19.997	103.129	20.148	1.216	0.545
992.001	577.408	80.000	19.995	103.144	20.148	1.245	0.506
1000.000	581.481	80.004	19.997	103.126	20.149	1.166	0.515
1008.001	585.447	80.000	19.996	103.125	20.148	1.278	0.449
1016.001	589.440	80.002	19.997	103.119	20.152	0.959	0.505
1024.000	593.374	80.006	19.996	103.124	20.149	1.199	0.477
1032.002	597.304	80.005	19.996	103.125	20.152	0.978	0.453
1040.000	601.178	80.004	19.996	103.129	20.147	1.309	0.505
1048.001	605.095	80.003	19.996	103.139	20.151	1.050	0.498
1056.001	608.989	80.002	19.996	103.145	20.154	0.781	0.494
1064.001	612.991	80.003	19.997	103.145	20.145	1.502	0.499
1072.000	616.997	80.001	19.997	103.140	20.151	1.027	0.467
1080.000	620.995	80.000	19.997	103.136	20.158	0.505	0.474
1088.001	625.079	80.003	19.996	103.121	20.156	0.655	0.543
1096.000	629.157	80.004	19.996	103.140	20.154	0.762	0.549
1104.002	633.220	80.002	19.997	103.142	20.157	0.561	0.510
1112.000	637.326	80.004	19.997	103.127	20.156	0.669	0.509
1120.002	641.395	80.006	19.995	103.145	20.154	0.798	0.464
1128.001	645.540	80.002	19.996	103.137	20.153	0.878	0.488
1136.001	649.705	80.002	19.996	103.131	20.158	0.495	0.520
1144.001	653.857	80.002	19.995	103.133	20.159	0.418	0.517
1152.002	657.966	80.004	19.996	103.143	20.155	0.684	0.511
1160.000	661.993	80.003	19.996	103.132	20.154	0.775	0.468
1168.001	666.099	80.002	19.996	103.141	20.154	0.808	0.485
1176.001	670.169	80.005	19.996	103.136	20.156	0.617	0.504
1184.001	674.176	80.002	19.995	103.134	20.159	0.421	0.508
1192.000	678.224	80.003	19.998	103.129	20.155	0.723	0.495
1200.001	682.170	80.005	19.997	103.127	20.158	0.530	0.516
1208.001	686.154	80.002	19.996	103.125	20.153	0.847	0.500
1216.000	690.088	80.002	19.996	103.140	20.151	0.990	0.473
1224.000	694.190	80.003	19.996	103.142	20.157	0.586	0.495
1232.001	698.241	80.003	19.996	103.121	20.151	1.003	0.504
1240.002	702.262	80.002	19.996	103.128	20.153	0.847	0.495
1248.001	706.242	80.002	19.995	103.124	20.152	0.914	0.500
1256.000	710.128	80.004	19.995	103.128	20.157	0.593	0.472
1264.000	714.101	80.004	19.996	103.123	20.153	0.845	0.508
1272.001	718.095	80.004	19.997	103.124	20.152	0.926	0.473
1280.001	722.093	80.007	19.995	103.115	20.151	1.013	0.536
1288.002	726.143	80.003	19.996	103.123	20.153	0.847	0.516
1296.001	730.419	80.001	19.996	103.123	20.153	0.856	0.534
1304.000	734.803	80.001	19.996	103.133	20.151	0.990	0.554
1312.001	739.251	80.004	19.995	103.132	20.153	0.862	0.591
1319.000	743.098	80.002	19.996	103.126	20.155	0.708	0.561