File: 01_Data/Roof_Felt/FTIR/IS/Roof_Felt_IS_S_220829_R3.dpt
7497.03,0.17089
7473.89,0.16814
7450.74,0.17137
7427.6,0.17811
7404.45,0.17306
7381.31,0.17714
7358.16,0.17467
7335.02,0.17104
7311.87,0.17691
7288.73,0.17507
7265.58,0.17873
7242.44,0.18083
7219.29,0.17513
7196.15,0.18033
7173,0.17700
7149.86,0.17420
7126.71,0.17978
7103.57,0.18383
7080.42,0.17437
7057.28,0.17756
7034.13,0.18543
7010.99,0.18701
6987.84,0.17812
6964.7,0.18274
6941.55,0.18268
6918.41,0.18164
6895.26,0.18951
6872.12,0.18476
6848.97,0.18260
6825.83,0.18578
6802.68,0.19019
6779.54,0.18581
6756.39,0.18759
6733.25,0.19470
6710.1,0.19002
6686.96,0.19038
6663.82,0.19722
6640.67,0.18994
6617.53,0.19288
6594.38,0.19467
6571.24,0.20048
6548.09,0.19992
6524.95,0.20434
6501.8,0.20234
6478.66,0.19982
6455.51,0.20256
6432.37,0.20595
6409.22,0.20696
6386.08,0.20662
6362.93,0.20984
6339.79,0.20823
6316.64,0.21226
6293.5,0.21427
6270.35,0.21365
6247.21,0.21964
6224.06,0.21887
6200.92,0.21975
6177.77,0.22278
6154.63,0.22168
6131.48,0.22521
6108.34,0.22652
6085.19,0.22845
6062.05,0.22939
6038.9,0.22769
6015.76,0.22832
5992.61,0.22900
5969.47,0.22595
5946.32,0.22425
5923.18,0.22249
5900.03,0.21591
5876.89,0.21299
5853.74,0.21213
5830.6,0.21182
5807.45,0.20974
5784.31,0.21079
5761.16,0.21420
5738.02,0.21880
5714.87,0.21931
5691.73,0.22132
5668.58,0.21981
5645.44,0.22445
5622.29,0.22803
5599.15,0.23542
5576,0.23613
5552.86,0.23861
5529.71,0.24039
5506.57,0.24101
5483.42,0.24171
5460.28,0.24410
5437.13,0.24749
5413.99,0.24990
5390.84,0.25140
5367.7,0.25424
5344.55,0.25492
5321.41,0.25434
5298.26,0.25213
5275.12,0.24505
5251.97,0.23619
5228.83,0.22836
5205.68,0.22472
5182.54,0.22482
5159.39,0.22667
5136.25,0.23189
5113.1,0.23659
5089.96,0.23945
5066.81,0.24549
5043.67,0.24743
5020.52,0.25014
4997.38,0.25284
4974.23,0.25320
4951.09,0.25095
4927.94,0.24646
4904.8,0.24065
4881.65,0.23422
4858.51,0.22688
4835.36,0.21968
4812.22,0.21432
4789.07,0.21072
4765.93,0.21001
4742.78,0.20910
4719.64,0.21052
4696.49,0.21403
4673.35,0.21563
4650.2,0.21861
4627.06,0.22048
4603.92,0.22483
4580.77,0.22930
4557.63,0.23316
4534.48,0.23590
4511.34,0.23695
4488.19,0.23320
4465.05,0.22316
4441.9,0.20714
4418.76,0.18313
4395.61,0.16198
4372.47,0.16018
4349.32,0.14995
4326.18,0.13698
4303.03,0.14828
4279.89,0.14843
4256.74,0.14054
4233.6,0.15012
4210.45,0.15337
4187.31,0.15314
4164.16,0.15394
4141.02,0.15480
4117.87,0.15400
4094.73,0.15096
4071.58,0.14261
4048.44,0.13770
4025.29,0.13566
4002.15,0.13755
3979,0.14153
3955.86,0.14593
3932.71,0.15062
3909.57,0.15541
3886.42,0.16020
3863.28,0.16439
3840.13,0.17056
3816.99,0.17296
3793.84,0.17333
3770.7,0.17433
3747.55,0.17271
3724.41,0.16506
3701.26,0.13836
3678.12,0.12482
3654.97,0.09782
3631.83,0.08252
3608.68,0.07065
3585.54,0.06263
3562.39,0.05692
3539.25,0.05289
3516.1,0.04966
3492.96,0.04825
3469.81,0.04680
3446.67,0.04554
3423.52,0.04486
3400.38,0.04410
3377.23,0.04414
3354.09,0.04340
3330.94,0.04474
3307.8,0.04562
3284.65,0.04549
3261.51,0.04757
3238.36,0.04962
3215.22,0.05150
3192.07,0.05302
3168.93,0.05491
3145.78,0.05749
3122.64,0.05838
3099.49,0.06087
3076.35,0.06091
3053.2,0.06142
3030.06,0.06111
3006.91,0.05956
2983.77,0.05413
2960.62,0.04727
2937.48,0.04735
2914.33,0.05402
2891.19,0.05314
2868.04,0.05219
2844.9,0.05749
2821.75,0.06271
2798.61,0.06799
2775.46,0.07135
2752.32,0.07217
2729.17,0.07198
2706.03,0.07509
2682.88,0.07759
2659.74,0.07978
2636.59,0.08328
2613.45,0.08557
2590.3,0.08825
2567.16,0.09065
2544.02,0.09144
2520.87,0.09400
2497.73,0.09797
2474.58,0.10210
2451.44,0.10543
2428.29,0.10983
2405.15,0.11442
2382,0.11819
2358.86,0.12239
2335.71,0.12514
2312.57,0.12702
2289.42,0.12735
2266.28,0.12650
2243.13,0.12468
2219.99,0.12532
2196.84,0.12495
2173.7,0.12005
2150.55,0.11575
2127.41,0.11578
2104.26,0.11921
2081.12,0.12204
2057.97,0.12098
2034.83,0.12358
2011.68,0.13134
1988.54,0.13674
1965.39,0.13918
1942.25,0.14061
1919.1,0.14057
1895.96,0.13971
1872.81,0.14006
1849.67,0.13789
1826.52,0.13363
1803.38,0.12293
1780.23,0.10576
1757.09,0.07546
1733.94,0.06544
1710.8,0.06660
1687.65,0.06319
1664.51,0.05722
1641.36,0.05530
1618.22,0.05233
1595.07,0.05026
1571.93,0.05419
1548.78,0.05841
1525.64,0.05901
1502.49,0.05215
1479.35,0.04992
1456.2,0.04625
1433.06,0.04627
1409.91,0.04877
1386.77,0.04659
1363.62,0.04586
1340.48,0.04572
1317.33,0.04514
1294.19,0.04772
1271.04,0.04612
1247.9,0.04620
1224.75,0.04667
1201.61,0.04715
1178.46,0.04727
1155.32,0.04253
1132.17,0.03693
1109.03,0.03911
1085.88,0.03994
1062.74,0.05575
1039.59,0.05942
1016.45,0.06550
993.304,0.06715
970.159,0.07274
947.014,0.07900
923.869,0.07697
900.724,0.06711
877.579,0.07124
854.434,0.07079
831.289,0.06950
808.144,0.06516
784.999,0.06418
761.854,0.05977
738.709,0.05609
715.565,0.05283
692.42,0.05057
669.275,0.04994
646.13,0.04987
622.985,0.04815
599.84,0.05210