File: 01_Data/Roof_Felt/FTIR/IS/Roof_Felt_IS_S_220829_R5.dpt
7497.03,0.17191
7473.89,0.17241
7450.74,0.16628
7427.6,0.17038
7404.45,0.17334
7381.31,0.18155
7358.16,0.17682
7335.02,0.17573
7311.87,0.17913
7288.73,0.17433
7265.58,0.17314
7242.44,0.16915
7219.29,0.17214
7196.15,0.17838
7173,0.17661
7149.86,0.18412
7126.71,0.17907
7103.57,0.18056
7080.42,0.17517
7057.28,0.17947
7034.13,0.18212
7010.99,0.17662
6987.84,0.18381
6964.7,0.17779
6941.55,0.18137
6918.41,0.18012
6895.26,0.18431
6872.12,0.18480
6848.97,0.18282
6825.83,0.18545
6802.68,0.19066
6779.54,0.18860
6756.39,0.19076
6733.25,0.19128
6710.1,0.18443
6686.96,0.18922
6663.82,0.19180
6640.67,0.19274
6617.53,0.19732
6594.38,0.19706
6571.24,0.19808
6548.09,0.19787
6524.95,0.20116
6501.8,0.20148
6478.66,0.20244
6455.51,0.20347
6432.37,0.20655
6409.22,0.20450
6386.08,0.20760
6362.93,0.21108
6339.79,0.20884
6316.64,0.21124
6293.5,0.21537
6270.35,0.21764
6247.21,0.21842
6224.06,0.21984
6200.92,0.22112
6177.77,0.22097
6154.63,0.22380
6131.48,0.22391
6108.34,0.22496
6085.19,0.22819
6062.05,0.22597
6038.9,0.22799
6015.76,0.23009
5992.61,0.22709
5969.47,0.22458
5946.32,0.22450
5923.18,0.22161
5900.03,0.21788
5876.89,0.21477
5853.74,0.21545
5830.6,0.21050
5807.45,0.20714
5784.31,0.20747
5761.16,0.21514
5738.02,0.21983
5714.87,0.22152
5691.73,0.22050
5668.58,0.22019
5645.44,0.22487
5622.29,0.23093
5599.15,0.23283
5576,0.23780
5552.86,0.24082
5529.71,0.24086
5506.57,0.24267
5483.42,0.24497
5460.28,0.24539
5437.13,0.24716
5413.99,0.25204
5390.84,0.25226
5367.7,0.25638
5344.55,0.25707
5321.41,0.25446
5298.26,0.25294
5275.12,0.24631
5251.97,0.23703
5228.83,0.22937
5205.68,0.22410
5182.54,0.22653
5159.39,0.22952
5136.25,0.23360
5113.1,0.23738
5089.96,0.24277
5066.81,0.24503
5043.67,0.24961
5020.52,0.25212
4997.38,0.25434
4974.23,0.25331
4951.09,0.25105
4927.94,0.24743
4904.8,0.24056
4881.65,0.23414
4858.51,0.22667
4835.36,0.22135
4812.22,0.21550
4789.07,0.21271
4765.93,0.21004
4742.78,0.20962
4719.64,0.21204
4696.49,0.21488
4673.35,0.21728
4650.2,0.21799
4627.06,0.22183
4603.92,0.22514
4580.77,0.22957
4557.63,0.23429
4534.48,0.23675
4511.34,0.23692
4488.19,0.23395
4465.05,0.22477
4441.9,0.20817
4418.76,0.18314
4395.61,0.16227
4372.47,0.16057
4349.32,0.15060
4326.18,0.13820
4303.03,0.14883
4279.89,0.14903
4256.74,0.14146
4233.6,0.15002
4210.45,0.15322
4187.31,0.15454
4164.16,0.15467
4141.02,0.15605
4117.87,0.15438
4094.73,0.15057
4071.58,0.14252
4048.44,0.13757
4025.29,0.13613
4002.15,0.13790
3979,0.14174
3955.86,0.14587
3932.71,0.15119
3909.57,0.15627
3886.42,0.15968
3863.28,0.16534
3840.13,0.17146
3816.99,0.17285
3793.84,0.17492
3770.7,0.17520
3747.55,0.17343
3724.41,0.16645
3701.26,0.13995
3678.12,0.12568
3654.97,0.09919
3631.83,0.08381
3608.68,0.07139
3585.54,0.06248
3562.39,0.05615
3539.25,0.05333
3516.1,0.05003
3492.96,0.04786
3469.81,0.04564
3446.67,0.04539
3423.52,0.04476
3400.38,0.04467
3377.23,0.04434
3354.09,0.04407
3330.94,0.04473
3307.8,0.04573
3284.65,0.04567
3261.51,0.04779
3238.36,0.04948
3215.22,0.05126
3192.07,0.05320
3168.93,0.05547
3145.78,0.05717
3122.64,0.05910
3099.49,0.06079
3076.35,0.06134
3053.2,0.06176
3030.06,0.06149
3006.91,0.05951
2983.77,0.05444
2960.62,0.04762
2937.48,0.04775
2914.33,0.05409
2891.19,0.05314
2868.04,0.05227
2844.9,0.05734
2821.75,0.06337
2798.61,0.06829
2775.46,0.07162
2752.32,0.07315
2729.17,0.07229
2706.03,0.07519
2682.88,0.07808
2659.74,0.08064
2636.59,0.08322
2613.45,0.08577
2590.3,0.08851
2567.16,0.09094
2544.02,0.09219
2520.87,0.09356
2497.73,0.09805
2474.58,0.10283
2451.44,0.10610
2428.29,0.11037
2405.15,0.11476
2382,0.11899
2358.86,0.12253
2335.71,0.12544
2312.57,0.12732
2289.42,0.12794
2266.28,0.12727
2243.13,0.12548
2219.99,0.12633
2196.84,0.12596
2173.7,0.12037
2150.55,0.11630
2127.41,0.11639
2104.26,0.11989
2081.12,0.12253
2057.97,0.12163
2034.83,0.12409
2011.68,0.13224
1988.54,0.13767
1965.39,0.13986
1942.25,0.14109
1919.1,0.14148
1895.96,0.14076
1872.81,0.14099
1849.67,0.13875
1826.52,0.13411
1803.38,0.12329
1780.23,0.10595
1757.09,0.07591
1733.94,0.06552
1710.8,0.06682
1687.65,0.06303
1664.51,0.05748
1641.36,0.05544
1618.22,0.05252
1595.07,0.05011
1571.93,0.05468
1548.78,0.05822
1525.64,0.05901
1502.49,0.05256
1479.35,0.04995
1456.2,0.04611
1433.06,0.04644
1409.91,0.04915
1386.77,0.04661
1363.62,0.04591
1340.48,0.04531
1317.33,0.04540
1294.19,0.04770
1271.04,0.04646
1247.9,0.04575
1224.75,0.04654
1201.61,0.04778
1178.46,0.04748
1155.32,0.04293
1132.17,0.03760
1109.03,0.03991
1085.88,0.03958
1062.74,0.05507
1039.59,0.05992
1016.45,0.06609
993.304,0.06725
970.159,0.07303
947.014,0.07826
923.869,0.07765
900.724,0.06774
877.579,0.07163
854.434,0.07105
831.289,0.06893
808.144,0.06573
784.999,0.06414
761.854,0.05987
738.709,0.05545
715.565,0.05270
692.42,0.05121
669.275,0.04982
646.13,0.05042
622.985,0.04909
599.84,0.05470