File: 01_Data/Roof_Felt/FTIR/IS/Roof_Felt_IS_S_220829_R7.dpt
7497.03,0.17128
7473.89,0.17019
7450.74,0.16904
7427.6,0.17837
7404.45,0.17683
7381.31,0.17360
7358.16,0.16812
7335.02,0.17567
7311.87,0.17475
7288.73,0.17788
7265.58,0.17873
7242.44,0.18739
7219.29,0.18143
7196.15,0.17597
7173,0.18630
7149.86,0.18030
7126.71,0.17941
7103.57,0.18089
7080.42,0.17673
7057.28,0.17961
7034.13,0.18444
7010.99,0.17388
6987.84,0.17654
6964.7,0.18183
6941.55,0.18255
6918.41,0.18228
6895.26,0.18185
6872.12,0.18069
6848.97,0.18321
6825.83,0.19230
6802.68,0.18780
6779.54,0.18780
6756.39,0.19055
6733.25,0.18888
6710.1,0.18649
6686.96,0.19144
6663.82,0.19003
6640.67,0.19381
6617.53,0.19678
6594.38,0.19532
6571.24,0.19513
6548.09,0.19628
6524.95,0.20127
6501.8,0.20417
6478.66,0.19775
6455.51,0.20660
6432.37,0.20220
6409.22,0.20593
6386.08,0.20697
6362.93,0.20741
6339.79,0.21088
6316.64,0.21448
6293.5,0.21224
6270.35,0.21341
6247.21,0.21641
6224.06,0.22010
6200.92,0.22223
6177.77,0.22078
6154.63,0.22271
6131.48,0.22747
6108.34,0.22349
6085.19,0.22734
6062.05,0.22650
6038.9,0.22872
6015.76,0.23012
5992.61,0.22546
5969.47,0.22496
5946.32,0.22232
5923.18,0.21924
5900.03,0.21944
5876.89,0.21300
5853.74,0.21278
5830.6,0.21084
5807.45,0.20779
5784.31,0.20842
5761.16,0.21169
5738.02,0.22048
5714.87,0.21756
5691.73,0.21923
5668.58,0.22075
5645.44,0.22282
5622.29,0.23032
5599.15,0.23241
5576,0.23704
5552.86,0.24017
5529.71,0.24021
5506.57,0.24221
5483.42,0.24195
5460.28,0.24301
5437.13,0.24699
5413.99,0.24944
5390.84,0.25170
5367.7,0.25467
5344.55,0.25611
5321.41,0.25614
5298.26,0.25240
5275.12,0.24695
5251.97,0.23628
5228.83,0.22987
5205.68,0.22704
5182.54,0.22728
5159.39,0.22983
5136.25,0.23223
5113.1,0.23663
5089.96,0.24124
5066.81,0.24558
5043.67,0.24994
5020.52,0.25209
4997.38,0.25372
4974.23,0.25323
4951.09,0.25100
4927.94,0.24654
4904.8,0.23986
4881.65,0.23253
4858.51,0.22722
4835.36,0.21975
4812.22,0.21506
4789.07,0.21110
4765.93,0.20955
4742.78,0.20796
4719.64,0.21042
4696.49,0.21398
4673.35,0.21691
4650.2,0.21792
4627.06,0.21966
4603.92,0.22436
4580.77,0.22936
4557.63,0.23326
4534.48,0.23551
4511.34,0.23651
4488.19,0.23200
4465.05,0.22426
4441.9,0.20667
4418.76,0.18237
4395.61,0.16226
4372.47,0.15961
4349.32,0.14980
4326.18,0.13789
4303.03,0.14819
4279.89,0.14866
4256.74,0.13999
4233.6,0.14935
4210.45,0.15240
4187.31,0.15367
4164.16,0.15373
4141.02,0.15555
4117.87,0.15346
4094.73,0.15044
4071.58,0.14207
4048.44,0.13744
4025.29,0.13540
4002.15,0.13825
3979,0.14168
3955.86,0.14607
3932.71,0.15105
3909.57,0.15593
3886.42,0.15993
3863.28,0.16494
3840.13,0.17038
3816.99,0.17277
3793.84,0.17444
3770.7,0.17547
3747.55,0.17303
3724.41,0.16631
3701.26,0.13906
3678.12,0.12644
3654.97,0.10098
3631.83,0.08475
3608.68,0.07210
3585.54,0.06278
3562.39,0.05656
3539.25,0.05288
3516.1,0.05034
3492.96,0.04782
3469.81,0.04621
3446.67,0.04470
3423.52,0.04443
3400.38,0.04459
3377.23,0.04476
3354.09,0.04418
3330.94,0.04452
3307.8,0.04565
3284.65,0.04637
3261.51,0.04824
3238.36,0.04972
3215.22,0.05125
3192.07,0.05258
3168.93,0.05525
3145.78,0.05692
3122.64,0.05898
3099.49,0.06074
3076.35,0.06142
3053.2,0.06145
3030.06,0.06165
3006.91,0.05963
2983.77,0.05389
2960.62,0.04748
2937.48,0.04764
2914.33,0.05366
2891.19,0.05285
2868.04,0.05245
2844.9,0.05690
2821.75,0.06286
2798.61,0.06812
2775.46,0.07166
2752.32,0.07243
2729.17,0.07288
2706.03,0.07549
2682.88,0.07806
2659.74,0.08032
2636.59,0.08288
2613.45,0.08611
2590.3,0.08811
2567.16,0.09113
2544.02,0.09169
2520.87,0.09348
2497.73,0.09800
2474.58,0.10234
2451.44,0.10586
2428.29,0.10999
2405.15,0.11441
2382,0.11850
2358.86,0.12229
2335.71,0.12494
2312.57,0.12716
2289.42,0.12770
2266.28,0.12672
2243.13,0.12494
2219.99,0.12616
2196.84,0.12609
2173.7,0.12034
2150.55,0.11615
2127.41,0.11648
2104.26,0.12031
2081.12,0.12272
2057.97,0.12144
2034.83,0.12399
2011.68,0.13229
1988.54,0.13749
1965.39,0.14002
1942.25,0.14102
1919.1,0.14181
1895.96,0.14063
1872.81,0.14047
1849.67,0.13829
1826.52,0.13406
1803.38,0.12290
1780.23,0.10577
1757.09,0.07545
1733.94,0.06520
1710.8,0.06649
1687.65,0.06320
1664.51,0.05760
1641.36,0.05543
1618.22,0.05236
1595.07,0.04973
1571.93,0.05472
1548.78,0.05830
1525.64,0.05864
1502.49,0.05196
1479.35,0.04947
1456.2,0.04595
1433.06,0.04570
1409.91,0.04932
1386.77,0.04633
1363.62,0.04526
1340.48,0.04511
1317.33,0.04511
1294.19,0.04745
1271.04,0.04604
1247.9,0.04555
1224.75,0.04683
1201.61,0.04743
1178.46,0.04707
1155.32,0.04253
1132.17,0.03747
1109.03,0.03910
1085.88,0.03936
1062.74,0.05522
1039.59,0.05987
1016.45,0.06576
993.304,0.06752
970.159,0.07268
947.014,0.07881
923.869,0.07774
900.724,0.06817
877.579,0.07115
854.434,0.07171
831.289,0.06900
808.144,0.06607
784.999,0.06396
761.854,0.06058
738.709,0.05635
715.565,0.05217
692.42,0.05103
669.275,0.04966
646.13,0.04943
622.985,0.04875
599.84,0.05313