File: 01_Data/Roof_Felt/FTIR/IS/Roof_Felt_IS_S_220829_R2.dpt
7497.03,0.16867
7473.89,0.17298
7450.74,0.17213
7427.6,0.17566
7404.45,0.17401
7381.31,0.17749
7358.16,0.17982
7335.02,0.17417
7311.87,0.17279
7288.73,0.17888
7265.58,0.17903
7242.44,0.18073
7219.29,0.17860
7196.15,0.17369
7173,0.18226
7149.86,0.17960
7126.71,0.17426
7103.57,0.18575
7080.42,0.17707
7057.28,0.18233
7034.13,0.17178
7010.99,0.17529
6987.84,0.18282
6964.7,0.18265
6941.55,0.18389
6918.41,0.18234
6895.26,0.18170
6872.12,0.18165
6848.97,0.18292
6825.83,0.17935
6802.68,0.18654
6779.54,0.19014
6756.39,0.18731
6733.25,0.18781
6710.1,0.18766
6686.96,0.19140
6663.82,0.19375
6640.67,0.19590
6617.53,0.19173
6594.38,0.19353
6571.24,0.19517
6548.09,0.20034
6524.95,0.20180
6501.8,0.19832
6478.66,0.20300
6455.51,0.20449
6432.37,0.20774
6409.22,0.20664
6386.08,0.20935
6362.93,0.20742
6339.79,0.21292
6316.64,0.21435
6293.5,0.21333
6270.35,0.21741
6247.21,0.21799
6224.06,0.21782
6200.92,0.21964
6177.77,0.22271
6154.63,0.22421
6131.48,0.22351
6108.34,0.22462
6085.19,0.22762
6062.05,0.22869
6038.9,0.22760
6015.76,0.23025
5992.61,0.22792
5969.47,0.22790
5946.32,0.22357
5923.18,0.21809
5900.03,0.21932
5876.89,0.21645
5853.74,0.21466
5830.6,0.21099
5807.45,0.20720
5784.31,0.20920
5761.16,0.21662
5738.02,0.21887
5714.87,0.22024
5691.73,0.21963
5668.58,0.22026
5645.44,0.22529
5622.29,0.22926
5599.15,0.23509
5576,0.23624
5552.86,0.23940
5529.71,0.23964
5506.57,0.24249
5483.42,0.24140
5460.28,0.24555
5437.13,0.24746
5413.99,0.24881
5390.84,0.25239
5367.7,0.25570
5344.55,0.25485
5321.41,0.25646
5298.26,0.24953
5275.12,0.24454
5251.97,0.23322
5228.83,0.22471
5205.68,0.22176
5182.54,0.22173
5159.39,0.22475
5136.25,0.22883
5113.1,0.23501
5089.96,0.23776
5066.81,0.24210
5043.67,0.24580
5020.52,0.24907
4997.38,0.25125
4974.23,0.25089
4951.09,0.24997
4927.94,0.24630
4904.8,0.24032
4881.65,0.23259
4858.51,0.22725
4835.36,0.21973
4812.22,0.21589
4789.07,0.21213
4765.93,0.20886
4742.78,0.20890
4719.64,0.21095
4696.49,0.21315
4673.35,0.21540
4650.2,0.21840
4627.06,0.21999
4603.92,0.22450
4580.77,0.22955
4557.63,0.23395
4534.48,0.23547
4511.34,0.23705
4488.19,0.23313
4465.05,0.22373
4441.9,0.20682
4418.76,0.18284
4395.61,0.16216
4372.47,0.16047
4349.32,0.15039
4326.18,0.13737
4303.03,0.14832
4279.89,0.14907
4256.74,0.14069
4233.6,0.14970
4210.45,0.15264
4187.31,0.15386
4164.16,0.15435
4141.02,0.15521
4117.87,0.15463
4094.73,0.14989
4071.58,0.14246
4048.44,0.13753
4025.29,0.13547
4002.15,0.13768
3979,0.14081
3955.86,0.14497
3932.71,0.15041
3909.57,0.15524
3886.42,0.15920
3863.28,0.16466
3840.13,0.16965
3816.99,0.17116
3793.84,0.17251
3770.7,0.17367
3747.55,0.17018
3724.41,0.16343
3701.26,0.13773
3678.12,0.12265
3654.97,0.09658
3631.83,0.08093
3608.68,0.06874
3585.54,0.06123
3562.39,0.05612
3539.25,0.05268
3516.1,0.05018
3492.96,0.04831
3469.81,0.04575
3446.67,0.04561
3423.52,0.04448
3400.38,0.04423
3377.23,0.04380
3354.09,0.04370
3330.94,0.04415
3307.8,0.04528
3284.65,0.04627
3261.51,0.04786
3238.36,0.05018
3215.22,0.05144
3192.07,0.05254
3168.93,0.05512
3145.78,0.05716
3122.64,0.05878
3099.49,0.06015
3076.35,0.06040
3053.2,0.06188
3030.06,0.06115
3006.91,0.05947
2983.77,0.05387
2960.62,0.04773
2937.48,0.04777
2914.33,0.05382
2891.19,0.05242
2868.04,0.05230
2844.9,0.05745
2821.75,0.06329
2798.61,0.06827
2775.46,0.07112
2752.32,0.07283
2729.17,0.07212
2706.03,0.07513
2682.88,0.07762
2659.74,0.08001
2636.59,0.08299
2613.45,0.08602
2590.3,0.08838
2567.16,0.09019
2544.02,0.09115
2520.87,0.09347
2497.73,0.09799
2474.58,0.10234
2451.44,0.10566
2428.29,0.10926
2405.15,0.11397
2382,0.11760
2358.86,0.12130
2335.71,0.12460
2312.57,0.12620
2289.42,0.12655
2266.28,0.12518
2243.13,0.12384
2219.99,0.12404
2196.84,0.12389
2173.7,0.11894
2150.55,0.11404
2127.41,0.11473
2104.26,0.11820
2081.12,0.12041
2057.97,0.11991
2034.83,0.12269
2011.68,0.13048
1988.54,0.13544
1965.39,0.13777
1942.25,0.13927
1919.1,0.13964
1895.96,0.13903
1872.81,0.13902
1849.67,0.13691
1826.52,0.13264
1803.38,0.12131
1780.23,0.10509
1757.09,0.07574
1733.94,0.06535
1710.8,0.06649
1687.65,0.06265
1664.51,0.05684
1641.36,0.05493
1618.22,0.05199
1595.07,0.05009
1571.93,0.05437
1548.78,0.05813
1525.64,0.05885
1502.49,0.05180
1479.35,0.04984
1456.2,0.04553
1433.06,0.04558
1409.91,0.04898
1386.77,0.04676
1363.62,0.04589
1340.48,0.04543
1317.33,0.04516
1294.19,0.04784
1271.04,0.04655
1247.9,0.04591
1224.75,0.04713
1201.61,0.04758
1178.46,0.04763
1155.32,0.04294
1132.17,0.03736
1109.03,0.03976
1085.88,0.03893
1062.74,0.05528
1039.59,0.05996
1016.45,0.06620
993.304,0.06717
970.159,0.07237
947.014,0.07820
923.869,0.07628
900.724,0.06770
877.579,0.07077
854.434,0.07085
831.289,0.06896
808.144,0.06494
784.999,0.06367
761.854,0.05987
738.709,0.05582
715.565,0.05082
692.42,0.05212
669.275,0.04937
646.13,0.05026
622.985,0.04895
599.84,0.05158