File: 01_Data/Roof_Felt/FTIR/IS/Roof_Felt_IS_S_220829_R8.dpt
7497.03,0.16597
7473.89,0.17349
7450.74,0.16538
7427.6,0.17751
7404.45,0.17508
7381.31,0.16740
7358.16,0.17717
7335.02,0.17533
7311.87,0.16953
7288.73,0.17179
7265.58,0.17341
7242.44,0.17633
7219.29,0.18083
7196.15,0.18064
7173,0.17541
7149.86,0.17599
7126.71,0.18696
7103.57,0.18172
7080.42,0.18155
7057.28,0.17876
7034.13,0.18481
7010.99,0.17943
6987.84,0.18056
6964.7,0.18634
6941.55,0.18413
6918.41,0.18223
6895.26,0.17800
6872.12,0.18006
6848.97,0.18217
6825.83,0.18661
6802.68,0.18624
6779.54,0.18525
6756.39,0.18471
6733.25,0.18633
6710.1,0.18858
6686.96,0.19207
6663.82,0.19476
6640.67,0.19298
6617.53,0.19315
6594.38,0.19381
6571.24,0.20381
6548.09,0.19970
6524.95,0.20569
6501.8,0.20284
6478.66,0.20388
6455.51,0.20358
6432.37,0.20456
6409.22,0.20584
6386.08,0.20708
6362.93,0.21018
6339.79,0.20975
6316.64,0.21289
6293.5,0.20944
6270.35,0.21529
6247.21,0.21346
6224.06,0.21936
6200.92,0.21993
6177.77,0.22307
6154.63,0.22485
6131.48,0.22619
6108.34,0.22703
6085.19,0.22687
6062.05,0.22622
6038.9,0.22992
6015.76,0.22809
5992.61,0.22412
5969.47,0.22415
5946.32,0.22285
5923.18,0.21948
5900.03,0.21510
5876.89,0.21466
5853.74,0.21037
5830.6,0.20951
5807.45,0.20815
5784.31,0.20865
5761.16,0.21193
5738.02,0.22138
5714.87,0.22254
5691.73,0.21975
5668.58,0.22159
5645.44,0.22348
5622.29,0.22886
5599.15,0.23338
5576,0.23676
5552.86,0.23861
5529.71,0.23998
5506.57,0.24152
5483.42,0.24215
5460.28,0.24500
5437.13,0.24726
5413.99,0.25025
5390.84,0.25199
5367.7,0.25271
5344.55,0.25671
5321.41,0.25569
5298.26,0.25233
5275.12,0.24762
5251.97,0.23899
5228.83,0.23120
5205.68,0.22787
5182.54,0.22878
5159.39,0.23086
5136.25,0.23499
5113.1,0.23993
5089.96,0.24308
5066.81,0.24646
5043.67,0.25134
5020.52,0.25267
4997.38,0.25375
4974.23,0.25215
4951.09,0.25244
4927.94,0.24770
4904.8,0.24191
4881.65,0.23384
4858.51,0.22646
4835.36,0.22020
4812.22,0.21540
4789.07,0.21134
4765.93,0.21006
4742.78,0.20941
4719.64,0.21110
4696.49,0.21333
4673.35,0.21577
4650.2,0.21758
4627.06,0.21989
4603.92,0.22437
4580.77,0.22960
4557.63,0.23512
4534.48,0.23552
4511.34,0.23585
4488.19,0.23329
4465.05,0.22347
4441.9,0.20671
4418.76,0.18221
4395.61,0.16242
4372.47,0.16068
4349.32,0.15009
4326.18,0.13762
4303.03,0.14759
4279.89,0.14843
4256.74,0.14052
4233.6,0.15028
4210.45,0.15317
4187.31,0.15330
4164.16,0.15418
4141.02,0.15532
4117.87,0.15406
4094.73,0.15079
4071.58,0.14228
4048.44,0.13756
4025.29,0.13562
4002.15,0.13822
3979,0.14195
3955.86,0.14618
3932.71,0.15113
3909.57,0.15599
3886.42,0.16032
3863.28,0.16580
3840.13,0.17053
3816.99,0.17380
3793.84,0.17480
3770.7,0.17584
3747.55,0.17379
3724.41,0.16723
3701.26,0.14069
3678.12,0.12667
3654.97,0.10048
3631.83,0.08463
3608.68,0.07173
3585.54,0.06326
3562.39,0.05666
3539.25,0.05328
3516.1,0.04982
3492.96,0.04820
3469.81,0.04609
3446.67,0.04498
3423.52,0.04479
3400.38,0.04467
3377.23,0.04445
3354.09,0.04413
3330.94,0.04467
3307.8,0.04500
3284.65,0.04688
3261.51,0.04786
3238.36,0.05008
3215.22,0.05135
3192.07,0.05317
3168.93,0.05508
3145.78,0.05679
3122.64,0.05883
3099.49,0.06059
3076.35,0.06116
3053.2,0.06127
3030.06,0.06180
3006.91,0.05937
2983.77,0.05376
2960.62,0.04751
2937.48,0.04680
2914.33,0.05403
2891.19,0.05268
2868.04,0.05170
2844.9,0.05750
2821.75,0.06325
2798.61,0.06818
2775.46,0.07123
2752.32,0.07246
2729.17,0.07252
2706.03,0.07520
2682.88,0.07780
2659.74,0.08020
2636.59,0.08291
2613.45,0.08575
2590.3,0.08851
2567.16,0.09069
2544.02,0.09197
2520.87,0.09411
2497.73,0.09801
2474.58,0.10259
2451.44,0.10618
2428.29,0.11038
2405.15,0.11454
2382,0.11870
2358.86,0.12204
2335.71,0.12554
2312.57,0.12792
2289.42,0.12801
2266.28,0.12737
2243.13,0.12554
2219.99,0.12666
2196.84,0.12647
2173.7,0.12127
2150.55,0.11639
2127.41,0.11673
2104.26,0.12054
2081.12,0.12315
2057.97,0.12206
2034.83,0.12463
2011.68,0.13258
1988.54,0.13817
1965.39,0.14022
1942.25,0.14159
1919.1,0.14200
1895.96,0.14093
1872.81,0.14089
1849.67,0.13889
1826.52,0.13436
1803.38,0.12333
1780.23,0.10605
1757.09,0.07568
1733.94,0.06560
1710.8,0.06707
1687.65,0.06362
1664.51,0.05757
1641.36,0.05554
1618.22,0.05212
1595.07,0.04992
1571.93,0.05444
1548.78,0.05869
1525.64,0.05914
1502.49,0.05232
1479.35,0.04964
1456.2,0.04609
1433.06,0.04621
1409.91,0.04902
1386.77,0.04618
1363.62,0.04545
1340.48,0.04538
1317.33,0.04483
1294.19,0.04702
1271.04,0.04573
1247.9,0.04578
1224.75,0.04679
1201.61,0.04755
1178.46,0.04750
1155.32,0.04323
1132.17,0.03727
1109.03,0.03926
1085.88,0.03943
1062.74,0.05567
1039.59,0.06025
1016.45,0.06568
993.304,0.06707
970.159,0.07269
947.014,0.07910
923.869,0.07696
900.724,0.06836
877.579,0.07081
854.434,0.07243
831.289,0.06883
808.144,0.06523
784.999,0.06465
761.854,0.05921
738.709,0.05617
715.565,0.05319
692.42,0.05131
669.275,0.04946
646.13,0.04947
622.985,0.04792
599.84,0.05226