File: 01_Data/Roof_Felt/FTIR/IS/Roof_Felt_IS_S_220829_R4.dpt
7497.03,0.15986
7473.89,0.16584
7450.74,0.17648
7427.6,0.17016
7404.45,0.18006
7381.31,0.17889
7358.16,0.17888
7335.02,0.17247
7311.87,0.17922
7288.73,0.17773
7265.58,0.17554
7242.44,0.17641
7219.29,0.18401
7196.15,0.17564
7173,0.18343
7149.86,0.17919
7126.71,0.18168
7103.57,0.17713
7080.42,0.17930
7057.28,0.18161
7034.13,0.18106
7010.99,0.18042
6987.84,0.18621
6964.7,0.18026
6941.55,0.18463
6918.41,0.18601
6895.26,0.18479
6872.12,0.18630
6848.97,0.18527
6825.83,0.18574
6802.68,0.19084
6779.54,0.18699
6756.39,0.18358
6733.25,0.19286
6710.1,0.18969
6686.96,0.18940
6663.82,0.19226
6640.67,0.19486
6617.53,0.19490
6594.38,0.19390
6571.24,0.19531
6548.09,0.19869
6524.95,0.19844
6501.8,0.20120
6478.66,0.19978
6455.51,0.20698
6432.37,0.20466
6409.22,0.20719
6386.08,0.20725
6362.93,0.20605
6339.79,0.20959
6316.64,0.20828
6293.5,0.21058
6270.35,0.21385
6247.21,0.21549
6224.06,0.21885
6200.92,0.21814
6177.77,0.22118
6154.63,0.22472
6131.48,0.22311
6108.34,0.22443
6085.19,0.22482
6062.05,0.22756
6038.9,0.22808
6015.76,0.23065
5992.61,0.22585
5969.47,0.22305
5946.32,0.22559
5923.18,0.22181
5900.03,0.21498
5876.89,0.21493
5853.74,0.21034
5830.6,0.21185
5807.45,0.20695
5784.31,0.20815
5761.16,0.21302
5738.02,0.21914
5714.87,0.22044
5691.73,0.22068
5668.58,0.22030
5645.44,0.22507
5622.29,0.22862
5599.15,0.23265
5576,0.23678
5552.86,0.23890
5529.71,0.24018
5506.57,0.24029
5483.42,0.24108
5460.28,0.24482
5437.13,0.24657
5413.99,0.24874
5390.84,0.25300
5367.7,0.25545
5344.55,0.25625
5321.41,0.25574
5298.26,0.25304
5275.12,0.24517
5251.97,0.23628
5228.83,0.22678
5205.68,0.22370
5182.54,0.22426
5159.39,0.22702
5136.25,0.23139
5113.1,0.23637
5089.96,0.23966
5066.81,0.24379
5043.67,0.24872
5020.52,0.25200
4997.38,0.25114
4974.23,0.25268
4951.09,0.25057
4927.94,0.24681
4904.8,0.24073
4881.65,0.23357
4858.51,0.22719
4835.36,0.22033
4812.22,0.21485
4789.07,0.21240
4765.93,0.20899
4742.78,0.20872
4719.64,0.21121
4696.49,0.21347
4673.35,0.21480
4650.2,0.21828
4627.06,0.22059
4603.92,0.22485
4580.77,0.22851
4557.63,0.23358
4534.48,0.23596
4511.34,0.23573
4488.19,0.23277
4465.05,0.22349
4441.9,0.20769
4418.76,0.18248
4395.61,0.16234
4372.47,0.15923
4349.32,0.14947
4326.18,0.13740
4303.03,0.14797
4279.89,0.14850
4256.74,0.14025
4233.6,0.14994
4210.45,0.15181
4187.31,0.15380
4164.16,0.15373
4141.02,0.15498
4117.87,0.15484
4094.73,0.15005
4071.58,0.14218
4048.44,0.13718
4025.29,0.13628
4002.15,0.13751
3979,0.14128
3955.86,0.14565
3932.71,0.15074
3909.57,0.15573
3886.42,0.16008
3863.28,0.16499
3840.13,0.17019
3816.99,0.17229
3793.84,0.17398
3770.7,0.17472
3747.55,0.17205
3724.41,0.16533
3701.26,0.13853
3678.12,0.12557
3654.97,0.09879
3631.83,0.08321
3608.68,0.07129
3585.54,0.06264
3562.39,0.05673
3539.25,0.05343
3516.1,0.05056
3492.96,0.04813
3469.81,0.04656
3446.67,0.04485
3423.52,0.04491
3400.38,0.04476
3377.23,0.04370
3354.09,0.04446
3330.94,0.04476
3307.8,0.04546
3284.65,0.04646
3261.51,0.04821
3238.36,0.04951
3215.22,0.05105
3192.07,0.05296
3168.93,0.05482
3145.78,0.05733
3122.64,0.05939
3099.49,0.06002
3076.35,0.06101
3053.2,0.06157
3030.06,0.06166
3006.91,0.05931
2983.77,0.05366
2960.62,0.04742
2937.48,0.04749
2914.33,0.05398
2891.19,0.05358
2868.04,0.05224
2844.9,0.05717
2821.75,0.06310
2798.61,0.06835
2775.46,0.07143
2752.32,0.07250
2729.17,0.07225
2706.03,0.07518
2682.88,0.07794
2659.74,0.07995
2636.59,0.08305
2613.45,0.08542
2590.3,0.08793
2567.16,0.09027
2544.02,0.09130
2520.87,0.09375
2497.73,0.09778
2474.58,0.10258
2451.44,0.10595
2428.29,0.10995
2405.15,0.11435
2382,0.11868
2358.86,0.12204
2335.71,0.12493
2312.57,0.12697
2289.42,0.12724
2266.28,0.12650
2243.13,0.12488
2219.99,0.12571
2196.84,0.12545
2173.7,0.12010
2150.55,0.11541
2127.41,0.11582
2104.26,0.11970
2081.12,0.12193
2057.97,0.12108
2034.83,0.12340
2011.68,0.13151
1988.54,0.13679
1965.39,0.13912
1942.25,0.14039
1919.1,0.14088
1895.96,0.13986
1872.81,0.13997
1849.67,0.13801
1826.52,0.13350
1803.38,0.12254
1780.23,0.10571
1757.09,0.07542
1733.94,0.06549
1710.8,0.06626
1687.65,0.06298
1664.51,0.05748
1641.36,0.05534
1618.22,0.05191
1595.07,0.04998
1571.93,0.05434
1548.78,0.05784
1525.64,0.05876
1502.49,0.05195
1479.35,0.04981
1456.2,0.04561
1433.06,0.04603
1409.91,0.04924
1386.77,0.04647
1363.62,0.04590
1340.48,0.04524
1317.33,0.04505
1294.19,0.04772
1271.04,0.04610
1247.9,0.04531
1224.75,0.04670
1201.61,0.04754
1178.46,0.04703
1155.32,0.04312
1132.17,0.03757
1109.03,0.03879
1085.88,0.03937
1062.74,0.05434
1039.59,0.05926
1016.45,0.06618
993.304,0.06702
970.159,0.07247
947.014,0.07919
923.869,0.07701
900.724,0.06747
877.579,0.07155
854.434,0.07215
831.289,0.06944
808.144,0.06580
784.999,0.06419
761.854,0.05981
738.709,0.05570
715.565,0.05263
692.42,0.05101
669.275,0.04903
646.13,0.05089
622.985,0.04753
599.84,0.05291