File: 01_Data/Roof_Felt/FTIR/IS/Roof_Felt_IS_S_220829_R1.dpt
7497.03,0.17194
7473.89,0.17422
7450.74,0.17204
7427.6,0.16863
7404.45,0.17784
7381.31,0.17793
7358.16,0.17308
7335.02,0.17429
7311.87,0.17857
7288.73,0.17957
7265.58,0.16820
7242.44,0.17468
7219.29,0.17668
7196.15,0.18130
7173,0.18050
7149.86,0.18166
7126.71,0.18583
7103.57,0.18062
7080.42,0.17882
7057.28,0.18323
7034.13,0.18436
7010.99,0.18650
6987.84,0.18350
6964.7,0.18202
6941.55,0.18287
6918.41,0.18338
6895.26,0.17905
6872.12,0.18104
6848.97,0.18544
6825.83,0.18715
6802.68,0.18895
6779.54,0.18976
6756.39,0.18471
6733.25,0.18984
6710.1,0.18839
6686.96,0.18806
6663.82,0.19419
6640.67,0.19514
6617.53,0.19303
6594.38,0.19519
6571.24,0.19953
6548.09,0.19732
6524.95,0.19994
6501.8,0.20082
6478.66,0.19937
6455.51,0.20333
6432.37,0.20673
6409.22,0.20482
6386.08,0.20506
6362.93,0.20841
6339.79,0.21122
6316.64,0.21170
6293.5,0.21168
6270.35,0.21420
6247.21,0.21621
6224.06,0.21929
6200.92,0.22274
6177.77,0.22162
6154.63,0.22372
6131.48,0.22525
6108.34,0.22328
6085.19,0.22690
6062.05,0.22844
6038.9,0.22863
6015.76,0.22943
5992.61,0.22524
5969.47,0.22576
5946.32,0.22313
5923.18,0.21898
5900.03,0.21993
5876.89,0.21501
5853.74,0.21109
5830.6,0.21085
5807.45,0.20866
5784.31,0.20743
5761.16,0.21430
5738.02,0.21974
5714.87,0.21887
5691.73,0.21995
5668.58,0.21997
5645.44,0.22556
5622.29,0.22972
5599.15,0.23376
5576,0.23671
5552.86,0.23852
5529.71,0.24119
5506.57,0.24036
5483.42,0.24369
5460.28,0.24498
5437.13,0.24623
5413.99,0.24966
5390.84,0.25099
5367.7,0.25403
5344.55,0.25503
5321.41,0.25372
5298.26,0.25299
5275.12,0.24368
5251.97,0.23347
5228.83,0.22398
5205.68,0.22070
5182.54,0.21914
5159.39,0.22314
5136.25,0.22797
5113.1,0.23162
5089.96,0.23557
5066.81,0.24107
5043.67,0.24486
5020.52,0.24852
4997.38,0.25046
4974.23,0.25135
4951.09,0.24808
4927.94,0.24659
4904.8,0.24014
4881.65,0.23353
4858.51,0.22596
4835.36,0.22052
4812.22,0.21493
4789.07,0.21113
4765.93,0.20857
4742.78,0.20851
4719.64,0.21046
4696.49,0.21325
4673.35,0.21524
4650.2,0.21722
4627.06,0.22029
4603.92,0.22538
4580.77,0.22846
4557.63,0.23308
4534.48,0.23544
4511.34,0.23635
4488.19,0.23311
4465.05,0.22401
4441.9,0.20706
4418.76,0.18249
4395.61,0.16226
4372.47,0.16060
4349.32,0.15013
4326.18,0.13799
4303.03,0.14868
4279.89,0.14901
4256.74,0.14085
4233.6,0.14980
4210.45,0.15259
4187.31,0.15323
4164.16,0.15398
4141.02,0.15567
4117.87,0.15345
4094.73,0.14995
4071.58,0.14214
4048.44,0.13695
4025.29,0.13517
4002.15,0.13701
3979,0.14066
3955.86,0.14532
3932.71,0.15034
3909.57,0.15478
3886.42,0.15871
3863.28,0.16398
3840.13,0.16929
3816.99,0.17113
3793.84,0.17251
3770.7,0.17182
3747.55,0.16979
3724.41,0.16270
3701.26,0.13657
3678.12,0.12105
3654.97,0.09531
3631.83,0.08014
3608.68,0.06863
3585.54,0.06117
3562.39,0.05586
3539.25,0.05235
3516.1,0.04973
3492.96,0.04810
3469.81,0.04666
3446.67,0.04520
3423.52,0.04409
3400.38,0.04372
3377.23,0.04438
3354.09,0.04378
3330.94,0.04462
3307.8,0.04529
3284.65,0.04672
3261.51,0.04817
3238.36,0.04891
3215.22,0.05112
3192.07,0.05264
3168.93,0.05501
3145.78,0.05672
3122.64,0.05835
3099.49,0.05907
3076.35,0.05992
3053.2,0.06082
3030.06,0.06098
3006.91,0.05949
2983.77,0.05348
2960.62,0.04798
2937.48,0.04708
2914.33,0.05405
2891.19,0.05224
2868.04,0.05235
2844.9,0.05692
2821.75,0.06311
2798.61,0.06845
2775.46,0.07089
2752.32,0.07221
2729.17,0.07163
2706.03,0.07472
2682.88,0.07712
2659.74,0.08004
2636.59,0.08255
2613.45,0.08548
2590.3,0.08782
2567.16,0.09051
2544.02,0.09165
2520.87,0.09346
2497.73,0.09767
2474.58,0.10188
2451.44,0.10561
2428.29,0.10986
2405.15,0.11377
2382,0.11763
2358.86,0.12115
2335.71,0.12371
2312.57,0.12590
2289.42,0.12594
2266.28,0.12500
2243.13,0.12324
2219.99,0.12377
2196.84,0.12380
2173.7,0.11839
2150.55,0.11392
2127.41,0.11409
2104.26,0.11748
2081.12,0.11981
2057.97,0.11908
2034.83,0.12156
2011.68,0.12945
1988.54,0.13492
1965.39,0.13727
1942.25,0.13828
1919.1,0.13922
1895.96,0.13843
1872.81,0.13850
1849.67,0.13638
1826.52,0.13203
1803.38,0.12109
1780.23,0.10520
1757.09,0.07579
1733.94,0.06536
1710.8,0.06615
1687.65,0.06231
1664.51,0.05666
1641.36,0.05495
1618.22,0.05247
1595.07,0.05003
1571.93,0.05440
1548.78,0.05771
1525.64,0.05857
1502.49,0.05174
1479.35,0.05003
1456.2,0.04571
1433.06,0.04643
1409.91,0.04913
1386.77,0.04640
1363.62,0.04552
1340.48,0.04565
1317.33,0.04477
1294.19,0.04759
1271.04,0.04582
1247.9,0.04557
1224.75,0.04728
1201.61,0.04757
1178.46,0.04708
1155.32,0.04271
1132.17,0.03736
1109.03,0.03972
1085.88,0.03909
1062.74,0.05611
1039.59,0.05937
1016.45,0.06574
993.304,0.06700
970.159,0.07214
947.014,0.07901
923.869,0.07690
900.724,0.06764
877.579,0.07137
854.434,0.07078
831.289,0.06787
808.144,0.06462
784.999,0.06263
761.854,0.05833
738.709,0.05537
715.565,0.05173
692.42,0.05088
669.275,0.05009
646.13,0.04850
622.985,0.04843
599.84,0.05184