File: 01_Data/Roof_Felt/FTIR/IS/Roof_Felt_IS_S_220829_R6.dpt
7497.03,0.16620
7473.89,0.16066
7450.74,0.15674
7427.6,0.17428
7404.45,0.16521
7381.31,0.17067
7358.16,0.18227
7335.02,0.16954
7311.87,0.17611
7288.73,0.17768
7265.58,0.18848
7242.44,0.17793
7219.29,0.18341
7196.15,0.18371
7173,0.17665
7149.86,0.18105
7126.71,0.18124
7103.57,0.17830
7080.42,0.18395
7057.28,0.18396
7034.13,0.17843
7010.99,0.17994
6987.84,0.17172
6964.7,0.17829
6941.55,0.17460
6918.41,0.18147
6895.26,0.18588
6872.12,0.18500
6848.97,0.18818
6825.83,0.18503
6802.68,0.18751
6779.54,0.18442
6756.39,0.18794
6733.25,0.19325
6710.1,0.18894
6686.96,0.19116
6663.82,0.19624
6640.67,0.19584
6617.53,0.19573
6594.38,0.19696
6571.24,0.19663
6548.09,0.19624
6524.95,0.20145
6501.8,0.19984
6478.66,0.20276
6455.51,0.20321
6432.37,0.20558
6409.22,0.20625
6386.08,0.20544
6362.93,0.20749
6339.79,0.20764
6316.64,0.21120
6293.5,0.21072
6270.35,0.21263
6247.21,0.21668
6224.06,0.22092
6200.92,0.21980
6177.77,0.22090
6154.63,0.22148
6131.48,0.22783
6108.34,0.22682
6085.19,0.22787
6062.05,0.22754
6038.9,0.23283
6015.76,0.22661
5992.61,0.22616
5969.47,0.22428
5946.32,0.22560
5923.18,0.22038
5900.03,0.21644
5876.89,0.21340
5853.74,0.21390
5830.6,0.21079
5807.45,0.20724
5784.31,0.20909
5761.16,0.21451
5738.02,0.21922
5714.87,0.22010
5691.73,0.22043
5668.58,0.21904
5645.44,0.22725
5622.29,0.22824
5599.15,0.23474
5576,0.23691
5552.86,0.24006
5529.71,0.24205
5506.57,0.24155
5483.42,0.24285
5460.28,0.24458
5437.13,0.24607
5413.99,0.25040
5390.84,0.25226
5367.7,0.25479
5344.55,0.25543
5321.41,0.25496
5298.26,0.25318
5275.12,0.24610
5251.97,0.23719
5228.83,0.23103
5205.68,0.22576
5182.54,0.22590
5159.39,0.23050
5136.25,0.23268
5113.1,0.24069
5089.96,0.24114
5066.81,0.24513
5043.67,0.25067
5020.52,0.25284
4997.38,0.25379
4974.23,0.25341
4951.09,0.25139
4927.94,0.24859
4904.8,0.24149
4881.65,0.23457
4858.51,0.22703
4835.36,0.22049
4812.22,0.21559
4789.07,0.21278
4765.93,0.20998
4742.78,0.20987
4719.64,0.21265
4696.49,0.21338
4673.35,0.21611
4650.2,0.21898
4627.06,0.22091
4603.92,0.22450
4580.77,0.22967
4557.63,0.23423
4534.48,0.23635
4511.34,0.23680
4488.19,0.23358
4465.05,0.22405
4441.9,0.20829
4418.76,0.18254
4395.61,0.16246
4372.47,0.16074
4349.32,0.15073
4326.18,0.13762
4303.03,0.14845
4279.89,0.14903
4256.74,0.14010
4233.6,0.15015
4210.45,0.15298
4187.31,0.15406
4164.16,0.15483
4141.02,0.15560
4117.87,0.15418
4094.73,0.15014
4071.58,0.14292
4048.44,0.13817
4025.29,0.13564
4002.15,0.13779
3979,0.14153
3955.86,0.14614
3932.71,0.15128
3909.57,0.15589
3886.42,0.15973
3863.28,0.16519
3840.13,0.17128
3816.99,0.17309
3793.84,0.17473
3770.7,0.17520
3747.55,0.17315
3724.41,0.16675
3701.26,0.14021
3678.12,0.12559
3654.97,0.10007
3631.83,0.08441
3608.68,0.07113
3585.54,0.06317
3562.39,0.05727
3539.25,0.05293
3516.1,0.05052
3492.96,0.04789
3469.81,0.04699
3446.67,0.04581
3423.52,0.04520
3400.38,0.04446
3377.23,0.04395
3354.09,0.04468
3330.94,0.04481
3307.8,0.04549
3284.65,0.04698
3261.51,0.04783
3238.36,0.04883
3215.22,0.05131
3192.07,0.05276
3168.93,0.05531
3145.78,0.05680
3122.64,0.05880
3099.49,0.06032
3076.35,0.06076
3053.2,0.06140
3030.06,0.06155
3006.91,0.05989
2983.77,0.05350
2960.62,0.04783
2937.48,0.04732
2914.33,0.05412
2891.19,0.05327
2868.04,0.05234
2844.9,0.05720
2821.75,0.06323
2798.61,0.06864
2775.46,0.07141
2752.32,0.07268
2729.17,0.07198
2706.03,0.07533
2682.88,0.07796
2659.74,0.08008
2636.59,0.08267
2613.45,0.08594
2590.3,0.08881
2567.16,0.09083
2544.02,0.09188
2520.87,0.09370
2497.73,0.09826
2474.58,0.10283
2451.44,0.10598
2428.29,0.11048
2405.15,0.11472
2382,0.11854
2358.86,0.12284
2335.71,0.12561
2312.57,0.12734
2289.42,0.12801
2266.28,0.12720
2243.13,0.12545
2219.99,0.12612
2196.84,0.12616
2173.7,0.12086
2150.55,0.11651
2127.41,0.11661
2104.26,0.12031
2081.12,0.12262
2057.97,0.12170
2034.83,0.12425
2011.68,0.13241
1988.54,0.13825
1965.39,0.13994
1942.25,0.14100
1919.1,0.14187
1895.96,0.14061
1872.81,0.14091
1849.67,0.13841
1826.52,0.13428
1803.38,0.12309
1780.23,0.10619
1757.09,0.07559
1733.94,0.06591
1710.8,0.06698
1687.65,0.06352
1664.51,0.05725
1641.36,0.05571
1618.22,0.05248
1595.07,0.04998
1571.93,0.05445
1548.78,0.05847
1525.64,0.05887
1502.49,0.05214
1479.35,0.04964
1456.2,0.04594
1433.06,0.04608
1409.91,0.04899
1386.77,0.04646
1363.62,0.04578
1340.48,0.04535
1317.33,0.04470
1294.19,0.04791
1271.04,0.04572
1247.9,0.04583
1224.75,0.04694
1201.61,0.04754
1178.46,0.04779
1155.32,0.04273
1132.17,0.03767
1109.03,0.03927
1085.88,0.03918
1062.74,0.05547
1039.59,0.06055
1016.45,0.06589
993.304,0.06735
970.159,0.07243
947.014,0.07864
923.869,0.07761
900.724,0.06795
877.579,0.07109
854.434,0.07233
831.289,0.07012
808.144,0.06596
784.999,0.06497
761.854,0.06015
738.709,0.05528
715.565,0.05281
692.42,0.05224
669.275,0.04804
646.13,0.04954
622.985,0.04919
599.84,0.05109