File: 01_Data/Concrete_Block/FTIR/IS/Concrete_Block_IS_S_221214_R8.dpt
7497.03,0.28331
7473.89,0.28561
7450.74,0.28087
7427.6,0.27304
7404.45,0.27653
7381.31,0.27175
7358.16,0.27595
7335.02,0.26913
7311.87,0.28180
7288.73,0.27651
7265.58,0.27185
7242.44,0.27504
7219.29,0.27299
7196.15,0.26764
7173,0.27410
7149.86,0.27218
7126.71,0.26398
7103.57,0.27844
7080.42,0.27314
7057.28,0.26460
7034.13,0.27073
7010.99,0.27504
6987.84,0.27648
6964.7,0.27608
6941.55,0.27177
6918.41,0.27727
6895.26,0.27384
6872.12,0.27246
6848.97,0.26781
6825.83,0.26761
6802.68,0.27509
6779.54,0.27208
6756.39,0.27939
6733.25,0.27247
6710.1,0.27424
6686.96,0.27619
6663.82,0.27489
6640.67,0.27519
6617.53,0.27078
6594.38,0.27655
6571.24,0.27458
6548.09,0.27646
6524.95,0.27662
6501.8,0.27437
6478.66,0.27413
6455.51,0.27615
6432.37,0.27527
6409.22,0.27579
6386.08,0.27510
6362.93,0.27639
6339.79,0.27520
6316.64,0.27726
6293.5,0.27525
6270.35,0.27769
6247.21,0.27049
6224.06,0.27439
6200.92,0.27746
6177.77,0.27884
6154.63,0.27567
6131.48,0.27547
6108.34,0.27430
6085.19,0.27783
6062.05,0.27961
6038.9,0.27522
6015.76,0.27675
5992.61,0.27243
5969.47,0.27379
5946.32,0.27397
5923.18,0.27691
5900.03,0.27638
5876.89,0.27211
5853.74,0.27529
5830.6,0.27288
5807.45,0.27246
5784.31,0.27862
5761.16,0.27207
5738.02,0.27517
5714.87,0.27684
5691.73,0.27624
5668.58,0.27324
5645.44,0.27597
5622.29,0.27622
5599.15,0.27198
5576,0.27411
5552.86,0.27638
5529.71,0.27452
5506.57,0.27130
5483.42,0.27374
5460.28,0.27370
5437.13,0.27226
5413.99,0.27199
5390.84,0.27168
5367.7,0.27033
5344.55,0.27139
5321.41,0.26798
5298.26,0.26493
5275.12,0.26327
5251.97,0.25727
5228.83,0.25282
5205.68,0.25035
5182.54,0.24875
5159.39,0.24941
5136.25,0.25075
5113.1,0.25069
5089.96,0.25277
5066.81,0.25539
5043.67,0.25468
5020.52,0.25483
4997.38,0.25655
4974.23,0.25948
4951.09,0.26037
4927.94,0.26112
4904.8,0.26204
4881.65,0.26208
4858.51,0.26174
4835.36,0.26176
4812.22,0.26312
4789.07,0.26270
4765.93,0.26272
4742.78,0.26260
4719.64,0.26228
4696.49,0.26128
4673.35,0.26135
4650.2,0.26092
4627.06,0.25933
4603.92,0.25939
4580.77,0.25884
4557.63,0.25740
4534.48,0.25434
4511.34,0.25241
4488.19,0.25086
4465.05,0.25133
4441.9,0.24961
4418.76,0.24703
4395.61,0.24527
4372.47,0.24239
4349.32,0.23934
4326.18,0.23671
4303.03,0.23278
4279.89,0.23418
4256.74,0.23890
4233.6,0.24400
4210.45,0.24357
4187.31,0.24261
4164.16,0.23918
4141.02,0.23592
4117.87,0.23112
4094.73,0.22582
4071.58,0.21925
4048.44,0.21475
4025.29,0.21015
4002.15,0.20409
3979,0.20054
3955.86,0.19954
3932.71,0.20708
3909.57,0.21730
3886.42,0.22065
3863.28,0.22130
3840.13,0.22028
3816.99,0.21863
3793.84,0.21475
3770.7,0.20945
3747.55,0.19743
3724.41,0.17302
3701.26,0.12947
3678.12,0.11743
3654.97,0.09474
3631.83,0.07883
3608.68,0.07234
3585.54,0.07043
3562.39,0.06901
3539.25,0.06666
3516.1,0.06636
3492.96,0.06468
3469.81,0.06360
3446.67,0.06161
3423.52,0.06081
3400.38,0.06074
3377.23,0.06080
3354.09,0.06174
3330.94,0.06320
3307.8,0.06347
3284.65,0.06451
3261.51,0.06554
3238.36,0.06649
3215.22,0.06778
3192.07,0.06995
3168.93,0.07165
3145.78,0.07495
3122.64,0.07705
3099.49,0.07887
3076.35,0.07929
3053.2,0.07982
3030.06,0.07332
3006.91,0.07165
2983.77,0.06742
2960.62,0.06988
2937.48,0.06943
2914.33,0.06904
2891.19,0.06739
2868.04,0.06905
2844.9,0.08327
2821.75,0.09844
2798.61,0.10649
2775.46,0.11218
2752.32,0.11598
2729.17,0.11729
2706.03,0.11757
2682.88,0.11480
2659.74,0.10344
2636.59,0.08993
2613.45,0.08478
2590.3,0.07828
2567.16,0.07395
2544.02,0.06563
2520.87,0.05668
2497.73,0.07163
2474.58,0.09682
2451.44,0.11114
2428.29,0.11652
2405.15,0.11842
2382,0.11947
2358.86,0.11712
2335.71,0.11331
2312.57,0.11311
2289.42,0.11422
2266.28,0.10729
2243.13,0.10388
2219.99,0.10297
2196.84,0.09984
2173.7,0.09462
2150.55,0.09013
2127.41,0.09586
2104.26,0.10175
2081.12,0.10142
2057.97,0.09911
2034.83,0.09427
2011.68,0.09005
1988.54,0.08720
1965.39,0.08410
1942.25,0.08315
1919.1,0.07869
1895.96,0.07157
1872.81,0.06641
1849.67,0.06152
1826.52,0.04856
1803.38,0.03991
1780.23,0.04533
1757.09,0.04709
1733.94,0.04443
1710.8,0.04269
1687.65,0.03867
1664.51,0.03706
1641.36,0.03771
1618.22,0.04439
1595.07,0.05926
1571.93,0.10958
1548.78,0.12097
1525.64,0.10868
1502.49,0.09909
1479.35,0.09290
1456.2,0.08846
1433.06,0.08774
1409.91,0.08155
1386.77,0.07113
1363.62,0.07655
1340.48,0.08295
1317.33,0.08643
1294.19,0.08865
1271.04,0.09167
1247.9,0.09328
1224.75,0.09570
1201.61,0.08607
1178.46,0.07417
1155.32,0.06707
1132.17,0.07044
1109.03,0.06940
1085.88,0.06768
1062.74,0.06194
1039.59,0.05367
1016.45,0.04990
993.304,0.04995
970.159,0.05283
947.014,0.05689
923.869,0.05882
900.724,0.07281
877.579,0.05851
854.434,0.05198
831.289,0.05104
808.144,0.04989
784.999,0.05272
761.854,0.04857
738.709,0.03944
715.565,0.03725
692.42,0.04368
669.275,0.04012
646.13,0.03761
622.985,0.03492
599.84,0.03007