File: 01_Data/Concrete_Block/FTIR/IS/Concrete_Block_IS_S_221214_R6.dpt
7497.03,0.27613
7473.89,0.27965
7450.74,0.27939
7427.6,0.27276
7404.45,0.28650
7381.31,0.28329
7358.16,0.27872
7335.02,0.27207
7311.87,0.28081
7288.73,0.27586
7265.58,0.27995
7242.44,0.27245
7219.29,0.27221
7196.15,0.27758
7173,0.27562
7149.86,0.27398
7126.71,0.27493
7103.57,0.27541
7080.42,0.27175
7057.28,0.27055
7034.13,0.27164
7010.99,0.27562
6987.84,0.27441
6964.7,0.27547
6941.55,0.27906
6918.41,0.27357
6895.26,0.27064
6872.12,0.27504
6848.97,0.27934
6825.83,0.27552
6802.68,0.27389
6779.54,0.27380
6756.39,0.27706
6733.25,0.26914
6710.1,0.27597
6686.96,0.27744
6663.82,0.27498
6640.67,0.27134
6617.53,0.27613
6594.38,0.27731
6571.24,0.27006
6548.09,0.27826
6524.95,0.27641
6501.8,0.27856
6478.66,0.28227
6455.51,0.27548
6432.37,0.27350
6409.22,0.27573
6386.08,0.27444
6362.93,0.27229
6339.79,0.27566
6316.64,0.27254
6293.5,0.27451
6270.35,0.27335
6247.21,0.27901
6224.06,0.27416
6200.92,0.27602
6177.77,0.27688
6154.63,0.27436
6131.48,0.27362
6108.34,0.27219
6085.19,0.27595
6062.05,0.27416
6038.9,0.27422
6015.76,0.27528
5992.61,0.27354
5969.47,0.27760
5946.32,0.27506
5923.18,0.27574
5900.03,0.27785
5876.89,0.27666
5853.74,0.27566
5830.6,0.27380
5807.45,0.27442
5784.31,0.27349
5761.16,0.27440
5738.02,0.27458
5714.87,0.27366
5691.73,0.27414
5668.58,0.27172
5645.44,0.27378
5622.29,0.27256
5599.15,0.27411
5576,0.27325
5552.86,0.27303
5529.71,0.27355
5506.57,0.27187
5483.42,0.27245
5460.28,0.27268
5437.13,0.26996
5413.99,0.27194
5390.84,0.27144
5367.7,0.27042
5344.55,0.27034
5321.41,0.26779
5298.26,0.26388
5275.12,0.26027
5251.97,0.25584
5228.83,0.25033
5205.68,0.24999
5182.54,0.24819
5159.39,0.24856
5136.25,0.24938
5113.1,0.24967
5089.96,0.25071
5066.81,0.25360
5043.67,0.25420
5020.52,0.25418
4997.38,0.25731
4974.23,0.25877
4951.09,0.26075
4927.94,0.26008
4904.8,0.26091
4881.65,0.26188
4858.51,0.26145
4835.36,0.26191
4812.22,0.26203
4789.07,0.26218
4765.93,0.26173
4742.78,0.26168
4719.64,0.26218
4696.49,0.26081
4673.35,0.26049
4650.2,0.25983
4627.06,0.25931
4603.92,0.25845
4580.77,0.25747
4557.63,0.25658
4534.48,0.25349
4511.34,0.25162
4488.19,0.25060
4465.05,0.25022
4441.9,0.24884
4418.76,0.24605
4395.61,0.24370
4372.47,0.24246
4349.32,0.23880
4326.18,0.23565
4303.03,0.23262
4279.89,0.23388
4256.74,0.23801
4233.6,0.24346
4210.45,0.24363
4187.31,0.24148
4164.16,0.23864
4141.02,0.23674
4117.87,0.23087
4094.73,0.22498
4071.58,0.21927
4048.44,0.21357
4025.29,0.20945
4002.15,0.20464
3979,0.19979
3955.86,0.19861
3932.71,0.20646
3909.57,0.21637
3886.42,0.22047
3863.28,0.22115
3840.13,0.22006
3816.99,0.21779
3793.84,0.21452
3770.7,0.20839
3747.55,0.19792
3724.41,0.17305
3701.26,0.12892
3678.12,0.11786
3654.97,0.09394
3631.83,0.07917
3608.68,0.07162
3585.54,0.06971
3562.39,0.06933
3539.25,0.06698
3516.1,0.06580
3492.96,0.06410
3469.81,0.06316
3446.67,0.06179
3423.52,0.06092
3400.38,0.05976
3377.23,0.06075
3354.09,0.06187
3330.94,0.06230
3307.8,0.06353
3284.65,0.06399
3261.51,0.06499
3238.36,0.06586
3215.22,0.06725
3192.07,0.06947
3168.93,0.07160
3145.78,0.07389
3122.64,0.07649
3099.49,0.07775
3076.35,0.07955
3053.2,0.07964
3030.06,0.07295
3006.91,0.07110
2983.77,0.06716
2960.62,0.06958
2937.48,0.06926
2914.33,0.06853
2891.19,0.06730
2868.04,0.06799
2844.9,0.08259
2821.75,0.09853
2798.61,0.10642
2775.46,0.11178
2752.32,0.11521
2729.17,0.11739
2706.03,0.11715
2682.88,0.11472
2659.74,0.10326
2636.59,0.09013
2613.45,0.08405
2590.3,0.07818
2567.16,0.07374
2544.02,0.06583
2520.87,0.05662
2497.73,0.07123
2474.58,0.09665
2451.44,0.11091
2428.29,0.11627
2405.15,0.11817
2382,0.11917
2358.86,0.11678
2335.71,0.11345
2312.57,0.11272
2289.42,0.11371
2266.28,0.10688
2243.13,0.10313
2219.99,0.10252
2196.84,0.09973
2173.7,0.09406
2150.55,0.08979
2127.41,0.09546
2104.26,0.10149
2081.12,0.10109
2057.97,0.09892
2034.83,0.09380
2011.68,0.09001
1988.54,0.08695
1965.39,0.08333
1942.25,0.08272
1919.1,0.07878
1895.96,0.07104
1872.81,0.06596
1849.67,0.06157
1826.52,0.04848
1803.38,0.03990
1780.23,0.04498
1757.09,0.04707
1733.94,0.04466
1710.8,0.04235
1687.65,0.03847
1664.51,0.03699
1641.36,0.03742
1618.22,0.04422
1595.07,0.05949
1571.93,0.10937
1548.78,0.11994
1525.64,0.10848
1502.49,0.09910
1479.35,0.09297
1456.2,0.08903
1433.06,0.08755
1409.91,0.08097
1386.77,0.07112
1363.62,0.07644
1340.48,0.08274
1317.33,0.08614
1294.19,0.08896
1271.04,0.09161
1247.9,0.09299
1224.75,0.09563
1201.61,0.08622
1178.46,0.07382
1155.32,0.06715
1132.17,0.07052
1109.03,0.06884
1085.88,0.06830
1062.74,0.06180
1039.59,0.05267
1016.45,0.04990
993.304,0.04989
970.159,0.05286
947.014,0.05692
923.869,0.05869
900.724,0.07307
877.579,0.05820
854.434,0.05261
831.289,0.05148
808.144,0.05023
784.999,0.05260
761.854,0.04691
738.709,0.03977
715.565,0.03735
692.42,0.04234
669.275,0.04119
646.13,0.03904
622.985,0.03443
599.84,0.03297