File: 01_Data/Concrete_Block/FTIR/IS/Concrete_Block_IS_T_221214_R8.dpt
7497.03,0.02451
7473.89,0.02759
7450.74,0.02046
7427.6,0.02082
7404.45,0.02367
7381.31,0.02496
7358.16,0.02663
7335.02,0.01609
7311.87,0.02799
7288.73,0.02225
7265.58,0.02602
7242.44,0.02010
7219.29,0.01636
7196.15,0.02241
7173,0.01980
7149.86,0.01821
7126.71,0.02404
7103.57,0.02053
7080.42,0.02533
7057.28,0.02352
7034.13,0.02217
7010.99,0.02291
6987.84,0.02132
6964.7,0.02152
6941.55,0.02359
6918.41,0.02917
6895.26,0.02232
6872.12,0.01999
6848.97,0.02737
6825.83,0.02735
6802.68,0.02690
6779.54,0.02669
6756.39,0.02399
6733.25,0.02598
6710.1,0.02123
6686.96,0.02268
6663.82,0.02181
6640.67,0.02392
6617.53,0.02055
6594.38,0.02148
6571.24,0.02540
6548.09,0.02643
6524.95,0.02170
6501.8,0.02337
6478.66,0.02222
6455.51,0.02112
6432.37,0.02123
6409.22,0.02374
6386.08,0.02342
6362.93,0.02448
6339.79,0.02488
6316.64,0.02131
6293.5,0.02025
6270.35,0.02378
6247.21,0.02506
6224.06,0.02390
6200.92,0.02430
6177.77,0.02711
6154.63,0.02235
6131.48,0.02499
6108.34,0.02581
6085.19,0.02401
6062.05,0.02427
6038.9,0.01912
6015.76,0.02278
5992.61,0.02144
5969.47,0.02336
5946.32,0.02443
5923.18,0.02127
5900.03,0.02248
5876.89,0.02238
5853.74,0.02213
5830.6,0.02273
5807.45,0.02352
5784.31,0.02081
5761.16,0.02369
5738.02,0.02263
5714.87,0.02318
5691.73,0.02242
5668.58,0.02278
5645.44,0.02401
5622.29,0.02137
5599.15,0.02280
5576,0.02324
5552.86,0.02289
5529.71,0.02286
5506.57,0.02411
5483.42,0.02233
5460.28,0.02530
5437.13,0.02259
5413.99,0.02268
5390.84,0.02256
5367.7,0.02308
5344.55,0.02234
5321.41,0.02366
5298.26,0.02222
5275.12,0.02400
5251.97,0.02234
5228.83,0.02210
5205.68,0.02355
5182.54,0.02273
5159.39,0.02252
5136.25,0.02265
5113.1,0.02269
5089.96,0.02462
5066.81,0.02331
5043.67,0.02364
5020.52,0.02298
4997.38,0.02321
4974.23,0.02311
4951.09,0.02309
4927.94,0.02239
4904.8,0.02240
4881.65,0.02385
4858.51,0.02333
4835.36,0.02274
4812.22,0.02347
4789.07,0.02384
4765.93,0.02373
4742.78,0.02312
4719.64,0.02335
4696.49,0.02368
4673.35,0.02247
4650.2,0.02308
4627.06,0.02290
4603.92,0.02364
4580.77,0.02406
4557.63,0.02317
4534.48,0.02334
4511.34,0.02325
4488.19,0.02358
4465.05,0.02399
4441.9,0.02358
4418.76,0.02321
4395.61,0.02408
4372.47,0.02355
4349.32,0.02362
4326.18,0.02277
4303.03,0.02346
4279.89,0.02340
4256.74,0.02369
4233.6,0.02324
4210.45,0.02318
4187.31,0.02312
4164.16,0.02294
4141.02,0.02358
4117.87,0.02401
4094.73,0.02326
4071.58,0.02326
4048.44,0.02396
4025.29,0.02367
4002.15,0.02388
3979,0.02437
3955.86,0.02382
3932.71,0.02422
3909.57,0.02419
3886.42,0.02401
3863.28,0.02377
3840.13,0.02403
3816.99,0.02429
3793.84,0.02389
3770.7,0.02401
3747.55,0.02431
3724.41,0.02410
3701.26,0.02455
3678.12,0.02406
3654.97,0.02296
3631.83,0.02342
3608.68,0.02353
3585.54,0.02266
3562.39,0.02258
3539.25,0.02288
3516.1,0.02228
3492.96,0.02213
3469.81,0.02206
3446.67,0.02185
3423.52,0.02091
3400.38,0.02183
3377.23,0.02145
3354.09,0.02108
3330.94,0.02143
3307.8,0.02125
3284.65,0.02173
3261.51,0.02228
3238.36,0.02213
3215.22,0.02200
3192.07,0.02169
3168.93,0.02234
3145.78,0.02204
3122.64,0.02186
3099.49,0.02214
3076.35,0.02230
3053.2,0.02262
3030.06,0.02183
3006.91,0.02209
2983.77,0.02142
2960.62,0.02010
2937.48,0.02109
2914.33,0.02154
2891.19,0.02167
2868.04,0.02155
2844.9,0.02292
2821.75,0.02314
2798.61,0.02309
2775.46,0.02271
2752.32,0.02305
2729.17,0.02309
2706.03,0.02274
2682.88,0.02318
2659.74,0.02292
2636.59,0.02298
2613.45,0.02303
2590.3,0.02290
2567.16,0.02313
2544.02,0.02289
2520.87,0.02297
2497.73,0.02303
2474.58,0.02264
2451.44,0.02310
2428.29,0.02306
2405.15,0.02306
2382,0.02297
2358.86,0.02295
2335.71,0.02298
2312.57,0.02322
2289.42,0.02298
2266.28,0.02310
2243.13,0.02305
2219.99,0.02300
2196.84,0.02267
2173.7,0.02303
2150.55,0.02252
2127.41,0.02256
2104.26,0.02263
2081.12,0.02264
2057.97,0.02264
2034.83,0.02274
2011.68,0.02283
1988.54,0.02248
1965.39,0.02304
1942.25,0.02302
1919.1,0.02245
1895.96,0.02268
1872.81,0.02245
1849.67,0.02230
1826.52,0.02223
1803.38,0.02160
1780.23,0.02105
1757.09,0.01973
1733.94,0.02129
1710.8,0.02240
1687.65,0.02104
1664.51,0.02057
1641.36,0.02046
1618.22,0.02053
1595.07,0.02069
1571.93,0.02004
1548.78,0.02042
1525.64,0.02063
1502.49,0.02019
1479.35,0.01984
1456.2,0.01992
1433.06,0.02017
1409.91,0.02013
1386.77,0.01961
1363.62,0.01985
1340.48,0.01930
1317.33,0.01824
1294.19,0.01936
1271.04,0.02101
1247.9,0.02183
1224.75,0.02126
1201.61,0.02029
1178.46,0.02010
1155.32,0.01921
1132.17,0.01986
1109.03,0.02036
1085.88,0.02015
1062.74,0.02129
1039.59,0.02105
1016.45,0.02143
993.304,0.02310
970.159,0.02202
947.014,0.02225
923.869,0.02246
900.724,0.02127
877.579,0.02064
854.434,0.02016
831.289,0.02065
808.144,0.02102
784.999,0.01988
761.854,0.01977
738.709,0.02012
715.565,0.02033
692.42,0.01903
669.275,0.01849
646.13,0.01884
622.985,0.01772
599.84,0.01771