File: 01_Data/Concrete_Block/FTIR/IS/Concrete_Block_IS_S_221214_R3.dpt
7497.03,0.27148
7473.89,0.27434
7450.74,0.27767
7427.6,0.28965
7404.45,0.28621
7381.31,0.27318
7358.16,0.27551
7335.02,0.26854
7311.87,0.27455
7288.73,0.26895
7265.58,0.27799
7242.44,0.27838
7219.29,0.28040
7196.15,0.27134
7173,0.27397
7149.86,0.27860
7126.71,0.27462
7103.57,0.26865
7080.42,0.26771
7057.28,0.27445
7034.13,0.27239
7010.99,0.27360
6987.84,0.27424
6964.7,0.27747
6941.55,0.27424
6918.41,0.27587
6895.26,0.27285
6872.12,0.27410
6848.97,0.27063
6825.83,0.27445
6802.68,0.27386
6779.54,0.27391
6756.39,0.27338
6733.25,0.27213
6710.1,0.27695
6686.96,0.27132
6663.82,0.27468
6640.67,0.27046
6617.53,0.27748
6594.38,0.27143
6571.24,0.27800
6548.09,0.27914
6524.95,0.26916
6501.8,0.27458
6478.66,0.27665
6455.51,0.27754
6432.37,0.27836
6409.22,0.27517
6386.08,0.27600
6362.93,0.27273
6339.79,0.27410
6316.64,0.27527
6293.5,0.27801
6270.35,0.27598
6247.21,0.27592
6224.06,0.27554
6200.92,0.27108
6177.77,0.27233
6154.63,0.27459
6131.48,0.27699
6108.34,0.27401
6085.19,0.27329
6062.05,0.27573
6038.9,0.27616
6015.76,0.27426
5992.61,0.27354
5969.47,0.27484
5946.32,0.27615
5923.18,0.27480
5900.03,0.27415
5876.89,0.27351
5853.74,0.27582
5830.6,0.27518
5807.45,0.27548
5784.31,0.27500
5761.16,0.27371
5738.02,0.27397
5714.87,0.27286
5691.73,0.27608
5668.58,0.27192
5645.44,0.27409
5622.29,0.27332
5599.15,0.27423
5576,0.27432
5552.86,0.27180
5529.71,0.27377
5506.57,0.27296
5483.42,0.27049
5460.28,0.27233
5437.13,0.27312
5413.99,0.27048
5390.84,0.27028
5367.7,0.26922
5344.55,0.26863
5321.41,0.26602
5298.26,0.26474
5275.12,0.26153
5251.97,0.25595
5228.83,0.25135
5205.68,0.25041
5182.54,0.24709
5159.39,0.24846
5136.25,0.24843
5113.1,0.25017
5089.96,0.25168
5066.81,0.25355
5043.67,0.25469
5020.52,0.25510
4997.38,0.25724
4974.23,0.25835
4951.09,0.25814
4927.94,0.25886
4904.8,0.25894
4881.65,0.26100
4858.51,0.26133
4835.36,0.26098
4812.22,0.26225
4789.07,0.26147
4765.93,0.26092
4742.78,0.26131
4719.64,0.26146
4696.49,0.26049
4673.35,0.25995
4650.2,0.25936
4627.06,0.25747
4603.92,0.25854
4580.77,0.25752
4557.63,0.25710
4534.48,0.25294
4511.34,0.25104
4488.19,0.24977
4465.05,0.24966
4441.9,0.24792
4418.76,0.24558
4395.61,0.24349
4372.47,0.24096
4349.32,0.23866
4326.18,0.23551
4303.03,0.23285
4279.89,0.23321
4256.74,0.23745
4233.6,0.24215
4210.45,0.24290
4187.31,0.24117
4164.16,0.23857
4141.02,0.23621
4117.87,0.22964
4094.73,0.22420
4071.58,0.21885
4048.44,0.21373
4025.29,0.20890
4002.15,0.20297
3979,0.19925
3955.86,0.19862
3932.71,0.20579
3909.57,0.21654
3886.42,0.22000
3863.28,0.22010
3840.13,0.21902
3816.99,0.21731
3793.84,0.21415
3770.7,0.20838
3747.55,0.19789
3724.41,0.17272
3701.26,0.12922
3678.12,0.11718
3654.97,0.09331
3631.83,0.07926
3608.68,0.07110
3585.54,0.07045
3562.39,0.06830
3539.25,0.06626
3516.1,0.06465
3492.96,0.06325
3469.81,0.06273
3446.67,0.06167
3423.52,0.06035
3400.38,0.05946
3377.23,0.05968
3354.09,0.06090
3330.94,0.06248
3307.8,0.06307
3284.65,0.06330
3261.51,0.06475
3238.36,0.06566
3215.22,0.06671
3192.07,0.06804
3168.93,0.07152
3145.78,0.07373
3122.64,0.07570
3099.49,0.07764
3076.35,0.07858
3053.2,0.07902
3030.06,0.07205
3006.91,0.07116
2983.77,0.06693
2960.62,0.06970
2937.48,0.06900
2914.33,0.06885
2891.19,0.06725
2868.04,0.06800
2844.9,0.08254
2821.75,0.09824
2798.61,0.10527
2775.46,0.11158
2752.32,0.11513
2729.17,0.11653
2706.03,0.11671
2682.88,0.11449
2659.74,0.10286
2636.59,0.08966
2613.45,0.08427
2590.3,0.07786
2567.16,0.07384
2544.02,0.06599
2520.87,0.05635
2497.73,0.07112
2474.58,0.09628
2451.44,0.11052
2428.29,0.11615
2405.15,0.11761
2382,0.11896
2358.86,0.11620
2335.71,0.11327
2312.57,0.11237
2289.42,0.11325
2266.28,0.10678
2243.13,0.10295
2219.99,0.10205
2196.84,0.09914
2173.7,0.09392
2150.55,0.08925
2127.41,0.09525
2104.26,0.10119
2081.12,0.10047
2057.97,0.09882
2034.83,0.09331
2011.68,0.09001
1988.54,0.08684
1965.39,0.08362
1942.25,0.08323
1919.1,0.07836
1895.96,0.07143
1872.81,0.06566
1849.67,0.06175
1826.52,0.04839
1803.38,0.03956
1780.23,0.04506
1757.09,0.04704
1733.94,0.04442
1710.8,0.04264
1687.65,0.03878
1664.51,0.03721
1641.36,0.03754
1618.22,0.04395
1595.07,0.05944
1571.93,0.10962
1548.78,0.12060
1525.64,0.10848
1502.49,0.09886
1479.35,0.09248
1456.2,0.08866
1433.06,0.08788
1409.91,0.08141
1386.77,0.07131
1363.62,0.07637
1340.48,0.08300
1317.33,0.08643
1294.19,0.08897
1271.04,0.09122
1247.9,0.09330
1224.75,0.09551
1201.61,0.08577
1178.46,0.07373
1155.32,0.06693
1132.17,0.06994
1109.03,0.06919
1085.88,0.06840
1062.74,0.06161
1039.59,0.05283
1016.45,0.05038
993.304,0.04998
970.159,0.05367
947.014,0.05693
923.869,0.05799
900.724,0.07265
877.579,0.05878
854.434,0.05266
831.289,0.05139
808.144,0.05087
784.999,0.05130
761.854,0.04712
738.709,0.03974
715.565,0.03772
692.42,0.04162
669.275,0.04132
646.13,0.03680
622.985,0.03519
599.84,0.03525