File: 01_Data/Concrete_Block/FTIR/IS/Concrete_Block_IS_S_221214_R2.dpt
7497.03,0.27788
7473.89,0.28020
7450.74,0.27698
7427.6,0.27538
7404.45,0.27078
7381.31,0.28019
7358.16,0.27338
7335.02,0.27682
7311.87,0.27401
7288.73,0.26705
7265.58,0.28595
7242.44,0.27784
7219.29,0.27341
7196.15,0.27575
7173,0.27299
7149.86,0.26984
7126.71,0.26696
7103.57,0.27528
7080.42,0.27661
7057.28,0.27365
7034.13,0.27562
7010.99,0.27125
6987.84,0.26722
6964.7,0.27071
6941.55,0.27187
6918.41,0.27722
6895.26,0.26988
6872.12,0.27006
6848.97,0.27427
6825.83,0.27520
6802.68,0.27237
6779.54,0.27346
6756.39,0.27605
6733.25,0.26677
6710.1,0.27551
6686.96,0.26875
6663.82,0.27762
6640.67,0.27330
6617.53,0.26923
6594.38,0.27578
6571.24,0.27743
6548.09,0.28042
6524.95,0.27552
6501.8,0.27674
6478.66,0.27170
6455.51,0.27491
6432.37,0.27702
6409.22,0.27521
6386.08,0.27147
6362.93,0.27746
6339.79,0.27604
6316.64,0.27565
6293.5,0.27429
6270.35,0.27790
6247.21,0.27497
6224.06,0.27428
6200.92,0.27540
6177.77,0.27820
6154.63,0.27531
6131.48,0.27304
6108.34,0.27524
6085.19,0.27275
6062.05,0.27700
6038.9,0.27475
6015.76,0.27362
5992.61,0.27721
5969.47,0.27607
5946.32,0.27540
5923.18,0.27468
5900.03,0.27380
5876.89,0.27258
5853.74,0.27299
5830.6,0.27400
5807.45,0.27425
5784.31,0.27376
5761.16,0.27491
5738.02,0.27345
5714.87,0.27387
5691.73,0.27138
5668.58,0.27324
5645.44,0.27328
5622.29,0.27198
5599.15,0.27500
5576,0.27237
5552.86,0.27009
5529.71,0.27246
5506.57,0.27329
5483.42,0.27271
5460.28,0.26983
5437.13,0.27141
5413.99,0.27097
5390.84,0.26920
5367.7,0.26860
5344.55,0.26794
5321.41,0.26659
5298.26,0.26219
5275.12,0.26003
5251.97,0.25542
5228.83,0.25046
5205.68,0.24934
5182.54,0.24823
5159.39,0.24726
5136.25,0.24873
5113.1,0.24993
5089.96,0.25032
5066.81,0.25266
5043.67,0.25376
5020.52,0.25336
4997.38,0.25611
4974.23,0.25725
4951.09,0.25837
4927.94,0.25952
4904.8,0.26053
4881.65,0.26019
4858.51,0.26039
4835.36,0.26046
4812.22,0.26139
4789.07,0.26069
4765.93,0.26113
4742.78,0.26120
4719.64,0.26049
4696.49,0.25946
4673.35,0.25989
4650.2,0.25919
4627.06,0.25880
4603.92,0.25769
4580.77,0.25672
4557.63,0.25478
4534.48,0.25357
4511.34,0.25115
4488.19,0.25012
4465.05,0.24908
4441.9,0.24806
4418.76,0.24541
4395.61,0.24278
4372.47,0.24108
4349.32,0.23826
4326.18,0.23623
4303.03,0.23149
4279.89,0.23283
4256.74,0.23776
4233.6,0.24201
4210.45,0.24336
4187.31,0.24028
4164.16,0.23823
4141.02,0.23472
4117.87,0.22961
4094.73,0.22399
4071.58,0.21783
4048.44,0.21269
4025.29,0.20845
4002.15,0.20346
3979,0.19935
3955.86,0.19812
3932.71,0.20497
3909.57,0.21529
3886.42,0.21979
3863.28,0.21937
3840.13,0.21895
3816.99,0.21721
3793.84,0.21327
3770.7,0.20789
3747.55,0.19726
3724.41,0.17290
3701.26,0.12880
3678.12,0.11704
3654.97,0.09430
3631.83,0.07807
3608.68,0.07113
3585.54,0.06951
3562.39,0.06781
3539.25,0.06661
3516.1,0.06456
3492.96,0.06354
3469.81,0.06171
3446.67,0.06127
3423.52,0.05984
3400.38,0.05944
3377.23,0.05919
3354.09,0.06147
3330.94,0.06108
3307.8,0.06208
3284.65,0.06297
3261.51,0.06408
3238.36,0.06448
3215.22,0.06607
3192.07,0.06888
3168.93,0.07020
3145.78,0.07307
3122.64,0.07554
3099.49,0.07674
3076.35,0.07822
3053.2,0.07817
3030.06,0.07231
3006.91,0.07104
2983.77,0.06646
2960.62,0.06932
2937.48,0.06893
2914.33,0.06829
2891.19,0.06636
2868.04,0.06746
2844.9,0.08229
2821.75,0.09757
2798.61,0.10550
2775.46,0.11131
2752.32,0.11475
2729.17,0.11659
2706.03,0.11644
2682.88,0.11402
2659.74,0.10283
2636.59,0.08958
2613.45,0.08413
2590.3,0.07755
2567.16,0.07328
2544.02,0.06570
2520.87,0.05652
2497.73,0.07136
2474.58,0.09623
2451.44,0.11078
2428.29,0.11552
2405.15,0.11722
2382,0.11794
2358.86,0.11548
2335.71,0.11304
2312.57,0.11192
2289.42,0.11252
2266.28,0.10660
2243.13,0.10271
2219.99,0.10138
2196.84,0.09878
2173.7,0.09385
2150.55,0.08885
2127.41,0.09527
2104.26,0.10081
2081.12,0.10031
2057.97,0.09861
2034.83,0.09290
2011.68,0.08964
1988.54,0.08630
1965.39,0.08306
1942.25,0.08236
1919.1,0.07846
1895.96,0.07098
1872.81,0.06579
1849.67,0.06120
1826.52,0.04820
1803.38,0.03967
1780.23,0.04499
1757.09,0.04702
1733.94,0.04413
1710.8,0.04198
1687.65,0.03843
1664.51,0.03677
1641.36,0.03760
1618.22,0.04388
1595.07,0.05947
1571.93,0.10968
1548.78,0.12025
1525.64,0.10837
1502.49,0.09847
1479.35,0.09261
1456.2,0.08853
1433.06,0.08736
1409.91,0.08133
1386.77,0.07102
1363.62,0.07642
1340.48,0.08246
1317.33,0.08603
1294.19,0.08896
1271.04,0.09132
1247.9,0.09311
1224.75,0.09554
1201.61,0.08615
1178.46,0.07398
1155.32,0.06704
1132.17,0.07001
1109.03,0.06855
1085.88,0.06811
1062.74,0.06181
1039.59,0.05336
1016.45,0.05003
993.304,0.05008
970.159,0.05240
947.014,0.05714
923.869,0.05818
900.724,0.07250
877.579,0.05798
854.434,0.05220
831.289,0.05071
808.144,0.05023
784.999,0.05226
761.854,0.04768
738.709,0.04008
715.565,0.03744
692.42,0.04302
669.275,0.04094
646.13,0.03880
622.985,0.03497
599.84,0.03356