File: 01_Data/Concrete_Block/FTIR/IS/Concrete_Block_IS_S_221214_R1.dpt
7497.03,0.26596
7473.89,0.27284
7450.74,0.28289
7427.6,0.28162
7404.45,0.26955
7381.31,0.28395
7358.16,0.27519
7335.02,0.27264
7311.87,0.28137
7288.73,0.28134
7265.58,0.27287
7242.44,0.27050
7219.29,0.28552
7196.15,0.27425
7173,0.27144
7149.86,0.27465
7126.71,0.27499
7103.57,0.26529
7080.42,0.27383
7057.28,0.26659
7034.13,0.27371
7010.99,0.27818
6987.84,0.27456
6964.7,0.27511
6941.55,0.27360
6918.41,0.27360
6895.26,0.27632
6872.12,0.26981
6848.97,0.27550
6825.83,0.27018
6802.68,0.27224
6779.54,0.26961
6756.39,0.27173
6733.25,0.27265
6710.1,0.26735
6686.96,0.27781
6663.82,0.27539
6640.67,0.27706
6617.53,0.27057
6594.38,0.27373
6571.24,0.27286
6548.09,0.27254
6524.95,0.27230
6501.8,0.27672
6478.66,0.27414
6455.51,0.27343
6432.37,0.27492
6409.22,0.27502
6386.08,0.27515
6362.93,0.27271
6339.79,0.27197
6316.64,0.27616
6293.5,0.27224
6270.35,0.27514
6247.21,0.27530
6224.06,0.27248
6200.92,0.27546
6177.77,0.27408
6154.63,0.27551
6131.48,0.27683
6108.34,0.27383
6085.19,0.27641
6062.05,0.27224
6038.9,0.27401
6015.76,0.27118
5992.61,0.27616
5969.47,0.27298
5946.32,0.27424
5923.18,0.27580
5900.03,0.27272
5876.89,0.27481
5853.74,0.27503
5830.6,0.27397
5807.45,0.27327
5784.31,0.27330
5761.16,0.27409
5738.02,0.27308
5714.87,0.27152
5691.73,0.27302
5668.58,0.27400
5645.44,0.27157
5622.29,0.27258
5599.15,0.27293
5576,0.27326
5552.86,0.27153
5529.71,0.27246
5506.57,0.27400
5483.42,0.27008
5460.28,0.27048
5437.13,0.27146
5413.99,0.27049
5390.84,0.27248
5367.7,0.26942
5344.55,0.26742
5321.41,0.26696
5298.26,0.26306
5275.12,0.26063
5251.97,0.25426
5228.83,0.25076
5205.68,0.24639
5182.54,0.24514
5159.39,0.24742
5136.25,0.24758
5113.1,0.24960
5089.96,0.25125
5066.81,0.24996
5043.67,0.25295
5020.52,0.25362
4997.38,0.25489
4974.23,0.25675
4951.09,0.25768
4927.94,0.25867
4904.8,0.25917
4881.65,0.26144
4858.51,0.26024
4835.36,0.25983
4812.22,0.26032
4789.07,0.26129
4765.93,0.26072
4742.78,0.26098
4719.64,0.26172
4696.49,0.26080
4673.35,0.26067
4650.2,0.25818
4627.06,0.25786
4603.92,0.25714
4580.77,0.25722
4557.63,0.25550
4534.48,0.25245
4511.34,0.25084
4488.19,0.24966
4465.05,0.24922
4441.9,0.24824
4418.76,0.24507
4395.61,0.24327
4372.47,0.24107
4349.32,0.23792
4326.18,0.23451
4303.03,0.23192
4279.89,0.23120
4256.74,0.23734
4233.6,0.24154
4210.45,0.24254
4187.31,0.24045
4164.16,0.23744
4141.02,0.23487
4117.87,0.22926
4094.73,0.22351
4071.58,0.21748
4048.44,0.21312
4025.29,0.20846
4002.15,0.20208
3979,0.19874
3955.86,0.19804
3932.71,0.20487
3909.57,0.21553
3886.42,0.21854
3863.28,0.21892
3840.13,0.21874
3816.99,0.21662
3793.84,0.21306
3770.7,0.20726
3747.55,0.19711
3724.41,0.17350
3701.26,0.12833
3678.12,0.11658
3654.97,0.09394
3631.83,0.07784
3608.68,0.07096
3585.54,0.06986
3562.39,0.06757
3539.25,0.06617
3516.1,0.06459
3492.96,0.06204
3469.81,0.06167
3446.67,0.06014
3423.52,0.05949
3400.38,0.05886
3377.23,0.05958
3354.09,0.05958
3330.94,0.06077
3307.8,0.06271
3284.65,0.06204
3261.51,0.06351
3238.36,0.06525
3215.22,0.06584
3192.07,0.06821
3168.93,0.07041
3145.78,0.07311
3122.64,0.07462
3099.49,0.07663
3076.35,0.07783
3053.2,0.07801
3030.06,0.07174
3006.91,0.07041
2983.77,0.06671
2960.62,0.06928
2937.48,0.06913
2914.33,0.06845
2891.19,0.06677
2868.04,0.06751
2844.9,0.08193
2821.75,0.09760
2798.61,0.10510
2775.46,0.11066
2752.32,0.11444
2729.17,0.11601
2706.03,0.11638
2682.88,0.11396
2659.74,0.10234
2636.59,0.08960
2613.45,0.08385
2590.3,0.07784
2567.16,0.07352
2544.02,0.06537
2520.87,0.05662
2497.73,0.07115
2474.58,0.09622
2451.44,0.11022
2428.29,0.11542
2405.15,0.11682
2382,0.11827
2358.86,0.11529
2335.71,0.11268
2312.57,0.11184
2289.42,0.11239
2266.28,0.10607
2243.13,0.10218
2219.99,0.10133
2196.84,0.09822
2173.7,0.09309
2150.55,0.08872
2127.41,0.09450
2104.26,0.10021
2081.12,0.09976
2057.97,0.09776
2034.83,0.09327
2011.68,0.08943
1988.54,0.08650
1965.39,0.08304
1942.25,0.08209
1919.1,0.07838
1895.96,0.07138
1872.81,0.06602
1849.67,0.06146
1826.52,0.04826
1803.38,0.03963
1780.23,0.04514
1757.09,0.04683
1733.94,0.04433
1710.8,0.04242
1687.65,0.03869
1664.51,0.03683
1641.36,0.03748
1618.22,0.04428
1595.07,0.05899
1571.93,0.10943
1548.78,0.12010
1525.64,0.10866
1502.49,0.09878
1479.35,0.09267
1456.2,0.08831
1433.06,0.08782
1409.91,0.08139
1386.77,0.07085
1363.62,0.07626
1340.48,0.08282
1317.33,0.08636
1294.19,0.08880
1271.04,0.09144
1247.9,0.09290
1224.75,0.09577
1201.61,0.08629
1178.46,0.07369
1155.32,0.06732
1132.17,0.07007
1109.03,0.06880
1085.88,0.06778
1062.74,0.06162
1039.59,0.05316
1016.45,0.05020
993.304,0.05048
970.159,0.05232
947.014,0.05734
923.869,0.05838
900.724,0.07245
877.579,0.05868
854.434,0.05233
831.289,0.05080
808.144,0.05008
784.999,0.05091
761.854,0.04717
738.709,0.03939
715.565,0.03796
692.42,0.04198
669.275,0.04036
646.13,0.03790
622.985,0.03644
599.84,0.03373