File: 01_Data/Concrete_Block/FTIR/IS/Concrete_Block_IS_S_221214_R4.dpt
7497.03,0.27616
7473.89,0.28476
7450.74,0.27193
7427.6,0.28209
7404.45,0.27833
7381.31,0.27198
7358.16,0.27335
7335.02,0.27336
7311.87,0.27659
7288.73,0.27556
7265.58,0.27154
7242.44,0.27796
7219.29,0.28119
7196.15,0.27824
7173,0.27716
7149.86,0.27581
7126.71,0.27206
7103.57,0.27308
7080.42,0.27109
7057.28,0.26873
7034.13,0.27153
7010.99,0.27152
6987.84,0.27515
6964.7,0.27153
6941.55,0.27332
6918.41,0.28029
6895.26,0.27338
6872.12,0.27705
6848.97,0.27471
6825.83,0.27373
6802.68,0.26905
6779.54,0.27523
6756.39,0.26952
6733.25,0.27186
6710.1,0.26585
6686.96,0.27363
6663.82,0.28122
6640.67,0.27741
6617.53,0.27316
6594.38,0.27273
6571.24,0.27687
6548.09,0.27212
6524.95,0.27549
6501.8,0.26999
6478.66,0.27453
6455.51,0.27186
6432.37,0.27472
6409.22,0.27224
6386.08,0.27150
6362.93,0.27271
6339.79,0.27441
6316.64,0.27326
6293.5,0.27594
6270.35,0.27674
6247.21,0.27620
6224.06,0.27508
6200.92,0.27453
6177.77,0.27169
6154.63,0.27416
6131.48,0.27747
6108.34,0.27479
6085.19,0.27525
6062.05,0.27289
6038.9,0.27542
6015.76,0.27283
5992.61,0.27434
5969.47,0.27340
5946.32,0.27375
5923.18,0.27632
5900.03,0.27403
5876.89,0.27407
5853.74,0.27502
5830.6,0.27514
5807.45,0.27345
5784.31,0.27478
5761.16,0.27409
5738.02,0.27287
5714.87,0.27386
5691.73,0.27472
5668.58,0.27204
5645.44,0.27304
5622.29,0.27281
5599.15,0.27414
5576,0.27150
5552.86,0.27161
5529.71,0.27250
5506.57,0.27177
5483.42,0.27268
5460.28,0.27220
5437.13,0.27285
5413.99,0.27238
5390.84,0.27096
5367.7,0.27118
5344.55,0.26892
5321.41,0.26740
5298.26,0.26580
5275.12,0.26276
5251.97,0.25561
5228.83,0.25086
5205.68,0.24767
5182.54,0.24735
5159.39,0.24924
5136.25,0.24830
5113.1,0.25128
5089.96,0.25239
5066.81,0.25331
5043.67,0.25486
5020.52,0.25480
4997.38,0.25569
4974.23,0.25671
4951.09,0.25900
4927.94,0.26046
4904.8,0.26026
4881.65,0.26064
4858.51,0.26072
4835.36,0.26183
4812.22,0.26090
4789.07,0.26210
4765.93,0.26172
4742.78,0.26158
4719.64,0.26178
4696.49,0.26099
4673.35,0.26003
4650.2,0.25976
4627.06,0.25908
4603.92,0.25776
4580.77,0.25732
4557.63,0.25557
4534.48,0.25297
4511.34,0.25128
4488.19,0.24978
4465.05,0.25004
4441.9,0.24816
4418.76,0.24612
4395.61,0.24346
4372.47,0.24148
4349.32,0.23795
4326.18,0.23574
4303.03,0.23285
4279.89,0.23255
4256.74,0.23788
4233.6,0.24252
4210.45,0.24347
4187.31,0.24173
4164.16,0.23880
4141.02,0.23586
4117.87,0.23048
4094.73,0.22461
4071.58,0.21858
4048.44,0.21336
4025.29,0.20921
4002.15,0.20421
3979,0.19970
3955.86,0.19879
3932.71,0.20573
3909.57,0.21570
3886.42,0.21994
3863.28,0.22023
3840.13,0.22015
3816.99,0.21752
3793.84,0.21387
3770.7,0.20866
3747.55,0.19715
3724.41,0.17322
3701.26,0.12953
3678.12,0.11760
3654.97,0.09426
3631.83,0.07903
3608.68,0.07177
3585.54,0.06995
3562.39,0.06854
3539.25,0.06659
3516.1,0.06488
3492.96,0.06420
3469.81,0.06236
3446.67,0.06146
3423.52,0.06048
3400.38,0.05952
3377.23,0.06059
3354.09,0.06111
3330.94,0.06177
3307.8,0.06293
3284.65,0.06377
3261.51,0.06536
3238.36,0.06630
3215.22,0.06640
3192.07,0.06904
3168.93,0.07152
3145.78,0.07407
3122.64,0.07628
3099.49,0.07757
3076.35,0.07900
3053.2,0.07872
3030.06,0.07236
3006.91,0.07154
2983.77,0.06599
2960.62,0.06980
2937.48,0.06933
2914.33,0.06864
2891.19,0.06685
2868.04,0.06806
2844.9,0.08301
2821.75,0.09802
2798.61,0.10611
2775.46,0.11209
2752.32,0.11524
2729.17,0.11674
2706.03,0.11666
2682.88,0.11436
2659.74,0.10295
2636.59,0.08961
2613.45,0.08419
2590.3,0.07806
2567.16,0.07329
2544.02,0.06571
2520.87,0.05637
2497.73,0.07079
2474.58,0.09659
2451.44,0.11048
2428.29,0.11593
2405.15,0.11754
2382,0.11898
2358.86,0.11662
2335.71,0.11303
2312.57,0.11213
2289.42,0.11299
2266.28,0.10673
2243.13,0.10294
2219.99,0.10187
2196.84,0.09947
2173.7,0.09414
2150.55,0.08936
2127.41,0.09540
2104.26,0.10108
2081.12,0.10058
2057.97,0.09883
2034.83,0.09347
2011.68,0.08990
1988.54,0.08675
1965.39,0.08359
1942.25,0.08302
1919.1,0.07828
1895.96,0.07129
1872.81,0.06591
1849.67,0.06162
1826.52,0.04813
1803.38,0.03989
1780.23,0.04501
1757.09,0.04695
1733.94,0.04447
1710.8,0.04224
1687.65,0.03844
1664.51,0.03714
1641.36,0.03754
1618.22,0.04456
1595.07,0.05943
1571.93,0.10968
1548.78,0.12028
1525.64,0.10844
1502.49,0.09872
1479.35,0.09253
1456.2,0.08897
1433.06,0.08748
1409.91,0.08133
1386.77,0.07101
1363.62,0.07626
1340.48,0.08295
1317.33,0.08609
1294.19,0.08916
1271.04,0.09155
1247.9,0.09312
1224.75,0.09550
1201.61,0.08610
1178.46,0.07379
1155.32,0.06736
1132.17,0.07023
1109.03,0.06872
1085.88,0.06875
1062.74,0.06182
1039.59,0.05272
1016.45,0.04989
993.304,0.05024
970.159,0.05289
947.014,0.05722
923.869,0.05839
900.724,0.07250
877.579,0.05818
854.434,0.05251
831.289,0.05123
808.144,0.05010
784.999,0.05198
761.854,0.04677
738.709,0.03969
715.565,0.03761
692.42,0.04182
669.275,0.04003
646.13,0.03912
622.985,0.03675
599.84,0.03230