File: 01_Data/Concrete_Block/FTIR/IS/Concrete_Block_IS_S_221214_R5.dpt
7497.03,0.26903
7473.89,0.27519
7450.74,0.27225
7427.6,0.28153
7404.45,0.27733
7381.31,0.26575
7358.16,0.28513
7335.02,0.28150
7311.87,0.28023
7288.73,0.28418
7265.58,0.28170
7242.44,0.27810
7219.29,0.27062
7196.15,0.27493
7173,0.27546
7149.86,0.27772
7126.71,0.27406
7103.57,0.27009
7080.42,0.26564
7057.28,0.27678
7034.13,0.27034
7010.99,0.27049
6987.84,0.27108
6964.7,0.27331
6941.55,0.27478
6918.41,0.27327
6895.26,0.27064
6872.12,0.27489
6848.97,0.27571
6825.83,0.27468
6802.68,0.27096
6779.54,0.27538
6756.39,0.28103
6733.25,0.27671
6710.1,0.27388
6686.96,0.27562
6663.82,0.26969
6640.67,0.27393
6617.53,0.27390
6594.38,0.27733
6571.24,0.27699
6548.09,0.27543
6524.95,0.27431
6501.8,0.27404
6478.66,0.27359
6455.51,0.27576
6432.37,0.27580
6409.22,0.27802
6386.08,0.27522
6362.93,0.27470
6339.79,0.27585
6316.64,0.27529
6293.5,0.27578
6270.35,0.27864
6247.21,0.27692
6224.06,0.27687
6200.92,0.27788
6177.77,0.27645
6154.63,0.27965
6131.48,0.27434
6108.34,0.27592
6085.19,0.27406
6062.05,0.27691
6038.9,0.27513
6015.76,0.27605
5992.61,0.27502
5969.47,0.27313
5946.32,0.27545
5923.18,0.27501
5900.03,0.27372
5876.89,0.27891
5853.74,0.27452
5830.6,0.27669
5807.45,0.27442
5784.31,0.27724
5761.16,0.27581
5738.02,0.27239
5714.87,0.27576
5691.73,0.27265
5668.58,0.27557
5645.44,0.27522
5622.29,0.27369
5599.15,0.27496
5576,0.27444
5552.86,0.27483
5529.71,0.27218
5506.57,0.27392
5483.42,0.27319
5460.28,0.27398
5437.13,0.27221
5413.99,0.27176
5390.84,0.27335
5367.7,0.27245
5344.55,0.26904
5321.41,0.26675
5298.26,0.26662
5275.12,0.26224
5251.97,0.25704
5228.83,0.25146
5205.68,0.24990
5182.54,0.24854
5159.39,0.24800
5136.25,0.25058
5113.1,0.25261
5089.96,0.25357
5066.81,0.25358
5043.67,0.25501
5020.52,0.25634
4997.38,0.25799
4974.23,0.26001
4951.09,0.26122
4927.94,0.26044
4904.8,0.26117
4881.65,0.26224
4858.51,0.26209
4835.36,0.26134
4812.22,0.26205
4789.07,0.26237
4765.93,0.26289
4742.78,0.26256
4719.64,0.26335
4696.49,0.26144
4673.35,0.26171
4650.2,0.26070
4627.06,0.25966
4603.92,0.25963
4580.77,0.25891
4557.63,0.25764
4534.48,0.25460
4511.34,0.25217
4488.19,0.25079
4465.05,0.25124
4441.9,0.25035
4418.76,0.24691
4395.61,0.24408
4372.47,0.24268
4349.32,0.24031
4326.18,0.23709
4303.03,0.23451
4279.89,0.23439
4256.74,0.23866
4233.6,0.24390
4210.45,0.24542
4187.31,0.24321
4164.16,0.24067
4141.02,0.23665
4117.87,0.23187
4094.73,0.22541
4071.58,0.21967
4048.44,0.21521
4025.29,0.21056
4002.15,0.20452
3979,0.20070
3955.86,0.19975
3932.71,0.20688
3909.57,0.21709
3886.42,0.22092
3863.28,0.22095
3840.13,0.22034
3816.99,0.21883
3793.84,0.21477
3770.7,0.20979
3747.55,0.19819
3724.41,0.17419
3701.26,0.12991
3678.12,0.11783
3654.97,0.09521
3631.83,0.07934
3608.68,0.07179
3585.54,0.07078
3562.39,0.06971
3539.25,0.06678
3516.1,0.06519
3492.96,0.06391
3469.81,0.06263
3446.67,0.06164
3423.52,0.06076
3400.38,0.06008
3377.23,0.06078
3354.09,0.06170
3330.94,0.06212
3307.8,0.06359
3284.65,0.06415
3261.51,0.06477
3238.36,0.06613
3215.22,0.06737
3192.07,0.06980
3168.93,0.07162
3145.78,0.07498
3122.64,0.07640
3099.49,0.07878
3076.35,0.07917
3053.2,0.07893
3030.06,0.07314
3006.91,0.07175
2983.77,0.06697
2960.62,0.06966
2937.48,0.07007
2914.33,0.06930
2891.19,0.06744
2868.04,0.06852
2844.9,0.08284
2821.75,0.09818
2798.61,0.10627
2775.46,0.11206
2752.32,0.11549
2729.17,0.11722
2706.03,0.11757
2682.88,0.11509
2659.74,0.10388
2636.59,0.09002
2613.45,0.08474
2590.3,0.07860
2567.16,0.07386
2544.02,0.06597
2520.87,0.05655
2497.73,0.07142
2474.58,0.09665
2451.44,0.11096
2428.29,0.11628
2405.15,0.11890
2382,0.11920
2358.86,0.11666
2335.71,0.11427
2312.57,0.11302
2289.42,0.11451
2266.28,0.10752
2243.13,0.10391
2219.99,0.10300
2196.84,0.09965
2173.7,0.09430
2150.55,0.08970
2127.41,0.09599
2104.26,0.10183
2081.12,0.10140
2057.97,0.09947
2034.83,0.09410
2011.68,0.09029
1988.54,0.08737
1965.39,0.08395
1942.25,0.08319
1919.1,0.07863
1895.96,0.07159
1872.81,0.06644
1849.67,0.06184
1826.52,0.04850
1803.38,0.03973
1780.23,0.04538
1757.09,0.04710
1733.94,0.04472
1710.8,0.04236
1687.65,0.03817
1664.51,0.03706
1641.36,0.03750
1618.22,0.04441
1595.07,0.05975
1571.93,0.11034
1548.78,0.12102
1525.64,0.10925
1502.49,0.09942
1479.35,0.09344
1456.2,0.08918
1433.06,0.08811
1409.91,0.08142
1386.77,0.07140
1363.62,0.07647
1340.48,0.08323
1317.33,0.08689
1294.19,0.08921
1271.04,0.09208
1247.9,0.09313
1224.75,0.09606
1201.61,0.08630
1178.46,0.07433
1155.32,0.06745
1132.17,0.07007
1109.03,0.06906
1085.88,0.06810
1062.74,0.06231
1039.59,0.05334
1016.45,0.04985
993.304,0.05028
970.159,0.05245
947.014,0.05695
923.869,0.05849
900.724,0.07267
877.579,0.05888
854.434,0.05231
831.289,0.05133
808.144,0.05032
784.999,0.05217
761.854,0.04651
738.709,0.04030
715.565,0.03699
692.42,0.04163
669.275,0.04039
646.13,0.03816
622.985,0.03511
599.84,0.03232