File: 01_Data/Concrete_Block/FTIR/IS/Concrete_Block_IS_S_221214_R7.dpt
7497.03,0.27538
7473.89,0.27522
7450.74,0.28103
7427.6,0.27654
7404.45,0.27975
7381.31,0.27824
7358.16,0.27458
7335.02,0.27804
7311.87,0.26882
7288.73,0.27764
7265.58,0.27573
7242.44,0.27168
7219.29,0.27888
7196.15,0.26544
7173,0.27395
7149.86,0.27313
7126.71,0.27610
7103.57,0.27036
7080.42,0.26978
7057.28,0.28321
7034.13,0.26824
7010.99,0.27282
6987.84,0.27058
6964.7,0.27035
6941.55,0.27233
6918.41,0.27155
6895.26,0.27771
6872.12,0.27769
6848.97,0.26877
6825.83,0.27085
6802.68,0.27703
6779.54,0.27704
6756.39,0.26924
6733.25,0.27918
6710.1,0.27665
6686.96,0.27016
6663.82,0.27378
6640.67,0.27675
6617.53,0.27915
6594.38,0.27665
6571.24,0.27368
6548.09,0.27454
6524.95,0.27619
6501.8,0.28035
6478.66,0.27418
6455.51,0.27940
6432.37,0.27415
6409.22,0.27703
6386.08,0.28103
6362.93,0.27561
6339.79,0.27649
6316.64,0.27844
6293.5,0.27838
6270.35,0.27724
6247.21,0.27827
6224.06,0.27601
6200.92,0.27177
6177.77,0.27511
6154.63,0.27587
6131.48,0.27689
6108.34,0.27498
6085.19,0.27486
6062.05,0.27438
6038.9,0.27691
6015.76,0.27339
5992.61,0.27396
5969.47,0.27782
5946.32,0.27508
5923.18,0.27652
5900.03,0.27406
5876.89,0.27457
5853.74,0.27392
5830.6,0.27600
5807.45,0.27556
5784.31,0.27593
5761.16,0.27317
5738.02,0.27618
5714.87,0.27624
5691.73,0.27377
5668.58,0.27430
5645.44,0.27482
5622.29,0.27252
5599.15,0.27460
5576,0.27379
5552.86,0.27360
5529.71,0.27367
5506.57,0.27373
5483.42,0.27261
5460.28,0.27200
5437.13,0.27269
5413.99,0.27209
5390.84,0.27189
5367.7,0.27028
5344.55,0.26977
5321.41,0.26759
5298.26,0.26583
5275.12,0.26134
5251.97,0.25647
5228.83,0.25303
5205.68,0.24911
5182.54,0.24971
5159.39,0.24844
5136.25,0.25062
5113.1,0.25251
5089.96,0.25166
5066.81,0.25403
5043.67,0.25334
5020.52,0.25642
4997.38,0.25719
4974.23,0.25887
4951.09,0.26019
4927.94,0.26085
4904.8,0.26096
4881.65,0.26223
4858.51,0.26275
4835.36,0.26171
4812.22,0.26196
4789.07,0.26206
4765.93,0.26155
4742.78,0.26245
4719.64,0.26167
4696.49,0.26191
4673.35,0.26060
4650.2,0.26041
4627.06,0.25951
4603.92,0.25942
4580.77,0.25786
4557.63,0.25719
4534.48,0.25342
4511.34,0.25223
4488.19,0.25028
4465.05,0.25005
4441.9,0.24946
4418.76,0.24677
4395.61,0.24406
4372.47,0.24236
4349.32,0.23891
4326.18,0.23601
4303.03,0.23351
4279.89,0.23393
4256.74,0.23910
4233.6,0.24292
4210.45,0.24447
4187.31,0.24214
4164.16,0.23970
4141.02,0.23701
4117.87,0.23201
4094.73,0.22594
4071.58,0.21906
4048.44,0.21476
4025.29,0.20918
4002.15,0.20461
3979,0.20029
3955.86,0.19977
3932.71,0.20655
3909.57,0.21770
3886.42,0.22108
3863.28,0.22119
3840.13,0.22048
3816.99,0.21911
3793.84,0.21497
3770.7,0.20930
3747.55,0.19855
3724.41,0.17307
3701.26,0.12975
3678.12,0.11758
3654.97,0.09408
3631.83,0.07901
3608.68,0.07179
3585.54,0.07090
3562.39,0.06945
3539.25,0.06724
3516.1,0.06540
3492.96,0.06379
3469.81,0.06290
3446.67,0.06183
3423.52,0.06143
3400.38,0.06031
3377.23,0.06109
3354.09,0.06155
3330.94,0.06266
3307.8,0.06321
3284.65,0.06459
3261.51,0.06530
3238.36,0.06537
3215.22,0.06785
3192.07,0.07018
3168.93,0.07184
3145.78,0.07437
3122.64,0.07692
3099.49,0.07754
3076.35,0.07942
3053.2,0.07970
3030.06,0.07300
3006.91,0.07127
2983.77,0.06731
2960.62,0.07002
2937.48,0.06993
2914.33,0.06891
2891.19,0.06754
2868.04,0.06872
2844.9,0.08301
2821.75,0.09849
2798.61,0.10634
2775.46,0.11257
2752.32,0.11564
2729.17,0.11747
2706.03,0.11734
2682.88,0.11509
2659.74,0.10356
2636.59,0.09009
2613.45,0.08426
2590.3,0.07851
2567.16,0.07381
2544.02,0.06559
2520.87,0.05645
2497.73,0.07194
2474.58,0.09685
2451.44,0.11123
2428.29,0.11638
2405.15,0.11851
2382,0.11940
2358.86,0.11697
2335.71,0.11411
2312.57,0.11274
2289.42,0.11432
2266.28,0.10779
2243.13,0.10357
2219.99,0.10281
2196.84,0.10015
2173.7,0.09404
2150.55,0.08975
2127.41,0.09611
2104.26,0.10189
2081.12,0.10159
2057.97,0.09899
2034.83,0.09380
2011.68,0.09018
1988.54,0.08720
1965.39,0.08373
1942.25,0.08298
1919.1,0.07894
1895.96,0.07162
1872.81,0.06609
1849.67,0.06205
1826.52,0.04875
1803.38,0.04010
1780.23,0.04505
1757.09,0.04729
1733.94,0.04456
1710.8,0.04284
1687.65,0.03896
1664.51,0.03734
1641.36,0.03759
1618.22,0.04442
1595.07,0.05988
1571.93,0.10948
1548.78,0.12101
1525.64,0.10897
1502.49,0.09902
1479.35,0.09294
1456.2,0.08896
1433.06,0.08778
1409.91,0.08158
1386.77,0.07169
1363.62,0.07672
1340.48,0.08270
1317.33,0.08661
1294.19,0.08923
1271.04,0.09194
1247.9,0.09285
1224.75,0.09582
1201.61,0.08617
1178.46,0.07380
1155.32,0.06738
1132.17,0.07019
1109.03,0.06953
1085.88,0.06772
1062.74,0.06248
1039.59,0.05295
1016.45,0.05045
993.304,0.05010
970.159,0.05302
947.014,0.05665
923.869,0.05836
900.724,0.07245
877.579,0.05785
854.434,0.05271
831.289,0.05124
808.144,0.05044
784.999,0.05158
761.854,0.04754
738.709,0.03898
715.565,0.03747
692.42,0.04197
669.275,0.04104
646.13,0.03832
622.985,0.03773
599.84,0.03487