File: 01_Data/Luan_Panel/Cone/Luan_Panel_HRRPUA_50.csv
Time after Ignition,Luan_Panel_R1,Luan_Panel_R2,Luan_Panel_R3,Luan_Panel_R4,Mean,Std. Dev.
0.0,22.2,8.9,13.7,33.0,19.4,10.5
0.5,34.8,14.2,21.9,43.3,28.6,13.0
1.0,50.4,21.8,32.0,56.1,40.1,15.9
1.5,61.9,31.6,45.3,71.4,52.6,17.7
2.0,78.9,44.2,54.5,83.6,65.3,19.0
2.5,98.8,59.9,76.0,96.6,82.8,18.4
3.0,121.4,77.3,91.0,107.2,99.2,19.2
3.5,138.7,93.9,110.0,122.3,116.2,19.0
4.0,160.3,107.3,125.2,131.5,131.1,22.0
4.5,181.5,127.3,143.2,147.2,149.8,22.8
5.0,190.0,138.6,157.4,161.9,162.0,21.2
5.5,214.0,154.4,174.7,172.5,178.9,25.1
6.0,228.9,166.2,186.3,185.5,191.7,26.5
6.5,249.3,175.5,199.4,201.0,206.3,30.9
7.0,258.3,184.6,212.1,208.1,215.7,30.8
7.5,270.6,191.6,218.6,223.0,226.0,32.9
8.0,285.6,199.3,239.5,229.9,238.6,35.7
8.5,289.1,209.6,234.8,234.7,242.0,33.5
9.0,295.3,214.1,245.5,245.2,250.0,33.6
9.5,304.6,222.4,257.3,245.5,257.5,34.6
10.0,302.9,228.9,269.1,248.6,262.4,31.6
10.5,324.0,235.7,264.2,254.4,269.6,38.2
11.0,320.5,239.4,275.7,257.6,273.3,34.8
11.5,316.4,240.1,272.9,261.9,272.8,32.1
12.0,316.6,241.0,271.1,262.5,272.8,31.8
12.5,315.1,248.7,279.6,263.4,276.7,28.5
13.0,316.8,244.9,287.7,265.9,278.8,30.8
13.5,313.4,247.2,280.0,258.2,274.7,29.1
14.0,309.3,244.3,280.7,264.0,274.6,27.5
14.5,297.1,246.4,278.3,264.4,271.6,21.5
15.0,285.1,243.6,275.0,258.2,265.4,18.3
15.5,281.5,250.2,277.6,260.8,267.5,14.6
16.0,269.3,246.9,269.1,256.6,260.5,10.8
16.5,266.2,248.1,271.3,250.7,259.1,11.4
17.0,265.4,242.3,265.9,248.7,255.6,11.9
17.5,251.0,245.7,263.0,245.4,251.3,8.2
18.0,247.7,241.3,262.5,244.2,248.9,9.4
18.5,236.8,238.0,257.4,239.9,243.0,9.7
19.0,231.6,236.6,253.3,239.9,240.4,9.3
19.5,218.6,238.2,248.6,232.4,234.5,12.5
20.0,214.8,234.2,243.9,226.7,229.9,12.3
20.5,209.2,234.4,246.2,225.7,228.9,15.6
21.0,203.1,227.2,241.2,218.3,222.5,16.0
21.5,195.6,222.3,235.5,212.5,216.5,16.8
22.0,189.6,222.7,232.2,211.7,214.0,18.3
22.5,184.5,219.1,225.2,205.6,208.6,18.1
23.0,180.1,219.5,220.5,202.0,205.5,19.0
23.5,172.9,213.2,217.0,199.7,200.7,20.0
24.0,170.4,212.3,212.6,198.6,198.5,19.8
24.5,166.2,207.9,208.9,196.4,194.9,19.9
25.0,163.2,204.3,203.8,190.4,190.4,19.3
25.5,160.6,200.7,200.1,189.9,187.8,18.8
26.0,158.8,198.3,195.1,182.7,183.7,17.9
26.5,153.9,198.3,192.6,182.2,181.8,19.7
27.0,151.4,194.6,187.5,178.8,178.1,18.9
27.5,150.0,191.7,186.8,178.6,176.8,18.6
28.0,147.0,189.5,180.8,177.3,173.6,18.5
28.5,148.0,185.9,180.5,172.7,171.8,16.7
29.0,146.5,182.7,179.4,170.6,169.8,16.4
29.5,146.5,179.8,174.9,170.4,167.9,14.7
30.0,146.3,176.6,172.5,167.4,165.7,13.5
30.5,146.7,178.1,170.7,167.2,165.7,13.4
31.0,146.0,170.8,169.2,166.4,163.1,11.6
31.5,144.7,170.9,169.2,166.2,162.7,12.2
32.0,148.8,167.5,169.1,166.8,163.0,9.6
32.5,148.3,166.7,165.8,165.2,161.5,8.8
33.0,149.0,164.5,169.2,166.3,162.2,9.1
33.5,148.1,163.8,167.8,164.0,160.9,8.7
34.0,152.9,161.9,163.9,163.6,160.6,5.2
34.5,153.1,164.7,164.9,164.6,161.9,5.8
35.0,153.5,160.8,167.3,167.9,162.4,6.7
35.5,154.7,161.3,167.6,167.5,162.8,6.1
36.0,157.1,162.3,166.1,172.0,164.4,6.3
36.5,157.2,161.6,168.2,172.7,164.9,6.9
37.0,162.3,161.1,167.9,173.7,166.3,5.8
37.5,162.2,161.1,166.4,178.1,166.9,7.8
38.0,162.5,165.7,172.5,179.1,170.0,7.4
38.5,169.3,163.2,169.9,179.9,170.6,6.9
39.0,171.3,165.4,170.0,184.9,172.9,8.4
39.5,170.9,170.1,174.3,183.5,174.7,6.1
40.0,171.0,170.0,174.5,185.4,175.2,7.0
40.5,178.2,173.6,173.8,188.5,178.5,7.0
41.0,177.9,171.7,172.1,191.7,178.4,9.3
41.5,179.3,177.0,174.0,189.6,180.0,6.8
42.0,181.8,179.6,176.0,195.4,183.2,8.5
42.5,177.5,179.3,177.9,191.4,181.5,6.6
43.0,185.2,181.6,177.4,194.2,184.6,7.2
43.5,184.1,183.8,176.2,194.2,184.5,7.4
44.0,187.6,187.4,179.0,196.1,187.5,7.0
44.5,189.8,187.6,179.6,198.0,188.7,7.6
45.0,188.9,191.2,177.6,195.3,188.2,7.6
45.5,196.8,195.3,180.8,200.9,193.4,8.7
46.0,201.5,195.1,178.1,195.5,192.6,10.1
46.5,197.6,196.6,182.9,197.2,193.6,7.1
47.0,206.2,196.2,180.7,201.3,196.1,11.1
47.5,204.2,197.8,183.0,196.4,195.4,8.9
48.0,210.9,196.4,180.2,196.3,195.9,12.5
48.5,211.1,200.7,179.1,196.5,196.9,13.4
49.0,213.6,202.8,183.2,196.1,198.9,12.7
49.5,218.8,202.0,179.8,196.0,199.1,16.1
50.0,222.6,201.9,185.4,197.3,201.8,15.5
50.5,226.9,197.8,180.5,199.3,201.1,19.2
51.0,228.7,198.0,184.8,200.8,203.1,18.5
51.5,229.1,199.4,185.2,196.5,202.5,18.7
52.0,233.9,197.1,184.9,199.1,203.8,21.0
52.5,234.6,200.8,187.1,197.4,205.0,20.6
53.0,237.5,194.3,187.7,198.4,204.5,22.4
53.5,245.0,199.5,187.0,199.3,207.7,25.6
54.0,249.3,196.6,189.2,201.2,209.1,27.3
54.5,252.5,192.1,188.2,199.6,208.1,30.0
55.0,255.6,194.4,191.8,197.5,209.8,30.6
55.5,254.3,197.0,189.3,202.3,210.7,29.5
56.0,258.6,194.1,188.0,202.1,210.7,32.5
56.5,259.8,196.0,192.3,204.7,213.2,31.5
57.0,259.4,194.0,193.9,204.0,212.8,31.4
57.5,263.0,194.2,195.2,206.4,214.7,32.7
58.0,259.6,195.1,197.8,209.1,215.4,30.1
58.5,269.8,190.5,198.5,206.0,216.2,36.3
59.0,267.0,192.0,200.1,210.1,217.3,33.9
59.5,265.1,194.7,205.8,211.5,219.3,31.3
60.0,267.0,194.0,206.4,213.4,220.2,32.2
60.5,268.4,194.0,209.7,213.0,221.3,32.5
61.0,267.0,193.1,208.9,215.4,221.1,32.0
61.5,270.7,192.9,204.9,213.0,220.4,34.5
62.0,264.8,194.6,211.8,215.3,221.6,30.2
62.5,262.3,197.4,214.2,220.1,223.5,27.6
63.0,261.2,193.0,213.1,217.8,221.3,28.7
63.5,259.3,193.1,208.2,218.9,219.9,28.4
64.0,259.3,197.2,213.5,217.9,222.0,26.4
64.5,252.0,196.4,215.8,222.7,221.7,23.0
65.0,255.5,194.9,214.4,220.3,221.3,25.3
65.5,257.0,196.4,216.8,226.7,224.3,25.2
66.0,248.5,202.5,217.2,223.6,222.9,19.2
66.5,248.2,199.5,219.0,230.8,224.4,20.5
67.0,247.0,203.3,217.1,228.6,224.0,18.5
67.5,247.6,202.1,216.2,232.2,224.5,19.7
68.0,244.7,203.1,219.0,230.1,224.2,17.6
68.5,240.6,203.8,215.5,233.0,223.2,16.7
69.0,240.1,206.6,220.9,236.4,226.0,15.4
69.5,238.9,203.7,214.2,233.9,222.7,16.5
70.0,236.7,207.7,217.7,234.6,224.2,13.9
70.5,237.6,209.5,218.3,234.2,224.9,13.3
71.0,233.8,213.1,221.2,234.2,225.6,10.2
71.5,235.7,212.5,216.9,237.4,225.6,12.8
72.0,234.6,216.3,219.6,236.3,226.7,10.2
72.5,235.2,215.9,216.1,237.0,226.1,11.6
73.0,233.7,220.5,219.1,234.1,226.8,8.2
73.5,232.0,217.4,215.3,235.4,225.0,10.1
74.0,233.7,218.5,213.0,230.3,223.9,9.7
74.5,232.1,224.0,212.9,238.2,226.8,10.9
75.0,233.0,227.6,216.2,235.7,228.1,8.6
75.5,233.1,225.3,218.5,230.1,226.7,6.4
76.0,234.8,228.1,212.1,230.5,226.4,9.9
76.5,232.7,224.6,213.4,228.1,224.7,8.2
77.0,232.0,232.4,214.9,228.3,226.9,8.2
77.5,236.3,230.7,214.1,227.5,227.2,9.4
78.0,236.6,230.5,213.9,229.6,227.6,9.7
78.5,238.1,230.6,212.5,227.7,227.2,10.7
79.0,233.9,228.5,213.7,226.4,225.6,8.6
79.5,240.3,231.1,211.2,226.3,227.2,12.2
80.0,233.1,230.0,213.4,228.6,226.2,8.8
80.5,234.7,227.8,216.0,226.2,226.2,7.7
81.0,240.1,230.3,213.5,224.8,227.2,11.1
81.5,234.3,230.9,212.9,225.5,225.9,9.4
82.0,234.3,228.4,215.2,228.8,226.7,8.1
82.5,232.9,227.9,214.4,222.9,224.5,7.9
83.0,237.0,229.7,217.5,221.7,226.5,8.6
83.5,237.2,227.1,213.9,222.4,225.2,9.7
84.0,237.0,229.7,215.6,227.1,227.3,8.9
84.5,238.3,227.9,218.3,224.3,227.2,8.4
85.0,231.0,226.4,213.9,220.9,223.1,7.3
85.5,236.1,231.9,214.9,225.3,227.1,9.2
86.0,237.4,228.7,214.6,223.4,226.0,9.6
86.5,230.4,227.0,218.7,220.1,224.0,5.5
87.0,235.4,228.8,219.0,227.6,227.7,6.7
87.5,237.2,223.6,214.0,228.1,225.7,9.6
88.0,233.0,228.2,220.6,224.1,226.5,5.3
88.5,234.4,225.7,215.0,222.7,224.4,8.0
89.0,229.4,226.6,222.1,220.4,224.6,4.1
89.5,230.9,222.9,221.0,221.4,224.0,4.6
90.0,226.9,226.6,219.3,221.4,223.5,3.8
90.5,227.8,223.6,221.2,222.5,223.8,2.8
91.0,225.3,228.0,222.6,218.7,223.7,4.0
91.5,223.9,227.4,221.0,221.6,223.5,2.9
92.0,221.3,223.1,220.8,216.9,220.5,2.6
92.5,220.2,221.8,225.2,220.4,221.9,2.3
93.0,220.4,226.6,227.9,220.6,223.9,3.9
93.5,219.2,223.3,220.3,217.4,220.1,2.5
94.0,216.6,227.4,224.3,218.3,221.7,5.1
94.5,212.2,223.4,226.9,216.4,219.7,6.7
95.0,209.4,222.9,223.6,215.0,217.7,6.8
95.5,209.1,218.9,228.3,217.2,218.4,7.9
96.0,204.2,224.7,225.8,213.4,217.0,10.2
96.5,201.4,223.4,227.7,214.0,216.6,11.7
97.0,196.8,222.3,224.8,212.9,214.2,12.7
97.5,197.5,226.4,226.0,212.3,215.6,13.7
98.0,195.9,216.8,224.6,211.4,212.1,12.1
98.5,192.7,218.4,228.5,209.6,212.3,15.2
99.0,188.1,216.7,222.9,212.1,210.0,15.2
99.5,183.8,216.1,227.3,207.7,208.7,18.4
100.0,184.1,218.2,221.4,206.6,207.6,16.9
100.5,178.6,213.3,220.3,202.7,203.7,18.3
101.0,178.8,210.6,222.9,201.5,203.4,18.6
101.5,175.8,213.1,226.4,204.7,205.0,21.4
102.0,172.5,216.5,223.7,202.4,203.8,22.6
102.5,173.8,209.5,220.4,200.4,201.0,19.9
103.0,167.7,210.9,220.9,199.3,199.7,23.1
103.5,164.7,210.8,220.8,194.9,197.8,24.5
104.0,162.0,204.7,219.8,197.0,195.9,24.5
104.5,156.4,204.6,219.3,190.9,192.8,26.9
105.0,149.0,206.6,218.4,190.8,191.2,30.3
105.5,143.0,204.3,212.6,188.0,187.0,31.0
106.0,136.9,201.7,215.9,184.8,184.8,34.4
106.5,133.8,201.9,211.9,186.1,183.4,34.8
107.0,128.4,203.6,213.5,180.5,181.5,38.0
107.5,122.1,197.2,207.5,179.1,176.5,38.1
108.0,118.3,198.0,206.3,177.8,175.1,39.7
108.5,115.0,194.6,205.1,177.9,173.2,40.3
109.0,110.8,191.4,203.0,173.3,169.6,41.0
109.5,107.2,194.1,200.4,172.0,168.4,42.6
110.0,104.2,188.7,195.9,163.8,163.2,41.6
110.5,100.0,187.2,194.8,162.4,161.1,43.0
111.0,99.9,186.2,194.1,156.2,159.1,42.7
111.5,97.2,184.2,193.6,151.9,156.7,43.5
112.0,94.4,181.1,193.7,145.5,153.7,44.5
112.5,91.6,179.9,183.5,142.3,149.3,42.7
113.0,91.2,177.9,184.9,138.1,148.0,43.1
113.5,89.6,178.2,178.9,130.2,144.2,42.9
114.0,87.3,173.2,172.0,125.2,139.4,41.3
114.25,89.2,170.3,170.3,121.3,137.8,39.8