File: 01_Data/Luan_Panel/Cone/Luan_Panel_HRRPUA_25.csv
Time after Ignition,Luan_Panel_R1,Luan_Panel_R2,Luan_Panel_R3,Mean,Std. Dev.
0.0,12.8,13.2,20.6,15.5,4.4
0.75,20.5,24.0,29.3,24.6,4.4
1.5,28.1,38.0,44.8,36.9,8.4
2.25,40.8,53.3,58.9,51.0,9.3
3.0,58.2,67.9,72.1,66.1,7.1
3.75,77.0,84.3,90.5,83.9,6.8
4.5,92.3,97.3,109.7,99.7,9.0
5.25,108.2,110.9,126.0,115.0,9.6
6.0,119.4,122.4,140.5,127.4,11.4
6.75,132.9,138.2,150.6,140.5,9.1
7.5,145.3,144.2,159.5,149.7,8.5
8.25,153.8,153.9,166.1,157.9,7.1
9.0,158.3,157.1,171.1,162.1,7.7
9.75,165.7,161.2,173.3,166.8,6.1
10.5,167.1,166.8,179.3,171.1,7.2
11.25,170.4,165.9,176.1,170.8,5.1
12.0,173.3,168.9,177.9,173.4,4.5
12.75,173.4,170.6,175.0,173.0,2.2
13.5,172.6,166.8,173.3,170.9,3.6
14.25,170.2,167.9,172.1,170.1,2.1
15.0,170.5,165.6,173.7,169.9,4.1
15.75,165.0,161.2,172.1,166.1,5.5
16.5,164.3,160.5,171.4,165.4,5.6
17.25,160.2,157.6,169.8,162.5,6.5
18.0,154.8,155.2,170.8,160.3,9.1
18.75,152.8,151.6,169.7,158.0,10.1
19.5,151.0,150.3,165.0,155.4,8.3
20.25,148.2,148.1,161.9,152.8,8.0
21.0,147.8,147.0,161.6,152.1,8.2
21.75,146.2,146.2,162.9,151.8,9.7
22.5,146.7,145.7,160.6,151.0,8.3
23.25,143.9,143.6,160.9,149.5,9.9
24.0,140.2,144.7,157.8,147.6,9.2
24.75,142.6,142.0,159.8,148.1,10.1
25.5,140.7,142.5,161.0,148.1,11.3
26.25,140.7,141.7,159.0,147.1,10.3
27.0,139.8,139.6,157.8,145.7,10.4
27.75,138.1,138.9,155.0,144.0,9.5
28.5,136.7,136.9,154.2,142.6,10.0
29.25,138.9,134.5,153.5,142.3,9.9
30.0,137.6,132.8,153.7,141.4,10.9
30.75,138.0,132.4,154.1,141.5,11.2
31.5,136.6,129.0,150.9,138.9,11.1
32.25,134.9,128.1,149.9,137.7,11.2
33.0,135.4,128.8,147.1,137.1,9.2
33.75,132.3,125.9,145.8,134.7,10.2
34.5,132.0,128.4,144.6,135.0,8.5
35.25,131.1,124.9,143.4,133.1,9.4
36.0,131.0,124.9,143.0,133.0,9.2
36.75,131.3,125.7,142.4,133.1,8.5
37.5,130.8,122.9,140.2,131.3,8.7
38.25,128.9,124.2,139.0,130.7,7.5
39.0,131.9,121.5,139.8,131.1,9.2
39.75,129.5,123.8,140.0,131.1,8.2
40.5,131.5,120.9,138.6,130.3,8.9
41.25,134.3,120.8,139.2,131.4,9.5
42.0,132.1,121.0,141.9,131.7,10.4
42.75,132.5,122.0,141.6,132.1,9.8
43.5,131.9,122.6,141.8,132.1,9.6
44.25,133.2,121.6,143.4,132.7,10.9
45.0,129.7,120.6,142.8,131.0,11.2
45.75,131.1,121.6,144.2,132.3,11.4
46.5,130.4,121.5,144.2,132.0,11.4
47.25,130.7,123.5,144.7,132.9,10.8
48.0,128.5,121.9,144.4,131.6,11.5
48.75,129.9,120.9,143.5,131.5,11.4
49.5,129.4,122.5,143.3,131.7,10.6
50.25,126.5,121.7,144.1,130.8,11.8
51.0,125.8,122.7,142.8,130.4,10.8
51.75,127.7,123.3,143.4,131.5,10.5
52.5,125.1,118.5,142.6,128.7,12.5
53.25,126.4,120.1,142.7,129.7,11.7
54.0,123.5,120.2,141.5,128.4,11.5
54.75,125.6,120.3,141.3,129.1,10.9
55.5,124.1,120.9,142.0,129.0,11.4
56.25,122.5,119.8,144.5,128.9,13.5
57.0,122.9,118.3,142.6,127.9,12.9
57.75,125.5,119.5,140.4,128.4,10.8
58.5,126.3,117.3,140.6,128.1,11.8
59.25,121.5,118.5,141.1,127.0,12.3
60.0,125.3,117.4,140.9,127.9,11.9
60.75,125.3,118.2,140.9,128.1,11.6
61.5,124.9,119.0,138.9,127.6,10.2
62.25,126.0,121.6,141.1,129.6,10.2
63.0,128.6,118.4,141.8,129.6,11.8
63.75,127.1,121.1,143.1,130.4,11.4
64.5,131.2,121.4,138.0,130.2,8.4
65.25,130.8,120.5,142.5,131.3,11.0
66.0,131.4,123.4,142.1,132.3,9.4
66.75,134.2,125.1,141.7,133.6,8.3
67.5,135.4,124.7,143.2,134.4,9.3
68.25,134.9,123.6,147.0,135.2,11.7
69.0,137.6,127.9,144.1,136.6,8.2
69.75,137.7,127.2,145.7,136.8,9.3
70.5,141.6,129.5,147.8,139.6,9.3
71.25,141.1,129.2,147.7,139.3,9.4
72.0,140.6,133.8,148.9,141.1,7.6
72.75,144.3,133.5,148.3,142.0,7.6
73.5,146.9,135.7,149.0,143.9,7.1
74.25,149.4,136.7,148.1,144.7,7.0
75.0,150.6,137.9,152.8,147.1,8.1
75.75,152.9,137.2,153.0,147.7,9.1
76.5,153.7,137.4,149.1,146.7,8.4
77.25,150.1,137.8,151.8,146.5,7.7
78.0,157.4,141.9,150.4,149.9,7.7
78.75,154.7,142.1,153.5,150.1,6.9
79.5,159.3,142.2,151.4,150.9,8.5
80.25,160.4,142.0,153.2,151.8,9.3
81.0,158.3,144.2,153.9,152.2,7.2
81.75,162.2,141.4,152.8,152.2,10.4
82.5,162.5,142.6,154.6,153.2,10.0
83.25,163.2,141.0,152.8,152.3,11.1
84.0,163.8,140.8,151.3,152.0,11.5
84.75,164.9,143.9,153.8,154.2,10.5
85.5,161.3,144.4,147.9,151.2,8.9
86.25,163.4,144.0,147.4,151.6,10.3
87.0,160.8,145.4,146.3,150.8,8.7
87.75,161.5,142.8,148.5,150.9,9.6
88.5,161.0,142.6,146.8,150.1,9.6
89.25,160.8,142.9,145.9,149.9,9.6
90.0,162.1,140.8,145.2,149.4,11.2
90.75,160.9,142.6,143.0,148.8,10.4
91.5,156.9,142.8,142.9,147.5,8.1
92.25,159.9,143.1,143.3,148.8,9.6
93.0,157.7,141.1,141.1,146.6,9.6
93.75,156.4,139.8,141.7,146.0,9.1
94.5,153.8,141.8,141.4,145.7,7.0
95.25,154.7,140.5,141.3,145.5,8.0
96.0,152.0,138.3,139.9,143.4,7.5
96.75,152.4,138.8,137.4,142.9,8.3
97.5,149.9,136.1,138.5,141.5,7.4
98.25,149.1,135.7,140.3,141.7,6.8
99.0,149.0,135.8,139.1,141.3,6.9
99.75,149.9,133.5,137.1,140.2,8.6
100.5,150.6,134.2,134.8,139.9,9.3
101.25,145.5,136.2,136.2,139.3,5.4
102.0,148.5,133.9,139.7,140.7,7.3
102.75,146.9,134.2,140.5,140.5,6.3
103.5,148.0,135.7,139.6,141.1,6.3
104.25,147.8,133.4,140.0,140.4,7.2
105.0,145.8,132.7,140.6,139.7,6.6
105.75,149.9,130.2,142.1,140.7,9.9
106.5,148.7,132.2,140.6,140.5,8.3
107.25,148.3,131.8,141.0,140.4,8.3
108.0,148.1,131.3,142.6,140.7,8.6
108.75,154.2,130.6,141.1,142.0,11.8
109.5,150.6,128.9,145.5,141.6,11.3
110.25,153.8,131.6,144.9,143.4,11.2
111.0,154.1,129.4,146.2,143.2,12.6
111.75,157.0,129.1,148.2,144.7,14.3
112.5,158.5,130.3,146.5,145.1,14.2
113.25,158.8,130.8,150.1,146.6,14.3
114.0,161.8,132.2,148.8,147.6,14.8
114.75,165.6,130.6,149.0,148.4,17.5
115.5,164.8,130.6,150.7,148.7,17.2
116.25,167.9,135.4,151.3,151.5,16.3
117.0,168.0,136.4,154.6,153.0,15.9
117.75,169.2,136.4,152.2,152.6,16.4
118.5,174.5,138.6,155.7,156.3,18.0
119.25,174.0,141.4,158.6,158.0,16.3
120.0,175.2,142.6,160.3,159.4,16.3
120.75,174.9,143.9,161.8,160.2,15.5
121.5,175.9,148.0,161.4,161.8,14.0
122.25,177.6,148.2,166.4,164.1,14.8
123.0,178.6,151.0,167.8,165.8,13.9
123.75,181.7,152.6,167.4,167.2,14.6
124.5,177.2,155.5,167.6,166.8,10.9
125.25,179.8,156.9,171.3,169.3,11.6
126.0,175.0,160.8,172.3,169.4,7.5
126.75,178.7,160.7,169.3,169.6,9.0
127.5,173.4,161.0,172.1,168.8,6.8
128.25,173.0,164.1,169.2,168.7,4.5
129.0,171.3,164.0,166.5,167.3,3.7
129.75,166.3,165.9,163.4,165.2,1.6
130.5,163.9,163.0,162.5,163.1,0.7
131.25,160.0,165.4,159.2,161.6,3.4
132.0,155.5,167.2,157.8,160.2,6.2
132.75,152.8,164.1,153.6,156.8,6.3
133.5,145.4,160.3,150.5,152.1,7.6
134.25,138.7,159.5,143.8,147.3,10.8
135.0,131.8,154.5,140.8,142.4,11.4
135.75,123.9,150.7,131.9,135.5,13.8
136.5,118.8,148.5,124.7,130.7,15.7
137.25,110.8,143.8,117.2,123.9,17.5
138.0,103.3,139.4,108.5,117.1,19.5
138.75,98.4,130.8,101.3,110.2,17.9
139.5,92.5,125.7,93.0,103.8,19.0
140.25,88.0,118.2,87.6,97.9,17.6
141.0,81.0,112.8,82.0,91.9,18.1
141.75,76.1,108.4,75.9,86.8,18.7
142.5,71.2,103.6,67.6,80.8,19.9
143.25,66.1,99.4,62.3,75.9,20.4
144.0,60.5,95.6,56.5,70.9,21.5
144.75,56.4,89.4,50.9,65.6,20.8
145.5,52.7,84.1,46.5,61.1,20.1
146.25,48.1,78.4,42.7,56.4,19.2
147.0,45.7,73.9,39.8,53.1,18.2
147.75,41.6,69.7,36.5,49.3,17.9
148.5,38.8,66.5,34.0,46.4,17.6
149.25,36.4,62.3,31.4,43.4,16.6
150.0,33.9,59.8,,46.8,18.3
150.75,32.1,56.0,,44.1,16.9
151.5,30.0,53.8,,41.9,16.8
152.25,28.3,51.2,,39.7,16.2
153.0,27.0,48.2,,37.6,15.0
153.75,25.7,45.0,,35.4,13.7
154.5,24.6,42.7,,33.6,12.8
155.25,23.6,41.0,,32.3,12.3
156.0,22.6,39.9,,31.2,12.3
156.75,21.7,37.3,,29.5,11.1
157.5,21.0,36.2,,28.6,10.8
158.25,20.5,34.2,,27.3,9.7
159.0,19.8,32.6,,26.2,9.0
159.75,19.5,31.1,,25.3,8.2
160.5,19.3,28.9,,24.1,6.8
161.25,19.0,28.3,,23.6,6.6
162.0,18.4,27.3,,22.8,6.3
162.75,18.2,26.3,,22.2,5.7
163.5,18.4,25.3,,21.9,4.9
164.25,18.7,24.8,,21.7,4.3
165.0,19.0,24.1,,21.5,3.6
165.75,19.0,23.9,,21.4,3.5
166.5,19.1,,,19.1,
167.25,19.1,,,19.1,
167.5,19.1,,,19.1,