File: 01_Data/Nylon_Carpet_High_Pile/Cone/Nylon_Carpet_High_Pile_HRRPUA_50.csv
Time after Ignition,Nylon_Carpet_High_Pile_R1,Nylon_Carpet_High_Pile_R2,Nylon_Carpet_High_Pile_R3,Mean,Std. Dev.
0.0,24.3,10.4,7.5,14.1,9.0
0.75,41.9,24.7,15.1,27.2,13.5
1.5,67.1,47.5,26.7,47.1,20.2
2.25,96.9,69.9,47.0,71.3,25.0
3.0,127.6,92.2,71.3,97.0,28.4
3.75,145.8,115.8,97.4,119.7,24.4
4.5,169.4,133.3,123.4,142.0,24.2
5.25,186.7,151.2,149.4,162.4,21.0
6.0,201.4,170.0,174.8,182.1,16.9
6.75,212.1,185.5,188.6,195.4,14.5
7.5,226.4,201.1,206.7,211.4,13.3
8.25,233.3,217.9,237.5,229.6,10.3
9.0,241.1,236.4,261.5,246.3,13.4
9.75,250.0,245.8,282.3,259.4,20.0
10.5,262.7,253.6,302.2,272.8,25.9
11.25,264.7,269.5,316.0,283.4,28.3
12.0,271.8,279.2,332.2,294.4,32.9
12.75,280.7,289.3,356.1,308.7,41.3
13.5,284.9,299.7,357.7,314.1,38.5
14.25,298.0,303.2,367.0,322.7,38.4
15.0,299.3,310.8,374.4,328.2,40.5
15.75,310.7,323.5,381.9,338.7,37.9
16.5,315.7,330.2,390.1,345.4,39.4
17.25,321.7,348.2,398.9,356.2,39.2
18.0,315.8,357.7,396.9,356.8,40.5
18.75,327.6,361.3,395.8,361.6,34.1
19.5,327.1,369.2,397.3,364.6,35.3
20.25,338.8,381.6,403.5,374.6,32.9
21.0,341.6,387.1,393.9,374.2,28.4
21.75,352.8,403.7,391.8,382.7,26.6
22.5,355.0,415.5,393.5,388.0,30.6
23.25,362.0,421.7,404.9,396.2,30.8
24.0,375.5,432.6,406.7,404.9,28.6
24.75,375.4,447.1,406.7,409.8,35.9
25.5,394.1,442.4,408.2,414.9,24.8
26.25,402.1,449.2,399.7,417.0,27.9
27.0,404.1,458.3,405.8,422.8,30.8
27.75,404.2,462.3,414.9,427.1,30.9
28.5,422.7,472.9,417.1,437.6,30.7
29.25,425.1,466.6,415.9,435.9,27.0
30.0,436.5,471.2,426.9,444.9,23.3
30.75,432.5,461.5,427.9,440.7,18.2
31.5,442.0,476.9,432.9,450.6,23.2
32.25,450.6,486.1,431.8,456.2,27.6
33.0,470.7,470.0,442.3,461.0,16.2
33.75,448.0,482.5,460.2,463.6,17.5
34.5,461.0,474.9,447.0,461.0,14.0
35.25,459.9,487.2,447.8,465.0,20.2
36.0,467.7,487.5,449.4,468.2,19.1
36.75,460.4,493.3,448.3,467.3,23.3
37.5,485.6,488.4,443.1,472.3,25.4
38.25,489.1,497.6,441.4,476.0,30.3
39.0,482.4,508.2,449.0,479.9,29.7
39.75,487.9,504.8,461.8,484.9,21.6
40.5,486.3,498.7,451.3,478.8,24.6
41.25,489.2,495.4,446.8,477.1,26.5
42.0,493.1,495.9,458.6,482.5,20.8
42.75,487.2,512.9,461.8,487.3,25.5
43.5,517.9,514.8,458.9,497.2,33.2
44.25,509.0,510.7,454.2,491.3,32.1
45.0,512.3,531.8,453.3,499.2,40.9
45.75,512.2,520.0,466.0,499.4,29.2
46.5,512.2,521.6,462.6,498.8,31.7
47.25,510.1,535.1,464.9,503.4,35.6
48.0,517.6,526.4,455.7,499.9,38.5
48.75,520.1,535.8,458.7,504.9,40.8
49.5,528.7,540.8,452.6,507.4,47.8
50.25,519.0,549.8,451.3,506.7,50.4
51.0,514.4,540.8,443.1,499.4,50.5
51.75,510.1,525.0,431.7,488.9,50.1
52.5,516.5,536.8,430.7,494.7,56.3
53.25,516.6,537.2,430.0,494.6,56.9
54.0,499.8,534.4,428.1,487.4,54.2
54.75,517.2,530.1,422.9,490.1,58.6
55.5,501.4,523.1,418.9,481.1,55.0
56.25,512.7,515.7,415.6,481.4,56.9
57.0,510.4,520.5,416.8,482.6,57.2
57.75,498.0,519.6,410.1,475.9,58.0
58.5,490.5,522.1,408.4,473.7,58.7
59.25,507.5,510.8,398.0,472.1,64.2
60.0,510.5,507.7,403.4,473.9,61.0
60.75,499.2,496.8,388.5,461.5,63.2
61.5,494.6,489.7,396.9,460.4,55.0
62.25,485.5,485.6,384.9,452.0,58.1
63.0,483.2,482.3,384.4,450.0,56.8
63.75,473.5,465.0,386.9,441.8,47.7
64.5,482.1,469.3,378.0,443.1,56.8
65.25,480.0,458.3,376.0,438.1,54.8
66.0,470.3,450.8,374.8,432.0,50.4
66.75,469.2,446.8,361.8,425.9,56.7
67.5,465.7,449.4,373.4,429.5,49.3
68.25,462.4,444.3,362.5,423.1,53.2
69.0,467.8,443.4,364.9,425.4,53.8
69.75,450.2,429.6,356.4,412.1,49.3
70.5,447.4,408.9,362.8,406.4,42.4
71.25,445.8,410.1,352.5,402.8,47.1
72.0,437.1,400.5,350.8,396.1,43.4
72.75,445.2,396.8,353.7,398.6,45.7
73.5,425.2,397.2,349.7,390.7,38.2
74.25,430.0,383.7,350.1,387.9,40.1
75.0,432.1,380.8,340.4,384.5,46.0
75.75,430.9,385.4,333.3,383.2,48.8
76.5,416.4,377.6,342.6,378.9,36.9
77.25,417.4,379.7,332.8,376.6,42.4
78.0,412.8,368.1,316.6,365.9,48.2
78.75,419.4,371.6,323.1,371.4,48.1
79.5,409.7,363.7,326.9,366.8,41.5
80.25,402.1,357.2,325.5,361.6,38.5
81.0,410.0,363.7,327.2,367.0,41.5
81.75,400.0,349.4,316.7,355.4,42.0
82.5,402.5,350.9,318.6,357.3,42.3
83.25,397.4,346.6,314.0,352.6,42.0
84.0,397.6,342.2,315.4,351.8,41.9
84.75,381.9,344.7,314.6,347.1,33.7
85.5,381.2,327.9,311.4,340.1,36.5
86.25,375.8,332.4,310.8,339.7,33.1
87.0,365.4,332.7,312.6,336.9,26.6
87.75,362.7,323.0,301.1,328.9,31.2
88.5,361.6,328.3,306.3,332.0,27.9
89.25,351.0,321.2,301.8,324.7,24.8
90.0,358.1,323.0,300.4,327.2,29.0
90.75,350.0,316.5,297.3,321.3,26.7
91.5,351.1,308.6,296.8,318.8,28.6
92.25,354.7,312.6,296.6,321.3,30.0
93.0,347.9,310.3,293.0,317.1,28.0
93.75,341.5,299.9,291.7,311.0,26.7
94.5,336.4,301.9,293.5,310.6,22.7
95.25,333.3,297.4,285.5,305.4,24.9
96.0,330.2,296.8,295.1,307.4,19.8
96.75,323.3,295.9,282.1,300.5,21.0
97.5,319.9,291.6,286.3,299.3,18.0
98.25,314.5,292.0,283.7,296.7,15.9
99.0,310.9,295.2,285.0,297.0,13.0
99.75,306.6,291.9,282.9,293.8,12.0
100.5,305.0,286.3,278.3,289.9,13.7
101.25,301.2,286.7,280.5,289.5,10.6
102.0,308.7,295.2,275.7,293.2,16.6
102.75,297.8,283.8,275.2,285.6,11.4
103.5,299.8,281.8,272.3,284.6,13.9
104.25,293.6,282.1,274.3,283.4,9.7
105.0,289.3,276.5,273.5,279.8,8.4
105.75,290.2,270.5,273.7,278.1,10.5
106.5,280.0,274.5,273.4,276.0,3.5
107.25,276.1,269.1,268.2,271.2,4.3
108.0,280.0,261.7,269.0,270.2,9.2
108.75,272.7,265.8,272.3,270.2,3.9
109.5,276.0,264.7,269.3,270.0,5.7
110.25,273.7,262.8,265.3,267.3,5.7
111.0,269.9,260.1,263.2,264.4,5.0
111.75,268.8,257.5,261.5,262.6,5.7
112.5,269.0,258.0,266.8,264.6,5.8
113.25,267.8,253.7,258.4,260.0,7.2
114.0,262.6,256.9,260.7,260.0,2.9
114.75,262.5,256.9,259.8,259.7,2.8
115.5,263.7,249.4,255.2,256.1,7.2
116.25,260.5,251.5,254.9,255.7,4.5
117.0,257.5,258.4,256.7,257.5,0.8
117.75,256.6,254.4,258.1,256.4,1.9
118.5,258.5,247.4,255.7,253.9,5.8
119.25,259.1,251.4,254.8,255.1,3.9
120.0,257.3,250.9,256.4,254.9,3.4
120.75,253.9,250.5,253.9,252.8,2.0
121.5,249.0,248.4,254.9,250.7,3.6
122.25,247.1,241.6,251.7,246.8,5.0
123.0,246.9,244.9,250.3,247.4,2.8
123.75,244.0,243.4,255.7,247.7,6.9
124.5,240.0,241.0,253.0,244.6,7.2
125.25,241.5,236.8,250.7,243.0,7.1
126.0,242.4,237.6,249.7,243.2,6.1
126.75,236.9,233.6,249.6,240.1,8.4
127.5,243.1,234.3,249.4,242.3,7.6
128.25,235.0,230.2,246.0,237.1,8.1
129.0,233.0,233.0,243.8,236.6,6.2
129.75,229.4,231.3,245.0,235.2,8.5
130.5,229.9,228.5,247.2,235.2,10.4
131.25,236.0,226.9,249.2,237.4,11.2
132.0,228.0,226.7,248.6,234.4,12.3
132.75,224.0,228.1,248.7,233.6,13.2
133.5,229.8,230.0,243.5,234.5,7.8
134.25,225.8,225.9,244.5,232.0,10.8
135.0,226.0,221.8,245.0,230.9,12.4
135.75,228.1,219.4,242.1,229.9,11.5
136.5,227.5,219.7,239.2,228.8,9.8
137.25,221.3,218.4,239.8,226.5,11.6
138.0,222.5,222.3,236.9,227.2,8.3
138.75,222.7,216.5,238.1,225.8,11.2
139.5,219.8,215.4,236.4,223.9,11.1
140.25,221.0,216.0,236.9,224.6,10.9
141.0,212.2,212.7,236.5,220.5,13.9
141.75,213.8,211.0,234.5,219.7,12.8
142.5,210.7,209.2,235.5,218.4,14.8
143.25,213.6,209.0,231.7,218.1,12.0
144.0,208.4,210.8,236.8,218.7,15.8
144.75,206.4,209.2,235.6,217.1,16.1
145.5,207.9,208.4,232.5,216.3,14.0
146.25,206.8,204.4,232.0,214.4,15.3
147.0,203.7,205.0,228.5,212.4,14.0
147.75,204.0,207.0,228.1,213.0,13.1
148.5,202.8,205.0,230.5,212.8,15.4
149.25,201.9,204.6,228.8,211.8,14.8
150.0,198.1,203.9,227.2,209.7,15.4
150.75,199.5,201.2,223.9,208.2,13.6
151.5,196.4,205.3,228.7,210.2,16.7
152.25,194.2,204.5,225.1,207.9,15.7
153.0,191.6,201.5,224.3,205.8,16.7
153.75,189.8,204.8,218.7,204.4,14.5
154.5,187.8,203.3,221.9,204.3,17.1
155.25,184.1,200.5,215.1,199.9,15.5
156.0,187.2,197.6,217.3,200.7,15.3
156.75,180.5,198.0,218.7,199.1,19.1
157.5,178.3,198.6,219.3,198.7,20.5
158.25,177.4,198.2,218.3,198.0,20.4
159.0,173.9,195.2,218.6,195.9,22.3
159.75,167.4,194.7,216.3,192.8,24.5
160.5,166.1,195.3,219.6,193.7,26.8
161.25,162.8,197.7,215.3,191.9,26.7
162.0,162.8,192.7,212.4,189.3,25.0
162.75,156.6,191.4,208.5,185.5,26.5
163.5,153.7,191.9,210.1,185.2,28.8
164.25,149.7,192.4,205.9,182.7,29.3
165.0,151.3,191.9,206.5,183.2,28.6
165.75,147.3,195.9,204.4,182.5,30.8
166.5,146.6,191.8,202.2,180.2,29.6
167.25,145.1,191.8,197.4,178.1,28.7
168.0,141.7,192.3,199.3,177.8,31.4
168.75,138.3,189.4,193.7,173.8,30.9
169.5,137.1,186.7,193.0,172.2,30.6
170.25,133.4,186.8,190.9,170.4,32.1
171.0,133.7,185.3,194.1,171.0,32.7
171.75,132.1,182.2,184.7,166.3,29.7
172.5,130.8,186.1,186.1,167.7,31.9
173.25,130.3,185.6,185.6,167.2,31.9
174.0,128.3,182.9,185.3,165.5,32.2
174.75,129.6,180.3,184.6,164.8,30.6
175.5,125.6,179.2,181.6,162.1,31.6
176.25,123.6,176.8,177.4,159.3,30.9
177.0,123.8,177.4,179.9,160.4,31.7
177.75,121.4,175.9,178.0,158.4,32.0
178.5,119.6,174.4,177.0,157.0,32.4
179.25,116.9,175.4,178.4,156.9,34.7
180.0,113.8,178.6,176.7,156.4,36.9
180.75,113.6,173.8,176.8,154.7,35.7
181.5,112.7,174.5,175.1,154.1,35.9
182.25,110.5,171.6,174.3,152.1,36.1
183.0,108.3,174.7,172.7,151.9,37.8
183.75,106.7,173.7,171.3,150.6,38.0
184.5,104.5,170.4,169.3,148.1,37.7
185.25,103.0,172.2,168.0,147.8,38.8
186.0,102.1,170.4,165.3,146.0,38.1
186.75,99.8,171.5,166.5,145.9,40.0
187.5,97.2,175.0,167.3,146.5,42.9
188.25,93.9,171.8,165.2,143.6,43.2
189.0,92.0,170.6,163.4,142.0,43.5
189.75,87.8,171.6,157.9,139.1,44.9
190.5,83.2,171.2,157.4,137.3,47.3
191.25,79.0,169.0,157.0,135.0,48.8
192.0,75.0,168.6,154.8,132.8,50.5
192.75,72.6,167.5,154.8,131.6,51.5
193.5,69.7,167.8,150.8,129.4,52.4
194.25,65.5,166.5,150.4,127.5,54.3
195.0,63.9,166.9,151.0,127.3,55.5
195.75,59.4,164.9,146.7,123.7,56.4
196.5,55.6,166.3,147.7,123.2,59.3
197.25,50.2,164.0,148.2,120.8,61.6
198.0,44.6,164.6,146.0,118.4,64.6
198.75,41.2,164.4,144.7,116.8,66.2
199.5,37.6,164.1,141.5,114.4,67.5
200.0,34.5,158.9,143.6,112.3,67.8