File: 01_Data/Nylon_Carpet_High_Pile/Cone/Nylon_Carpet_High_Pile_HRRPUA_25.csv
Time after Ignition,Nylon_Carpet_High_Pile_R1,Nylon_Carpet_High_Pile_R2,Nylon_Carpet_High_Pile_R3,Mean,Std. Dev.
0.0,48.8,134.4,113.6,98.9,44.7
1.0,50.8,137.5,115.0,101.1,45.0
2.0,53.5,139.1,117.5,103.4,44.5
3.0,55.9,143.5,120.3,106.5,45.4
4.0,59.0,146.3,120.7,108.7,44.9
5.0,61.1,151.2,124.0,112.1,46.2
6.0,63.4,154.3,126.6,114.8,46.6
7.0,64.5,153.7,131.6,116.6,46.4
8.0,66.8,160.4,135.4,120.9,48.5
9.0,67.5,163.2,137.1,122.6,49.5
10.0,68.3,162.6,141.6,124.2,49.5
11.0,71.6,166.0,144.2,127.3,49.4
12.0,71.7,166.5,146.6,128.3,50.0
13.0,73.8,174.3,150.5,132.9,52.5
14.0,74.2,172.8,153.5,133.5,52.3
15.0,76.8,176.6,156.5,136.6,52.8
16.0,79.3,177.4,159.0,138.6,52.1
17.0,78.6,184.2,166.7,143.2,56.6
18.0,78.9,184.6,170.9,144.8,57.5
19.0,81.5,191.6,173.7,149.0,59.1
20.0,83.3,202.9,175.3,153.8,62.6
21.0,86.3,206.4,179.0,157.2,62.9
22.0,86.3,216.3,185.4,162.7,67.9
23.0,86.9,226.5,185.2,166.2,71.7
24.0,88.8,232.5,188.4,169.9,73.6
25.0,89.9,238.0,188.4,172.1,75.4
26.0,90.4,252.0,192.0,178.1,81.7
27.0,90.1,269.4,201.7,187.1,90.5
28.0,90.6,281.9,199.2,190.6,95.9
29.0,89.1,283.1,201.5,191.3,97.4
30.0,89.8,300.5,208.0,199.4,105.6
31.0,91.7,303.9,207.2,200.9,106.2
32.0,93.5,309.2,213.5,205.4,108.1
33.0,95.1,312.9,214.3,207.4,109.1
34.0,96.3,316.3,223.0,211.8,110.4
35.0,98.3,328.4,228.4,218.3,115.4
36.0,99.0,323.6,228.3,217.0,112.7
37.0,100.9,330.0,236.5,222.5,115.2
38.0,103.6,329.5,245.8,226.3,114.2
39.0,105.6,328.1,247.5,227.1,112.7
40.0,106.5,338.1,252.5,232.3,117.1
41.0,109.6,339.7,256.3,235.2,116.5
42.0,111.3,340.7,259.9,237.3,116.3
43.0,114.9,328.9,262.3,235.4,109.5
44.0,118.6,337.7,263.7,240.0,111.4
45.0,122.8,344.6,261.7,243.0,112.1
46.0,126.6,343.2,264.2,244.7,109.6
47.0,128.0,346.6,262.4,245.7,110.2
48.0,131.7,352.4,269.2,251.1,111.5
49.0,132.4,356.5,266.8,251.9,112.8
50.0,133.3,357.5,269.3,253.4,113.0
51.0,135.9,353.5,268.2,252.5,109.6
52.0,134.8,354.5,274.6,254.6,111.2
53.0,140.6,350.2,274.9,255.2,106.2
54.0,140.3,356.5,287.5,261.4,110.4
55.0,144.2,357.3,279.7,260.4,107.9
56.0,144.6,358.6,286.3,263.2,108.9
57.0,146.5,360.7,284.1,263.8,108.5
58.0,146.3,364.5,293.4,268.1,111.3
59.0,147.5,360.9,293.4,267.3,109.0
60.0,147.9,368.3,292.1,269.4,111.9
61.0,148.5,373.2,298.7,273.5,114.4
62.0,148.7,378.0,306.7,277.8,117.4
63.0,150.8,373.4,304.9,276.4,114.0
64.0,152.5,382.7,306.4,280.5,117.3
65.0,153.6,381.2,314.0,282.9,116.9
66.0,155.4,380.8,318.1,284.8,116.3
67.0,156.5,390.5,306.0,284.3,118.5
68.0,158.5,394.1,310.3,287.6,119.4
69.0,160.0,391.9,305.6,285.8,117.2
70.0,164.5,393.9,308.2,288.8,115.9
71.0,166.7,398.5,305.4,290.2,116.6
72.0,167.5,400.9,307.8,292.0,117.5
73.0,168.0,394.5,304.8,289.1,114.1
74.0,168.1,406.0,306.9,293.6,119.5
75.0,172.1,410.3,308.0,296.8,119.5
76.0,174.6,403.3,311.9,296.6,115.1
77.0,173.8,415.5,306.3,298.5,121.0
78.0,177.7,407.4,314.2,299.8,115.5
79.0,177.9,411.4,319.3,302.9,117.6
80.0,180.8,409.2,313.0,301.0,114.7
81.0,180.5,417.4,315.9,304.6,118.8
82.0,183.7,413.5,314.5,303.9,115.3
83.0,183.6,400.6,312.4,298.8,109.1
84.0,182.6,406.2,315.8,301.5,112.5
85.0,189.8,406.7,316.4,304.3,109.0
86.0,187.6,411.4,320.8,306.6,112.5
87.0,189.5,410.5,313.4,304.5,110.8
88.0,194.0,408.2,315.1,305.8,107.4
89.0,191.8,401.2,310.2,301.1,105.0
90.0,197.0,399.5,307.6,301.4,101.4
91.0,196.4,411.5,305.1,304.3,107.6
92.0,197.8,404.0,303.3,301.7,103.1
93.0,202.3,399.7,304.9,302.3,98.7
94.0,201.1,404.4,295.3,300.3,101.8
95.0,201.4,399.2,293.9,298.2,99.0
96.0,202.3,404.5,293.6,300.1,101.2
97.0,204.0,405.5,293.9,301.1,100.9
98.0,210.1,395.2,290.4,298.6,92.8
99.0,208.2,401.3,291.3,300.3,96.8
100.0,207.2,401.5,285.6,298.1,97.8
101.0,202.7,400.5,288.2,297.1,99.2
102.0,204.7,397.3,285.2,295.7,96.7
103.0,203.7,405.7,286.9,298.8,101.5
104.0,205.8,408.8,283.8,299.5,102.4
105.0,203.2,392.5,289.5,295.1,94.7
106.0,202.2,390.8,282.3,291.8,94.7
107.0,202.5,405.5,274.0,294.0,103.0
108.0,200.7,402.8,280.2,294.6,101.8
109.0,200.3,394.4,269.4,288.0,98.4
110.0,198.3,385.3,271.5,285.0,94.2
111.0,204.2,378.0,263.9,282.0,88.3
112.0,200.7,378.7,271.3,283.6,89.6
113.0,200.9,369.6,270.9,280.5,84.7
114.0,201.9,370.9,268.5,280.4,85.1
115.0,203.6,359.4,272.1,278.4,78.1
116.0,208.9,359.7,270.0,279.6,75.9
117.0,207.1,357.1,273.1,279.1,75.2
118.0,209.0,358.6,273.5,280.3,75.0
119.0,211.4,350.3,274.9,278.9,69.6
120.0,213.4,348.6,272.5,278.2,67.8
121.0,212.8,344.9,276.4,278.0,66.1
122.0,214.9,332.5,269.8,272.4,58.8
123.0,214.7,326.9,270.9,270.8,56.1
124.0,215.3,325.9,274.0,271.8,55.3
125.0,214.2,319.9,276.2,270.1,53.1
126.0,219.0,316.6,270.6,268.7,48.8
127.0,216.7,312.6,276.8,268.7,48.4
128.0,217.0,311.1,272.4,266.8,47.3
129.0,216.6,304.2,275.4,265.4,44.7
130.0,218.9,295.1,271.3,261.8,39.0
131.0,227.3,290.0,271.5,262.9,32.2
132.0,231.4,280.7,266.9,259.7,25.4
133.0,228.8,280.3,273.4,260.8,27.9
134.0,231.9,271.1,265.2,256.1,21.1
135.0,235.3,273.1,268.3,258.9,20.6
136.0,232.5,261.7,263.2,252.5,17.3
137.0,237.9,260.5,268.0,255.5,15.7
138.0,234.9,251.5,265.4,250.6,15.3
139.0,238.9,247.6,264.5,250.4,13.0
140.0,236.5,245.2,265.0,248.9,14.6
141.0,242.8,239.0,268.2,250.0,15.9
142.0,245.3,228.5,265.4,246.4,18.5
143.0,248.5,226.7,264.5,246.6,19.0
144.0,255.0,213.5,266.6,245.0,27.9
145.0,251.7,209.9,265.5,242.4,29.0
146.0,258.6,203.7,269.6,243.9,35.3
147.0,256.5,202.9,267.2,242.2,34.5
148.0,252.7,193.8,267.4,238.0,39.0
149.0,257.1,192.4,262.6,237.4,39.1
150.0,257.9,186.7,261.0,235.2,42.1
151.0,259.0,181.4,269.5,236.7,48.1
152.0,257.2,176.7,259.4,231.1,47.1
153.0,263.0,170.1,262.2,231.8,53.4
154.0,264.1,163.9,260.0,229.3,56.7
155.0,267.6,155.7,264.5,229.3,63.7
156.0,265.9,151.3,258.5,225.2,64.1
157.0,262.2,145.2,257.3,221.6,66.2
158.0,269.5,139.4,256.7,221.9,71.7
159.0,264.0,133.7,257.4,218.4,73.4
160.0,257.9,131.3,253.2,214.1,71.8
161.0,260.3,128.4,251.6,213.5,73.8
162.0,256.8,123.1,245.9,208.6,74.3
163.0,258.0,118.0,251.7,209.2,79.1
164.0,255.8,115.6,248.0,206.5,78.8
165.0,258.6,110.8,246.4,205.3,82.0
166.0,256.3,106.0,243.3,201.9,83.3
167.0,258.1,100.9,237.0,198.7,85.4
168.0,261.7,97.4,233.9,197.7,87.9
169.0,267.4,95.8,230.1,197.7,90.3
170.0,271.7,91.4,222.6,195.2,93.2
171.0,274.0,87.5,216.0,192.5,95.4
172.0,273.2,84.6,214.3,190.7,96.5
173.0,281.5,81.1,212.2,191.6,101.8
174.0,285.2,77.7,208.2,190.4,104.9
175.0,277.9,75.4,208.2,187.2,102.9
176.0,281.0,72.0,207.3,186.8,106.0
177.0,271.3,68.2,203.7,181.0,103.4
178.0,274.5,63.0,204.4,180.6,107.8
179.0,268.8,57.7,201.4,176.0,107.8
180.0,268.1,54.8,194.6,172.5,108.3
181.0,266.9,52.0,193.9,170.9,109.3
182.0,261.7,50.1,195.0,168.9,108.2
183.0,265.7,47.8,191.2,168.2,110.8
184.0,263.1,44.5,194.0,167.2,111.7
185.0,265.2,42.2,191.8,166.4,113.6
186.0,264.6,38.5,190.0,164.3,115.2
187.0,260.6,35.8,189.7,162.1,114.9
188.0,260.6,33.5,182.2,158.7,115.4
189.0,256.9,31.9,184.0,157.6,114.8
190.0,259.3,29.5,178.3,155.7,116.5
191.0,259.5,27.7,177.0,154.7,117.5
192.0,259.4,25.3,175.3,153.3,118.6
193.0,256.0,24.2,173.4,151.2,117.5
194.0,259.4,22.3,172.6,151.4,119.9
195.0,254.9,21.4,167.6,148.0,118.0
196.0,255.7,20.7,161.8,146.1,118.3
197.0,253.1,19.6,163.1,145.3,117.8
198.0,251.3,19.0,162.1,144.1,117.2
199.0,256.8,17.5,161.2,145.2,120.4
200.0,254.4,,160.9,207.7,66.1
201.0,251.1,,158.5,204.8,65.5
202.0,245.8,,152.5,199.1,66.0
203.0,246.8,,153.7,200.2,65.8
204.0,242.3,,152.7,197.5,63.3
205.0,243.4,,148.8,196.1,66.9
206.0,244.1,,148.4,196.3,67.6
207.0,241.3,,143.5,192.4,69.2
208.0,238.3,,143.8,191.0,66.8
209.0,235.9,,142.6,189.2,66.0
210.0,232.6,,140.5,186.6,65.1
211.0,231.4,,135.9,183.6,67.5
212.0,231.6,,136.3,183.9,67.3
213.0,225.9,,133.1,179.5,65.6
214.0,225.8,,131.0,178.4,67.0
215.0,230.0,,128.8,179.4,71.6
216.0,228.7,,128.8,178.8,70.7
217.0,226.1,,124.6,175.3,71.8
218.0,225.5,,122.4,173.9,72.9
219.0,222.6,,120.9,171.7,71.9
220.0,218.6,,117.0,167.8,71.8
221.0,218.6,,114.3,166.4,73.7
222.0,217.6,,112.1,164.8,74.6
223.0,214.3,,107.9,161.1,75.2
224.0,210.3,,104.6,157.4,74.8
225.0,215.1,,104.3,159.7,78.3
226.0,208.2,,101.2,154.7,75.6
227.0,201.9,,98.5,150.2,73.1
228.0,199.9,,96.0,147.9,73.5
229.0,196.2,,94.2,145.2,72.1
230.0,194.1,,90.1,142.1,73.5
231.0,193.3,,86.9,140.1,75.2
232.0,194.5,,83.0,138.7,78.8
233.0,193.1,,80.0,136.5,79.9
234.0,190.1,,78.1,134.1,79.2
235.0,185.3,,74.6,129.9,78.3
236.0,182.5,,69.3,125.9,80.1
237.0,180.4,,66.6,123.5,80.5
238.0,178.2,,60.0,119.1,83.5
239.0,173.5,,55.4,114.4,83.5
240.0,174.4,,52.1,113.2,86.4
241.0,169.2,,48.9,109.1,85.1
242.0,165.8,,45.5,105.6,85.0
243.0,161.2,,42.2,101.7,84.1
244.0,163.0,,38.9,100.9,87.8
245.0,157.9,,35.8,96.9,86.3
246.0,156.3,,33.1,94.7,87.2
247.0,155.1,,29.7,92.4,88.6
248.0,151.2,,28.4,89.8,86.8
249.0,153.0,,26.5,89.7,89.4
250.0,150.5,,23.7,87.1,89.7
251.0,150.2,,,150.2,
252.0,144.3,,,144.3,
253.0,141.8,,,141.8,
254.0,135.2,,,135.2,
255.0,131.7,,,131.7,
256.0,129.2,,,129.2,
257.0,127.2,,,127.2,
258.0,124.9,,,124.9,
259.0,124.6,,,124.6,
260.0,123.4,,,123.4,
261.0,123.7,,,123.7,
262.0,119.4,,,119.4,
263.0,117.5,,,117.5,
264.0,116.8,,,116.8,
265.0,114.2,,,114.2,
266.0,111.1,,,111.1,
267.0,108.6,,,108.6,
268.0,107.0,,,107.0,
269.0,107.1,,,107.1,
270.0,103.2,,,103.2,
271.0,100.8,,,100.8,
272.0,98.5,,,98.5,
273.0,95.3,,,95.3,
274.0,91.9,,,91.9,
275.0,89.8,,,89.8,
276.0,86.0,,,86.0,
277.0,84.1,,,84.1,
278.0,81.6,,,81.6,
279.0,77.8,,,77.8,
280.0,75.9,,,75.9,
281.0,70.9,,,70.9,
282.0,67.9,,,67.9,
283.0,64.7,,,64.7,
284.0,62.3,,,62.3,
285.0,59.4,,,59.4,
286.0,56.5,,,56.5,
287.0,51.4,,,51.4,
288.0,48.5,,,48.5,
289.0,46.2,,,46.2,
290.0,43.1,,,43.1,
291.0,40.6,,,40.6,
292.0,39.0,,,39.0,
293.0,36.5,,,36.5,
294.0,32.7,,,32.7,
295.0,29.7,,,29.7,
296.0,27.1,,,27.1,
297.0,24.7,,,24.7,
298.0,23.3,,,23.3,
298.75,22.4,,,22.4,