File: 01_Data/XPS_Foam_Board/Cone/XPS_Foam_Board_HRRPUA_50.csv
Time after Ignition,XPS_Foam_Board_R1,XPS_Foam_Board_R2,XPS_Foam_Board_R3,Mean,Std. Dev.
0.0,20.5,35.7,44.7,33.6,12.2
0.5,34.5,46.4,62.3,47.8,14.0
1.0,50.6,68.4,85.3,68.1,17.4
1.5,67.1,84.9,99.4,83.8,16.2
2.0,88.6,108.9,119.5,105.7,15.7
2.5,108.9,128.6,137.3,124.9,14.6
3.0,126.5,145.8,145.1,139.1,10.9
3.5,149.1,168.7,163.7,160.5,10.2
4.0,161.3,179.8,173.8,171.6,9.4
4.5,179.7,193.6,200.8,191.4,10.7
5.0,191.9,208.4,207.6,202.6,9.3
5.5,211.4,220.5,214.9,215.6,4.6
6.0,226.7,234.3,226.5,229.2,4.4
6.5,236.8,244.6,242.7,241.4,4.1
7.0,248.2,260.3,251.9,253.5,6.2
7.5,263.5,271.1,262.3,265.6,4.8
8.0,281.5,301.6,281.5,288.2,11.6
8.5,302.8,315.0,291.5,303.1,11.8
9.0,315.1,344.6,305.3,321.7,20.5
9.5,335.1,375.4,322.3,344.3,27.7
10.0,364.0,386.9,328.9,359.9,29.2
10.5,378.6,412.8,342.9,378.1,35.0
11.0,414.4,476.1,362.4,417.6,56.9
11.5,441.6,503.4,374.6,439.9,64.4
12.0,461.8,543.1,401.3,468.7,71.1
12.5,490.4,543.9,432.7,489.0,55.6
13.0,498.1,594.4,476.3,522.9,62.9
13.5,545.2,650.6,501.1,565.6,76.8
14.0,581.6,681.8,522.2,595.2,80.6
14.5,594.0,687.2,551.8,611.0,69.2
15.0,655.7,763.8,586.2,668.6,89.5
15.5,672.4,810.0,611.4,697.9,101.7
16.0,750.5,796.4,678.3,741.7,59.5
16.5,746.3,860.0,693.2,766.5,85.2
17.0,803.1,891.1,707.0,800.4,92.0
17.5,808.2,939.6,725.8,824.5,107.8
18.0,832.1,945.0,767.2,848.1,90.0
18.5,853.3,956.0,768.9,859.4,93.7
19.0,865.9,1008.2,783.5,885.9,113.7
19.5,890.3,1019.2,830.1,913.2,96.6
20.0,883.4,980.3,869.7,911.2,60.3
20.5,897.4,1021.7,892.5,937.2,73.3
21.0,956.9,984.4,902.1,947.8,41.9
21.5,930.5,1055.4,879.9,955.3,90.3
22.0,923.2,1035.6,946.1,968.3,59.4
22.5,935.1,1007.2,920.8,954.3,46.3
23.0,928.8,988.1,931.1,949.3,33.6
23.5,924.9,990.3,901.1,938.8,46.2
24.0,965.3,947.2,964.1,958.9,10.1
24.5,958.5,959.3,946.6,954.8,7.2
25.0,919.3,908.8,930.8,919.6,11.0
25.5,946.1,907.6,998.7,950.8,45.7
26.0,916.0,879.4,945.8,913.7,33.3
26.5,914.4,846.6,893.9,885.0,34.8
27.0,924.6,832.7,896.2,884.5,47.0
27.5,902.5,816.0,876.9,865.1,44.5
28.0,884.2,794.0,855.7,844.6,46.1
28.5,867.1,770.2,845.6,827.6,50.9
29.0,830.5,746.8,816.7,798.0,44.9
29.5,828.3,712.8,806.2,782.5,61.3
30.0,800.4,690.8,759.4,750.2,55.4
30.5,767.7,656.9,793.4,739.3,72.5
31.0,762.8,624.6,742.2,709.9,74.6
31.5,736.9,608.9,725.6,690.4,70.9
32.0,698.2,576.2,706.1,660.2,72.8
32.5,681.1,576.0,697.7,651.6,66.0
33.0,638.2,540.3,675.3,617.9,69.7
33.5,603.0,516.3,642.3,587.2,64.5
34.0,585.6,500.9,619.8,568.7,61.2
34.5,555.6,477.0,588.7,540.4,57.4
35.0,522.9,456.9,560.8,513.5,52.6
35.5,494.1,440.0,542.6,492.2,51.3
36.0,476.6,417.4,527.6,473.9,55.1
36.5,453.4,398.6,494.7,448.9,48.2
37.0,443.0,393.3,478.0,438.1,42.6
37.5,424.6,366.1,460.6,417.1,47.7
38.0,399.7,354.2,436.0,396.6,41.0
38.5,384.9,336.8,427.7,383.1,45.5
39.0,364.4,333.2,406.0,367.9,36.6
39.5,341.2,309.3,390.8,347.1,41.1
40.0,332.1,297.2,368.1,332.5,35.5
40.5,320.2,284.3,349.9,318.1,32.9
41.0,312.0,269.2,327.3,302.8,30.1
41.5,287.5,257.2,309.2,284.6,26.1
42.0,278.8,241.5,295.7,272.0,27.7
42.5,268.9,227.7,282.9,259.8,28.7
43.0,256.5,212.2,270.0,246.2,30.3
43.5,243.2,200.4,247.2,230.3,25.9
44.0,231.6,188.5,238.5,219.5,27.1
44.5,217.6,177.5,222.6,205.9,24.7
45.0,211.4,169.4,210.5,197.1,24.0
45.5,206.7,163.3,195.1,188.4,22.5
46.0,194.1,154.1,181.1,176.4,20.4
46.5,194.4,143.4,168.0,168.6,25.5
47.0,181.2,138.4,154.7,158.1,21.6
47.5,174.4,129.4,140.7,148.2,23.4
48.0,168.4,122.7,127.5,139.5,25.1
48.5,162.4,114.7,116.5,131.2,27.0
49.0,155.8,107.6,102.1,121.8,29.5
49.5,148.4,102.1,91.8,114.1,30.1
50.0,142.1,95.0,83.5,106.9,31.1
50.5,137.9,91.0,76.1,101.7,32.2
51.0,133.6,86.2,67.8,95.9,34.0
51.5,126.6,82.7,61.0,90.1,33.4
52.0,122.2,77.6,53.7,84.5,34.8
52.5,117.0,75.8,47.4,80.1,35.0
53.0,114.4,71.7,42.6,76.3,36.1
53.5,109.2,68.9,37.2,71.8,36.1
54.0,104.5,65.3,32.0,67.3,36.3
54.5,100.1,61.5,,80.8,27.2
55.0,97.1,57.9,,77.5,27.7
55.5,90.3,54.0,,72.1,25.7
56.0,87.0,49.6,,68.3,26.4
56.5,82.4,46.4,,64.4,25.5
57.0,79.8,42.2,,61.0,26.6
57.5,74.3,39.3,,56.8,24.8
58.0,71.9,36.4,,54.1,25.1
58.5,68.7,33.9,,51.3,24.6
59.0,66.7,31.1,,48.9,25.2
59.5,64.2,28.6,,46.4,25.2
60.0,63.0,26.5,,44.7,25.8
60.5,60.8,23.7,,42.2,26.2
61.0,59.0,21.6,,40.3,26.4
61.5,57.9,19.5,,38.7,27.2
62.0,56.6,,,56.6,
62.5,54.6,,,54.6,
63.0,53.5,,,53.5,
63.5,51.8,,,51.8,
64.0,49.7,,,49.7,
64.5,48.0,,,48.0,
65.0,46.9,,,46.9,
65.5,45.1,,,45.1,
66.0,43.5,,,43.5,
66.5,42.1,,,42.1,
67.0,40.8,,,40.8,
67.5,39.9,,,39.9,
68.0,39.0,,,39.0,
68.5,38.3,,,38.3,
69.0,37.3,,,37.3,
69.5,36.8,,,36.8,
70.0,36.0,,,36.0,
70.5,34.0,,,34.0,
71.0,33.2,,,33.2,
71.5,31.2,,,31.2,
72.0,30.1,,,30.1,
72.5,28.8,,,28.8,
73.0,28.0,,,28.0,
73.5,27.3,,,27.3,
74.0,26.7,,,26.7,
74.5,25.0,,,25.0,
75.0,24.0,,,24.0,
75.5,22.3,,,22.3,
76.0,22.1,,,22.1,
76.5,20.7,,,20.7,
77.0,19.7,,,19.7,
77.5,18.2,,,18.2,
78.0,16.8,,,16.8,
78.5,14.9,,,14.9,
79.0,13.4,,,13.4,
79.5,11.9,,,11.9,
80.0,10.3,,,10.3,
80.25,9.6,,,9.6,