File: 01_Data/XPS_Foam_Board/Cone/XPS_Foam_Board_HRRPUA_25.csv
Time after Ignition,XPS_Foam_Board_R1,XPS_Foam_Board_R2,XPS_Foam_Board_R3,Mean,Std. Dev.
0.0,25.8,29.6,4.5,20.0,13.5
0.5,37.2,37.8,8.8,28.0,16.6
1.0,50.9,52.2,12.3,38.5,22.7
1.5,68.1,75.0,22.7,55.3,28.4
2.0,85.1,93.9,31.0,70.0,34.1
2.5,101.0,108.7,51.6,87.1,31.0
3.0,125.1,126.6,68.1,106.6,33.3
3.5,143.1,143.5,89.7,125.5,31.0
4.0,173.3,161.2,117.7,150.7,29.2
4.5,194.9,184.5,143.1,174.2,27.4
5.0,220.8,197.8,165.2,194.6,28.0
5.5,239.4,211.0,190.8,213.7,24.4
6.0,258.0,227.4,208.7,231.4,24.9
6.5,272.7,244.8,229.5,249.0,21.9
7.0,294.4,257.9,240.4,264.2,27.5
7.5,308.8,272.3,258.1,279.7,26.1
8.0,317.6,272.0,266.3,285.3,28.1
8.5,321.1,300.1,280.4,300.5,20.4
9.0,327.1,320.9,286.4,311.4,22.0
9.5,334.6,328.3,293.5,318.8,22.2
10.0,339.7,338.5,305.8,328.0,19.2
10.5,355.0,345.5,313.1,337.9,22.0
11.0,367.1,358.5,325.6,350.4,21.9
11.5,372.0,366.2,338.3,358.8,18.0
12.0,386.1,383.8,345.5,371.8,22.8
12.5,388.9,391.0,356.2,378.7,19.5
13.0,410.0,399.5,362.2,390.6,25.1
13.5,412.2,423.4,378.9,404.8,23.1
14.0,441.7,431.5,402.0,425.1,20.6
14.5,447.0,446.7,417.2,437.0,17.2
15.0,471.4,462.5,414.4,449.4,30.6
15.5,491.9,483.0,426.8,467.2,35.3
16.0,482.1,490.1,447.8,473.4,22.5
16.5,522.2,482.6,445.5,483.4,38.4
17.0,524.6,500.0,472.0,498.9,26.3
17.5,522.4,511.2,482.4,505.3,20.6
18.0,553.7,512.4,495.3,520.5,30.0
18.5,525.3,533.1,503.5,520.6,15.3
19.0,560.8,547.8,525.2,544.6,18.0
19.5,552.9,519.0,534.2,535.4,17.0
20.0,558.2,537.4,537.9,544.5,11.9
20.5,566.6,561.5,532.7,553.6,18.3
21.0,567.7,544.4,511.7,541.3,28.1
21.5,562.6,538.7,532.1,544.5,16.1
22.0,578.9,547.5,548.6,558.3,17.8
22.5,563.1,549.3,536.7,549.7,13.2
23.0,561.4,557.1,537.9,552.1,12.5
23.5,568.6,548.6,541.6,552.9,14.0
24.0,537.7,552.4,539.9,543.3,7.9
24.5,553.6,552.7,557.2,554.5,2.4
25.0,546.6,541.0,540.2,542.6,3.5
25.5,531.4,545.0,542.4,539.6,7.2
26.0,518.3,526.4,553.5,532.7,18.4
26.5,517.8,537.5,552.8,536.0,17.5
27.0,532.9,531.8,545.4,536.7,7.5
27.5,523.8,510.6,538.5,524.3,14.0
28.0,502.9,498.9,535.0,512.2,19.8
28.5,492.8,490.6,511.8,498.4,11.7
29.0,493.4,476.2,526.6,498.7,25.7
29.5,478.3,485.7,517.4,493.8,20.8
30.0,476.5,475.5,513.1,488.4,21.4
30.5,461.3,475.2,508.0,481.5,24.0
31.0,463.1,468.0,503.9,478.3,22.3
31.5,447.1,443.5,490.7,460.4,26.3
32.0,448.1,452.0,496.6,465.6,26.9
32.5,425.7,450.5,486.0,454.1,30.3
33.0,426.8,441.1,479.9,449.3,27.5
33.5,415.8,437.3,462.9,438.7,23.6
34.0,406.2,428.5,454.0,429.6,23.9
34.5,397.0,423.8,462.8,427.8,33.1
35.0,393.3,422.3,452.2,422.6,29.5
35.5,387.4,401.7,436.2,408.4,25.1
36.0,378.7,397.8,435.1,403.8,28.7
36.5,364.7,391.9,425.3,394.0,30.4
37.0,354.7,393.5,420.2,389.5,32.9
37.5,352.6,385.8,411.7,383.4,29.6
38.0,339.7,381.3,401.8,374.2,31.6
38.5,332.2,382.0,403.6,372.6,36.6
39.0,337.5,371.2,384.3,364.3,24.2
39.5,339.8,368.2,388.8,365.6,24.6
40.0,328.4,361.8,383.4,357.9,27.7
40.5,330.4,352.9,375.8,353.0,22.7
41.0,318.7,349.4,364.6,344.2,23.4
41.5,323.2,341.7,366.4,343.8,21.7
42.0,315.8,329.5,361.2,335.5,23.3
42.5,319.7,327.0,356.1,334.3,19.2
43.0,318.4,317.5,351.7,329.2,19.5
43.5,306.4,305.6,358.0,323.4,30.0
44.0,302.4,309.2,342.0,317.9,21.2
44.5,302.2,303.8,349.8,318.6,27.0
45.0,303.9,296.4,339.0,313.1,22.8
45.5,291.7,298.4,336.5,308.9,24.1
46.0,287.1,297.8,333.2,306.0,24.1
46.5,284.3,289.1,328.4,300.6,24.2
47.0,275.6,293.8,324.1,297.8,24.5
47.5,270.4,291.4,324.0,295.3,27.0
48.0,269.2,290.0,315.5,291.5,23.2
48.5,258.6,292.1,324.2,291.7,32.8
49.0,251.3,290.4,309.6,283.8,29.7
49.5,246.2,290.4,306.8,281.1,31.4
50.0,241.3,288.7,310.4,280.2,35.3
50.5,231.0,279.0,306.5,272.1,38.2
51.0,229.7,278.8,297.6,268.7,35.1
51.5,225.9,275.7,292.0,264.6,34.5
52.0,219.7,266.9,298.9,261.8,39.9
52.5,219.4,265.0,288.0,257.5,34.9
53.0,214.5,260.5,287.5,254.2,36.9
53.5,208.9,251.3,283.8,248.0,37.6
54.0,206.0,250.2,271.5,242.5,33.4
54.5,199.6,237.5,266.8,234.6,33.7
55.0,197.6,232.8,261.8,230.7,32.1
55.5,195.8,228.7,258.0,227.5,31.1
56.0,190.7,220.9,252.1,221.2,30.7
56.5,191.4,218.1,246.8,218.7,27.7
57.0,184.5,213.7,239.0,212.4,27.3
57.5,182.6,206.0,232.5,207.0,25.0
58.0,181.2,200.3,231.1,204.2,25.2
58.5,170.4,196.5,222.5,196.4,26.0
59.0,170.8,189.2,211.5,190.5,20.4
59.5,171.3,187.3,207.8,188.8,18.3
60.0,167.4,183.6,198.6,183.2,15.6
60.5,163.8,178.0,191.3,177.7,13.8
61.0,160.9,172.8,183.1,172.3,11.1
61.5,159.9,166.3,176.8,167.7,8.6
62.0,157.9,157.7,173.2,162.9,8.9
62.5,154.7,151.2,167.7,157.9,8.7
63.0,151.7,143.9,160.0,151.8,8.0
63.5,150.8,137.8,156.0,148.2,9.4
64.0,146.5,131.3,150.3,142.7,10.1
64.5,146.4,121.8,143.5,137.2,13.5
65.0,145.5,117.5,138.0,133.7,14.5
65.5,142.2,111.5,130.8,128.2,15.5
66.0,140.7,105.6,125.0,123.7,17.5
66.5,140.1,99.7,119.0,119.6,20.2
67.0,136.5,95.9,114.5,115.6,20.3
67.5,136.2,91.5,108.3,112.0,22.6
68.0,132.8,86.9,102.5,107.4,23.3
68.5,131.0,82.3,97.2,103.5,24.9
69.0,129.1,77.9,93.0,100.0,26.3
69.5,122.5,73.7,89.6,95.3,24.9
70.0,120.0,69.3,85.3,91.5,25.9
70.5,115.2,66.1,82.6,88.0,25.0
71.0,111.6,62.4,76.1,83.4,25.4
71.5,107.0,58.7,72.1,79.3,24.9
72.0,103.6,57.3,67.6,76.1,24.3
72.5,100.7,55.0,63.2,73.0,24.4
73.0,95.7,51.6,60.0,69.1,23.4
73.5,92.6,49.3,55.9,65.9,23.3
74.0,87.3,47.1,52.9,62.4,21.7
74.5,85.6,45.0,50.3,60.3,22.1
75.0,81.0,43.3,46.6,57.0,20.9
75.5,78.2,42.2,44.1,54.8,20.2
76.0,74.1,39.0,41.9,51.7,19.5
76.5,71.1,37.6,41.0,49.9,18.4
77.0,68.7,35.8,39.0,47.8,18.2
77.5,66.9,33.7,37.6,46.0,18.1
78.0,63.1,32.4,36.0,43.8,16.8
78.5,62.0,30.6,34.1,42.2,17.2
79.0,60.0,29.5,32.5,40.7,16.8
79.5,57.9,28.8,31.0,39.2,16.2
80.0,57.0,27.8,29.1,38.0,16.5
80.5,54.3,26.7,28.1,36.4,15.5
81.0,52.4,25.7,26.7,34.9,15.2
81.5,50.7,24.4,25.4,33.5,14.9
82.0,49.9,24.3,24.2,32.8,14.8
82.5,47.8,22.4,23.3,31.2,14.4
83.0,45.4,22.3,22.8,30.1,13.2
83.5,43.9,21.0,21.8,28.9,13.0
84.0,42.3,20.1,21.0,27.8,12.6
84.5,39.7,19.1,20.5,26.4,11.5
85.0,38.4,18.1,19.4,25.3,11.4
85.5,36.9,16.9,19.1,24.3,10.9
86.0,36.0,16.3,18.8,23.7,10.7
86.5,34.1,15.5,18.1,22.6,10.1
87.0,33.8,14.9,17.8,22.1,10.2
87.5,32.3,14.0,17.0,21.1,9.8
88.0,30.7,13.5,16.6,20.3,9.2
88.5,29.3,12.8,16.1,19.4,8.7
89.0,28.1,12.1,15.7,18.6,8.4
89.5,26.3,11.2,15.3,17.6,7.8
90.0,25.3,10.4,15.1,17.0,7.6
90.5,24.0,9.9,14.7,16.2,7.1
91.0,22.5,9.5,14.5,15.5,6.6
91.5,21.0,8.9,14.0,14.6,6.1
92.0,19.5,8.3,13.5,13.8,5.6
92.5,18.4,7.9,13.3,13.2,5.3
93.0,17.5,7.8,12.7,12.7,4.9
93.5,16.2,7.3,12.2,11.9,4.5
94.0,15.1,6.9,12.1,11.4,4.1
94.5,13.9,6.6,11.8,10.8,3.8
95.0,12.8,6.3,11.3,10.1,3.4
95.5,12.1,6.0,10.8,9.6,3.2
96.0,10.9,5.9,10.3,9.0,2.7
96.5,10.2,5.7,10.0,8.6,2.5
97.0,8.8,5.6,9.7,8.0,2.2
97.5,7.9,5.5,9.6,7.7,2.1
98.0,6.8,5.3,9.2,7.1,2.0
98.5,6.0,5.3,8.8,6.7,1.9
99.0,5.2,5.3,8.6,6.4,1.9
99.5,4.3,5.3,8.3,6.0,2.1
100.0,3.8,5.4,8.1,5.8,2.2
100.5,3.3,5.3,7.7,5.4,2.2
101.0,2.8,5.4,7.4,5.2,2.3
101.5,2.2,5.5,6.9,4.9,2.4
102.0,1.8,5.5,6.4,4.5,2.4
102.5,1.0,,6.0,3.5,3.6
103.0,0.2,,5.5,2.9,3.7
103.5,-0.5,,5.2,2.4,4.0
104.0,-1.2,,4.9,1.8,4.3
104.5,-1.9,,4.7,1.4,4.7
105.0,-2.4,,4.4,1.0,4.8