File: 01_Data/Cotton_Rug/FTIR/IS/Cotton_Rug_IS_S_220822_R4.dpt
7497.03,0.68085
7473.89,0.68094
7450.74,0.68773
7427.6,0.67964
7404.45,0.66018
7381.31,0.66053
7358.16,0.65934
7335.02,0.65009
7311.87,0.64769
7288.73,0.64472
7265.58,0.65007
7242.44,0.64630
7219.29,0.65044
7196.15,0.63920
7173,0.64812
7149.86,0.63471
7126.71,0.62896
7103.57,0.62880
7080.42,0.61659
7057.28,0.59642
7034.13,0.59253
7010.99,0.57203
6987.84,0.56349
6964.7,0.55877
6941.55,0.55832
6918.41,0.55163
6895.26,0.55277
6872.12,0.54675
6848.97,0.54122
6825.83,0.53827
6802.68,0.52817
6779.54,0.52505
6756.39,0.52584
6733.25,0.52669
6710.1,0.52418
6686.96,0.52409
6663.82,0.52738
6640.67,0.52877
6617.53,0.53156
6594.38,0.53625
6571.24,0.53619
6548.09,0.53893
6524.95,0.53827
6501.8,0.54039
6478.66,0.53755
6455.51,0.53975
6432.37,0.54381
6409.22,0.54201
6386.08,0.54109
6362.93,0.54423
6339.79,0.54285
6316.64,0.54266
6293.5,0.55001
6270.35,0.55215
6247.21,0.55665
6224.06,0.56251
6200.92,0.56720
6177.77,0.57539
6154.63,0.58095
6131.48,0.58409
6108.34,0.58695
6085.19,0.57556
6062.05,0.56914
6038.9,0.55632
6015.76,0.54666
5992.61,0.56919
5969.47,0.57781
5946.32,0.57757
5923.18,0.58478
5900.03,0.58986
5876.89,0.57842
5853.74,0.57411
5830.6,0.57488
5807.45,0.57357
5784.31,0.57041
5761.16,0.57213
5738.02,0.57512
5714.87,0.57458
5691.73,0.57659
5668.58,0.57716
5645.44,0.57730
5622.29,0.57744
5599.15,0.58057
5576,0.57825
5552.86,0.58178
5529.71,0.58128
5506.57,0.58141
5483.42,0.58064
5460.28,0.58195
5437.13,0.58621
5413.99,0.59413
5390.84,0.59679
5367.7,0.59905
5344.55,0.59597
5321.41,0.59331
5298.26,0.58229
5275.12,0.56431
5251.97,0.53881
5228.83,0.51608
5205.68,0.50546
5182.54,0.50288
5159.39,0.50357
5136.25,0.50797
5113.1,0.51530
5089.96,0.52498
5066.81,0.53493
5043.67,0.53957
5020.52,0.54451
4997.38,0.54488
4974.23,0.54202
4951.09,0.53265
4927.94,0.51666
4904.8,0.49478
4881.65,0.47074
4858.51,0.45258
4835.36,0.43440
4812.22,0.41819
4789.07,0.40842
4765.93,0.40556
4742.78,0.40156
4719.64,0.39972
4696.49,0.40015
4673.35,0.41443
4650.2,0.42461
4627.06,0.42965
4603.92,0.44676
4580.77,0.44854
4557.63,0.46670
4534.48,0.47263
4511.34,0.47176
4488.19,0.45695
4465.05,0.43533
4441.9,0.40670
4418.76,0.38737
4395.61,0.37460
4372.47,0.38744
4349.32,0.38483
4326.18,0.37251
4303.03,0.35834
4279.89,0.34856
4256.74,0.35096
4233.6,0.35517
4210.45,0.36175
4187.31,0.36702
4164.16,0.37030
4141.02,0.36853
4117.87,0.35568
4094.73,0.32140
4071.58,0.31556
4048.44,0.29982
4025.29,0.28759
4002.15,0.29190
3979,0.30135
3955.86,0.31054
3932.71,0.32288
3909.57,0.33347
3886.42,0.34480
3863.28,0.35601
3840.13,0.36850
3816.99,0.37025
3793.84,0.37118
3770.7,0.36966
3747.55,0.36626
3724.41,0.35528
3701.26,0.32789
3678.12,0.28189
3654.97,0.21716
3631.83,0.16120
3608.68,0.11958
3585.54,0.08869
3562.39,0.06812
3539.25,0.05675
3516.1,0.04940
3492.96,0.04425
3469.81,0.04112
3446.67,0.03761
3423.52,0.03602
3400.38,0.03869
3377.23,0.04014
3354.09,0.03993
3330.94,0.04254
3307.8,0.04290
3284.65,0.04449
3261.51,0.04651
3238.36,0.04954
3215.22,0.05402
3192.07,0.05928
3168.93,0.06596
3145.78,0.07147
3122.64,0.07796
3099.49,0.08420
3076.35,0.09189
3053.2,0.09870
3030.06,0.11149
3006.91,0.10581
2983.77,0.08663
2960.62,0.06058
2937.48,0.05850
2914.33,0.04788
2891.19,0.05098
2868.04,0.05830
2844.9,0.07525
2821.75,0.10013
2798.61,0.11692
2775.46,0.12698
2752.32,0.13123
2729.17,0.13396
2706.03,0.14415
2682.88,0.15860
2659.74,0.16704
2636.59,0.17386
2613.45,0.18158
2590.3,0.18671
2567.16,0.18851
2544.02,0.18579
2520.87,0.18989
2497.73,0.20276
2474.58,0.21826
2451.44,0.22709
2428.29,0.23455
2405.15,0.23855
2382,0.24485
2358.86,0.26042
2335.71,0.27515
2312.57,0.28283
2289.42,0.27035
2266.28,0.26035
2243.13,0.23247
2219.99,0.26089
2196.84,0.26726
2173.7,0.25134
2150.55,0.22966
2127.41,0.22036
2104.26,0.22687
2081.12,0.23918
2057.97,0.24992
2034.83,0.25914
2011.68,0.27013
1988.54,0.26489
1965.39,0.24769
1942.25,0.26538
1919.1,0.29567
1895.96,0.30562
1872.81,0.30155
1849.67,0.27211
1826.52,0.23602
1803.38,0.22274
1780.23,0.19870
1757.09,0.14415
1733.94,0.08850
1710.8,0.09722
1687.65,0.10880
1664.51,0.10598
1641.36,0.10513
1618.22,0.11053
1595.07,0.12971
1571.93,0.12671
1548.78,0.13849
1525.64,0.12698
1502.49,0.08923
1479.35,0.06606
1456.2,0.03854
1433.06,0.03573
1409.91,0.03324
1386.77,0.03473
1363.62,0.02798
1340.48,0.02714
1317.33,0.02580
1294.19,0.03063
1271.04,0.03814
1247.9,0.03759
1224.75,0.04025
1201.61,0.04021
1178.46,0.03294
1155.32,0.02906
1132.17,0.02059
1109.03,0.02584
1085.88,0.02596
1062.74,0.04952
1039.59,0.03994
1016.45,0.03903
993.304,0.05475
970.159,0.07008
947.014,0.12411
923.869,0.13419
900.724,0.09136
877.579,0.10300
854.434,0.11506
831.289,0.12511
808.144,0.11677
784.999,0.10272
761.854,0.09210
738.709,0.05026
715.565,0.05671
692.42,0.06588
669.275,0.05821
646.13,0.05958
622.985,0.05236
599.84,0.05651