File: 01_Data/Cotton_Rug/FTIR/IS/Cotton_Rug_IS_S_220822_R1.dpt
7497.03,0.68504
7473.89,0.67476
7450.74,0.67797
7427.6,0.67448
7404.45,0.66149
7381.31,0.66332
7358.16,0.65752
7335.02,0.64919
7311.87,0.64775
7288.73,0.63826
7265.58,0.64033
7242.44,0.64377
7219.29,0.63994
7196.15,0.63693
7173,0.63964
7149.86,0.62712
7126.71,0.63080
7103.57,0.61283
7080.42,0.59344
7057.28,0.59155
7034.13,0.58078
7010.99,0.57381
6987.84,0.56373
6964.7,0.55743
6941.55,0.54988
6918.41,0.54587
6895.26,0.54048
6872.12,0.53929
6848.97,0.53521
6825.83,0.52948
6802.68,0.52760
6779.54,0.51752
6756.39,0.51679
6733.25,0.51474
6710.1,0.51409
6686.96,0.51825
6663.82,0.51540
6640.67,0.52682
6617.53,0.52302
6594.38,0.53171
6571.24,0.53015
6548.09,0.53102
6524.95,0.53082
6501.8,0.53114
6478.66,0.52974
6455.51,0.53011
6432.37,0.53347
6409.22,0.53338
6386.08,0.53623
6362.93,0.53682
6339.79,0.53794
6316.64,0.54214
6293.5,0.53794
6270.35,0.54531
6247.21,0.55261
6224.06,0.55741
6200.92,0.56132
6177.77,0.57094
6154.63,0.57676
6131.48,0.57879
6108.34,0.57644
6085.19,0.56995
6062.05,0.56505
6038.9,0.54917
6015.76,0.54191
5992.61,0.56076
5969.47,0.56802
5946.32,0.57354
5923.18,0.58009
5900.03,0.58291
5876.89,0.57104
5853.74,0.56846
5830.6,0.56899
5807.45,0.56807
5784.31,0.56617
5761.16,0.56540
5738.02,0.57207
5714.87,0.57159
5691.73,0.57112
5668.58,0.56841
5645.44,0.57098
5622.29,0.57296
5599.15,0.57355
5576,0.57401
5552.86,0.57282
5529.71,0.57323
5506.57,0.57445
5483.42,0.57451
5460.28,0.57452
5437.13,0.58019
5413.99,0.58485
5390.84,0.58818
5367.7,0.58886
5344.55,0.58526
5321.41,0.58118
5298.26,0.56693
5275.12,0.54120
5251.97,0.50814
5228.83,0.48539
5205.68,0.47051
5182.54,0.46728
5159.39,0.46721
5136.25,0.47416
5113.1,0.48210
5089.96,0.49393
5066.81,0.50307
5043.67,0.51159
5020.52,0.51672
4997.38,0.52272
4974.23,0.52215
4951.09,0.51569
4927.94,0.50404
4904.8,0.48675
4881.65,0.46582
4858.51,0.44674
4835.36,0.43154
4812.22,0.41571
4789.07,0.40513
4765.93,0.40192
4742.78,0.39662
4719.64,0.39593
4696.49,0.39643
4673.35,0.41132
4650.2,0.42114
4627.06,0.42477
4603.92,0.44236
4580.77,0.44399
4557.63,0.46131
4534.48,0.46697
4511.34,0.46766
4488.19,0.45332
4465.05,0.43147
4441.9,0.40423
4418.76,0.38468
4395.61,0.37148
4372.47,0.38564
4349.32,0.38226
4326.18,0.36934
4303.03,0.35564
4279.89,0.34593
4256.74,0.34827
4233.6,0.35198
4210.45,0.35839
4187.31,0.36227
4164.16,0.36603
4141.02,0.36298
4117.87,0.35043
4094.73,0.31690
4071.58,0.31199
4048.44,0.29509
4025.29,0.28434
4002.15,0.28810
3979,0.29679
3955.86,0.30526
3932.71,0.31728
3909.57,0.32679
3886.42,0.33789
3863.28,0.34827
3840.13,0.35933
3816.99,0.35953
3793.84,0.35917
3770.7,0.35555
3747.55,0.34973
3724.41,0.33595
3701.26,0.30547
3678.12,0.25050
3654.97,0.18139
3631.83,0.12940
3608.68,0.09720
3585.54,0.07532
3562.39,0.06013
3539.25,0.05093
3516.1,0.04573
3492.96,0.04212
3469.81,0.03994
3446.67,0.03640
3423.52,0.03543
3400.38,0.03850
3377.23,0.03854
3354.09,0.04026
3330.94,0.04217
3307.8,0.04224
3284.65,0.04327
3261.51,0.04600
3238.36,0.04829
3215.22,0.05165
3192.07,0.05561
3168.93,0.06022
3145.78,0.06610
3122.64,0.07137
3099.49,0.07700
3076.35,0.08346
3053.2,0.09009
3030.06,0.10226
3006.91,0.09774
2983.77,0.08239
2960.62,0.05917
2937.48,0.05833
2914.33,0.04664
2891.19,0.04965
2868.04,0.05837
2844.9,0.07338
2821.75,0.09776
2798.61,0.11405
2775.46,0.12376
2752.32,0.12808
2729.17,0.13049
2706.03,0.14077
2682.88,0.15495
2659.74,0.16383
2636.59,0.17047
2613.45,0.17866
2590.3,0.18351
2567.16,0.18513
2544.02,0.18236
2520.87,0.18636
2497.73,0.19903
2474.58,0.21431
2451.44,0.22303
2428.29,0.23080
2405.15,0.23389
2382,0.23948
2358.86,0.25508
2335.71,0.26778
2312.57,0.27522
2289.42,0.26197
2266.28,0.25208
2243.13,0.22486
2219.99,0.25088
2196.84,0.25594
2173.7,0.24028
2150.55,0.21966
2127.41,0.21133
2104.26,0.21734
2081.12,0.22891
2057.97,0.23958
2034.83,0.24805
2011.68,0.25932
1988.54,0.25521
1965.39,0.23969
1942.25,0.25707
1919.1,0.28460
1895.96,0.29463
1872.81,0.29019
1849.67,0.26308
1826.52,0.22938
1803.38,0.21603
1780.23,0.19265
1757.09,0.14052
1733.94,0.08574
1710.8,0.09281
1687.65,0.09893
1664.51,0.09301
1641.36,0.09082
1618.22,0.09875
1595.07,0.11996
1571.93,0.12065
1548.78,0.13187
1525.64,0.12171
1502.49,0.08649
1479.35,0.06427
1456.2,0.03811
1433.06,0.03589
1409.91,0.03327
1386.77,0.03465
1363.62,0.02815
1340.48,0.02716
1317.33,0.02571
1294.19,0.03066
1271.04,0.03879
1247.9,0.03833
1224.75,0.04077
1201.61,0.04001
1178.46,0.03386
1155.32,0.02883
1132.17,0.02056
1109.03,0.02590
1085.88,0.02731
1062.74,0.04982
1039.59,0.03926
1016.45,0.03850
993.304,0.05500
970.159,0.07024
947.014,0.12294
923.869,0.13000
900.724,0.08792
877.579,0.09822
854.434,0.10596
831.289,0.11390
808.144,0.10435
784.999,0.09214
761.854,0.08347
738.709,0.04580
715.565,0.05563
692.42,0.06251
669.275,0.05536
646.13,0.05828
622.985,0.05159
599.84,0.05415