File: 01_Data/Cotton_Rug/FTIR/IS/Cotton_Rug_IS_S_220822_R5.dpt
7497.03,0.68486
7473.89,0.68098
7450.74,0.67315
7427.6,0.67416
7404.45,0.67438
7381.31,0.66899
7358.16,0.65103
7335.02,0.65277
7311.87,0.65442
7288.73,0.64136
7265.58,0.64201
7242.44,0.65023
7219.29,0.64474
7196.15,0.64240
7173,0.64408
7149.86,0.63318
7126.71,0.63712
7103.57,0.62570
7080.42,0.61349
7057.28,0.59851
7034.13,0.57997
7010.99,0.57823
6987.84,0.56143
6964.7,0.55670
6941.55,0.55156
6918.41,0.55428
6895.26,0.54644
6872.12,0.54689
6848.97,0.54040
6825.83,0.53692
6802.68,0.53272
6779.54,0.52489
6756.39,0.52701
6733.25,0.52843
6710.1,0.51899
6686.96,0.52832
6663.82,0.52597
6640.67,0.52857
6617.53,0.52831
6594.38,0.53531
6571.24,0.53804
6548.09,0.53917
6524.95,0.53191
6501.8,0.53633
6478.66,0.53557
6455.51,0.53512
6432.37,0.53567
6409.22,0.53623
6386.08,0.53856
6362.93,0.54251
6339.79,0.54511
6316.64,0.54613
6293.5,0.54781
6270.35,0.55029
6247.21,0.55624
6224.06,0.56326
6200.92,0.57049
6177.77,0.57752
6154.63,0.58089
6131.48,0.58324
6108.34,0.58133
6085.19,0.57450
6062.05,0.56520
6038.9,0.55638
6015.76,0.54365
5992.61,0.56784
5969.47,0.57492
5946.32,0.57717
5923.18,0.58251
5900.03,0.58307
5876.89,0.57462
5853.74,0.57273
5830.6,0.57066
5807.45,0.56866
5784.31,0.56628
5761.16,0.56761
5738.02,0.57407
5714.87,0.57529
5691.73,0.57190
5668.58,0.57479
5645.44,0.57464
5622.29,0.57595
5599.15,0.57745
5576,0.57738
5552.86,0.57817
5529.71,0.57838
5506.57,0.57888
5483.42,0.57817
5460.28,0.58050
5437.13,0.58561
5413.99,0.59249
5390.84,0.59435
5367.7,0.59526
5344.55,0.59359
5321.41,0.58989
5298.26,0.57982
5275.12,0.55929
5251.97,0.53283
5228.83,0.51097
5205.68,0.49906
5182.54,0.49576
5159.39,0.49724
5136.25,0.50074
5113.1,0.51039
5089.96,0.52062
5066.81,0.52895
5043.67,0.53536
5020.52,0.53872
4997.38,0.54073
4974.23,0.53709
4951.09,0.53048
4927.94,0.51319
4904.8,0.49223
4881.65,0.46946
4858.51,0.45056
4835.36,0.43329
4812.22,0.41555
4789.07,0.40741
4765.93,0.40276
4742.78,0.39952
4719.64,0.39842
4696.49,0.39898
4673.35,0.41351
4650.2,0.42372
4627.06,0.42749
4603.92,0.44522
4580.77,0.44567
4557.63,0.46445
4534.48,0.46982
4511.34,0.46946
4488.19,0.45527
4465.05,0.43369
4441.9,0.40644
4418.76,0.38634
4395.61,0.37248
4372.47,0.38661
4349.32,0.38299
4326.18,0.37145
4303.03,0.35670
4279.89,0.34719
4256.74,0.35022
4233.6,0.35391
4210.45,0.36094
4187.31,0.36563
4164.16,0.36881
4141.02,0.36611
4117.87,0.35497
4094.73,0.32056
4071.58,0.31433
4048.44,0.29747
4025.29,0.28624
4002.15,0.29051
3979,0.30054
3955.86,0.30908
3932.71,0.32060
3909.57,0.33166
3886.42,0.34294
3863.28,0.35431
3840.13,0.36621
3816.99,0.36717
3793.84,0.36865
3770.7,0.36590
3747.55,0.36254
3724.41,0.35134
3701.26,0.32438
3678.12,0.27566
3654.97,0.21053
3631.83,0.15474
3608.68,0.11506
3585.54,0.08710
3562.39,0.06762
3539.25,0.05572
3516.1,0.04913
3492.96,0.04403
3469.81,0.04143
3446.67,0.03714
3423.52,0.03631
3400.38,0.03946
3377.23,0.03966
3354.09,0.04075
3330.94,0.04180
3307.8,0.04236
3284.65,0.04400
3261.51,0.04635
3238.36,0.04963
3215.22,0.05359
3192.07,0.05908
3168.93,0.06457
3145.78,0.07114
3122.64,0.07726
3099.49,0.08341
3076.35,0.09016
3053.2,0.09650
3030.06,0.10982
3006.91,0.10377
2983.77,0.08594
2960.62,0.06011
2937.48,0.05851
2914.33,0.04683
2891.19,0.05085
2868.04,0.05855
2844.9,0.07430
2821.75,0.09933
2798.61,0.11629
2775.46,0.12588
2752.32,0.13114
2729.17,0.13360
2706.03,0.14339
2682.88,0.15729
2659.74,0.16618
2636.59,0.17314
2613.45,0.18110
2590.3,0.18610
2567.16,0.18711
2544.02,0.18464
2520.87,0.18847
2497.73,0.20219
2474.58,0.21698
2451.44,0.22585
2428.29,0.23336
2405.15,0.23706
2382,0.24352
2358.86,0.25907
2335.71,0.27381
2312.57,0.28143
2289.42,0.26799
2266.28,0.25868
2243.13,0.23093
2219.99,0.25886
2196.84,0.26482
2173.7,0.24958
2150.55,0.22786
2127.41,0.21870
2104.26,0.22514
2081.12,0.23705
2057.97,0.24758
2034.83,0.25694
2011.68,0.26802
1988.54,0.26250
1965.39,0.24616
1942.25,0.26361
1919.1,0.29324
1895.96,0.30353
1872.81,0.29865
1849.67,0.27016
1826.52,0.23448
1803.38,0.22123
1780.23,0.19731
1757.09,0.14336
1733.94,0.08772
1710.8,0.09671
1687.65,0.10682
1664.51,0.10370
1641.36,0.10278
1618.22,0.10880
1595.07,0.12827
1571.93,0.12610
1548.78,0.13713
1525.64,0.12577
1502.49,0.08841
1479.35,0.06505
1456.2,0.03831
1433.06,0.03583
1409.91,0.03271
1386.77,0.03466
1363.62,0.02779
1340.48,0.02703
1317.33,0.02582
1294.19,0.03053
1271.04,0.03817
1247.9,0.03771
1224.75,0.04040
1201.61,0.03981
1178.46,0.03354
1155.32,0.02845
1132.17,0.02126
1109.03,0.02698
1085.88,0.02644
1062.74,0.04961
1039.59,0.03975
1016.45,0.03830
993.304,0.05502
970.159,0.07005
947.014,0.12390
923.869,0.13301
900.724,0.09119
877.579,0.10235
854.434,0.11350
831.289,0.12351
808.144,0.11470
784.999,0.10097
761.854,0.09148
738.709,0.05005
715.565,0.05660
692.42,0.06416
669.275,0.05788
646.13,0.05929
622.985,0.05308
599.84,0.05750