File: 01_Data/Cotton_Rug/FTIR/IS/Cotton_Rug_IS_S_220822_R2.dpt
7497.03,0.68184
7473.89,0.67538
7450.74,0.68096
7427.6,0.66952
7404.45,0.66674
7381.31,0.65776
7358.16,0.65906
7335.02,0.64817
7311.87,0.64489
7288.73,0.63899
7265.58,0.64564
7242.44,0.64391
7219.29,0.63998
7196.15,0.63840
7173,0.63754
7149.86,0.63862
7126.71,0.62949
7103.57,0.61378
7080.42,0.61043
7057.28,0.59293
7034.13,0.57886
7010.99,0.57165
6987.84,0.56012
6964.7,0.55704
6941.55,0.54894
6918.41,0.55030
6895.26,0.54880
6872.12,0.54137
6848.97,0.53621
6825.83,0.53058
6802.68,0.53140
6779.54,0.52466
6756.39,0.52175
6733.25,0.52318
6710.1,0.51968
6686.96,0.51512
6663.82,0.52069
6640.67,0.52456
6617.53,0.52516
6594.38,0.53043
6571.24,0.53152
6548.09,0.53490
6524.95,0.53613
6501.8,0.52902
6478.66,0.53456
6455.51,0.53527
6432.37,0.53997
6409.22,0.53663
6386.08,0.53856
6362.93,0.54258
6339.79,0.54141
6316.64,0.54134
6293.5,0.54383
6270.35,0.54845
6247.21,0.55547
6224.06,0.56203
6200.92,0.56479
6177.77,0.57040
6154.63,0.57748
6131.48,0.57981
6108.34,0.57838
6085.19,0.57133
6062.05,0.56295
6038.9,0.55447
6015.76,0.54261
5992.61,0.56320
5969.47,0.57152
5946.32,0.57692
5923.18,0.57993
5900.03,0.58274
5876.89,0.57402
5853.74,0.57062
5830.6,0.56985
5807.45,0.56652
5784.31,0.56526
5761.16,0.56870
5738.02,0.57004
5714.87,0.57277
5691.73,0.57113
5668.58,0.57087
5645.44,0.57132
5622.29,0.57395
5599.15,0.57616
5576,0.57525
5552.86,0.57492
5529.71,0.57438
5506.57,0.57671
5483.42,0.57673
5460.28,0.57804
5437.13,0.58409
5413.99,0.59040
5390.84,0.59203
5367.7,0.59102
5344.55,0.59083
5321.41,0.58349
5298.26,0.57250
5275.12,0.54648
5251.97,0.51545
5228.83,0.49290
5205.68,0.48139
5182.54,0.47652
5159.39,0.47764
5136.25,0.48566
5113.1,0.49132
5089.96,0.50297
5066.81,0.51319
5043.67,0.52002
5020.52,0.52599
4997.38,0.52932
4974.23,0.52775
4951.09,0.52073
4927.94,0.50821
4904.8,0.48961
4881.65,0.46783
4858.51,0.44885
4835.36,0.43253
4812.22,0.41637
4789.07,0.40629
4765.93,0.40108
4742.78,0.39784
4719.64,0.39655
4696.49,0.39732
4673.35,0.41178
4650.2,0.42218
4627.06,0.42553
4603.92,0.44333
4580.77,0.44510
4557.63,0.46142
4534.48,0.47016
4511.34,0.46857
4488.19,0.45396
4465.05,0.43233
4441.9,0.40590
4418.76,0.38533
4395.61,0.37210
4372.47,0.38632
4349.32,0.38254
4326.18,0.37104
4303.03,0.35638
4279.89,0.34591
4256.74,0.34976
4233.6,0.35263
4210.45,0.35884
4187.31,0.36341
4164.16,0.36760
4141.02,0.36464
4117.87,0.35250
4094.73,0.31832
4071.58,0.31329
4048.44,0.29691
4025.29,0.28546
4002.15,0.28937
3979,0.29846
3955.86,0.30702
3932.71,0.31771
3909.57,0.32878
3886.42,0.33979
3863.28,0.34987
3840.13,0.36158
3816.99,0.36302
3793.84,0.36285
3770.7,0.35940
3747.55,0.35415
3724.41,0.34194
3701.26,0.31284
3678.12,0.26059
3654.97,0.19067
3631.83,0.13754
3608.68,0.10339
3585.54,0.07900
3562.39,0.06265
3539.25,0.05303
3516.1,0.04716
3492.96,0.04323
3469.81,0.04022
3446.67,0.03606
3423.52,0.03533
3400.38,0.03882
3377.23,0.04001
3354.09,0.04035
3330.94,0.04182
3307.8,0.04290
3284.65,0.04361
3261.51,0.04662
3238.36,0.04850
3215.22,0.05276
3192.07,0.05657
3168.93,0.06182
3145.78,0.06758
3122.64,0.07337
3099.49,0.07916
3076.35,0.08582
3053.2,0.09247
3030.06,0.10548
3006.91,0.10084
2983.77,0.08388
2960.62,0.05949
2937.48,0.05785
2914.33,0.04670
2891.19,0.05076
2868.04,0.05829
2844.9,0.07368
2821.75,0.09810
2798.61,0.11510
2775.46,0.12479
2752.32,0.12926
2729.17,0.13130
2706.03,0.14151
2682.88,0.15579
2659.74,0.16472
2636.59,0.17132
2613.45,0.17907
2590.3,0.18461
2567.16,0.18611
2544.02,0.18297
2520.87,0.18740
2497.73,0.20049
2474.58,0.21540
2451.44,0.22396
2428.29,0.23203
2405.15,0.23527
2382,0.24127
2358.86,0.25682
2335.71,0.26997
2312.57,0.27749
2289.42,0.26424
2266.28,0.25495
2243.13,0.22726
2219.99,0.25408
2196.84,0.25939
2173.7,0.24384
2150.55,0.22275
2127.41,0.21403
2104.26,0.22009
2081.12,0.23211
2057.97,0.24247
2034.83,0.25155
2011.68,0.26261
1988.54,0.25747
1965.39,0.24208
1942.25,0.25907
1919.1,0.28807
1895.96,0.29792
1872.81,0.29346
1849.67,0.26543
1826.52,0.23098
1803.38,0.21816
1780.23,0.19432
1757.09,0.14175
1733.94,0.08669
1710.8,0.09406
1687.65,0.10198
1664.51,0.09693
1641.36,0.09520
1618.22,0.10184
1595.07,0.12331
1571.93,0.12236
1548.78,0.13380
1525.64,0.12354
1502.49,0.08752
1479.35,0.06485
1456.2,0.03807
1433.06,0.03587
1409.91,0.03352
1386.77,0.03477
1363.62,0.02839
1340.48,0.02683
1317.33,0.02572
1294.19,0.03086
1271.04,0.03851
1247.9,0.03785
1224.75,0.04052
1201.61,0.04023
1178.46,0.03346
1155.32,0.02892
1132.17,0.02047
1109.03,0.02556
1085.88,0.02605
1062.74,0.04922
1039.59,0.03993
1016.45,0.03929
993.304,0.05452
970.159,0.07029
947.014,0.12309
923.869,0.13122
900.724,0.08946
877.579,0.10000
854.434,0.10922
831.289,0.11739
808.144,0.10761
784.999,0.09504
761.854,0.08607
738.709,0.04803
715.565,0.05615
692.42,0.06337
669.275,0.05638
646.13,0.05747
622.985,0.05181
599.84,0.05455