File: 01_Data/Cotton_Rug/FTIR/IS/Cotton_Rug_IS_S_220822_R6.dpt
7497.03,0.67701
7473.89,0.68278
7450.74,0.67526
7427.6,0.67668
7404.45,0.67189
7381.31,0.66366
7358.16,0.64994
7335.02,0.65218
7311.87,0.64885
7288.73,0.64225
7265.58,0.64736
7242.44,0.64799
7219.29,0.65269
7196.15,0.64719
7173,0.64474
7149.86,0.64443
7126.71,0.63237
7103.57,0.62176
7080.42,0.61342
7057.28,0.59717
7034.13,0.58665
7010.99,0.57500
6987.84,0.56546
6964.7,0.56128
6941.55,0.55806
6918.41,0.55698
6895.26,0.55015
6872.12,0.54840
6848.97,0.54907
6825.83,0.53699
6802.68,0.53325
6779.54,0.52972
6756.39,0.52304
6733.25,0.52251
6710.1,0.52490
6686.96,0.52383
6663.82,0.52268
6640.67,0.53170
6617.53,0.53040
6594.38,0.53941
6571.24,0.54300
6548.09,0.53548
6524.95,0.54213
6501.8,0.53949
6478.66,0.53869
6455.51,0.54131
6432.37,0.53799
6409.22,0.53971
6386.08,0.54506
6362.93,0.54510
6339.79,0.54411
6316.64,0.54474
6293.5,0.55117
6270.35,0.55485
6247.21,0.55849
6224.06,0.56586
6200.92,0.57162
6177.77,0.57730
6154.63,0.58462
6131.48,0.58544
6108.34,0.58312
6085.19,0.57979
6062.05,0.56824
6038.9,0.55453
6015.76,0.54976
5992.61,0.56759
5969.47,0.57905
5946.32,0.58143
5923.18,0.58436
5900.03,0.58787
5876.89,0.57650
5853.74,0.57313
5830.6,0.57420
5807.45,0.57085
5784.31,0.56757
5761.16,0.57261
5738.02,0.57631
5714.87,0.57595
5691.73,0.57511
5668.58,0.57682
5645.44,0.57528
5622.29,0.57901
5599.15,0.58211
5576,0.58076
5552.86,0.58166
5529.71,0.58263
5506.57,0.58141
5483.42,0.58094
5460.28,0.58189
5437.13,0.58933
5413.99,0.59354
5390.84,0.59820
5367.7,0.59757
5344.55,0.59888
5321.41,0.59465
5298.26,0.58486
5275.12,0.56541
5251.97,0.54056
5228.83,0.52001
5205.68,0.50901
5182.54,0.50457
5159.39,0.50753
5136.25,0.51157
5113.1,0.51681
5089.96,0.52767
5066.81,0.53730
5043.67,0.54197
5020.52,0.54509
4997.38,0.54687
4974.23,0.54352
4951.09,0.53267
4927.94,0.51731
4904.8,0.49598
4881.65,0.47206
4858.51,0.45313
4835.36,0.43368
4812.22,0.41748
4789.07,0.40862
4765.93,0.40494
4742.78,0.40126
4719.64,0.39918
4696.49,0.40105
4673.35,0.41529
4650.2,0.42564
4627.06,0.42955
4603.92,0.44708
4580.77,0.44847
4557.63,0.46602
4534.48,0.47221
4511.34,0.47176
4488.19,0.45784
4465.05,0.43525
4441.9,0.40886
4418.76,0.38814
4395.61,0.37472
4372.47,0.38752
4349.32,0.38559
4326.18,0.37214
4303.03,0.35873
4279.89,0.34880
4256.74,0.35187
4233.6,0.35578
4210.45,0.36208
4187.31,0.36627
4164.16,0.37092
4141.02,0.36860
4117.87,0.35655
4094.73,0.32247
4071.58,0.31569
4048.44,0.29892
4025.29,0.28803
4002.15,0.29167
3979,0.30269
3955.86,0.31075
3932.71,0.32298
3909.57,0.33362
3886.42,0.34525
3863.28,0.35701
3840.13,0.36957
3816.99,0.37148
3793.84,0.37170
3770.7,0.37030
3747.55,0.36664
3724.41,0.35597
3701.26,0.32997
3678.12,0.28423
3654.97,0.21972
3631.83,0.16367
3608.68,0.12152
3585.54,0.08994
3562.39,0.06958
3539.25,0.05608
3516.1,0.04936
3492.96,0.04489
3469.81,0.04130
3446.67,0.03689
3423.52,0.03638
3400.38,0.03947
3377.23,0.04047
3354.09,0.04071
3330.94,0.04190
3307.8,0.04346
3284.65,0.04464
3261.51,0.04675
3238.36,0.04932
3215.22,0.05411
3192.07,0.05986
3168.93,0.06578
3145.78,0.07234
3122.64,0.07836
3099.49,0.08405
3076.35,0.09225
3053.2,0.09939
3030.06,0.11297
3006.91,0.10623
2983.77,0.08759
2960.62,0.06049
2937.48,0.05873
2914.33,0.04715
2891.19,0.05097
2868.04,0.05849
2844.9,0.07457
2821.75,0.10045
2798.61,0.11685
2775.46,0.12753
2752.32,0.13172
2729.17,0.13392
2706.03,0.14392
2682.88,0.15888
2659.74,0.16725
2636.59,0.17402
2613.45,0.18159
2590.3,0.18746
2567.16,0.18856
2544.02,0.18551
2520.87,0.18998
2497.73,0.20286
2474.58,0.21810
2451.44,0.22698
2428.29,0.23443
2405.15,0.23849
2382,0.24491
2358.86,0.26103
2335.71,0.27603
2312.57,0.28379
2289.42,0.27097
2266.28,0.26111
2243.13,0.23307
2219.99,0.26169
2196.84,0.26820
2173.7,0.25234
2150.55,0.23013
2127.41,0.22138
2104.26,0.22733
2081.12,0.23976
2057.97,0.25105
2034.83,0.26000
2011.68,0.27089
1988.54,0.26516
1965.39,0.24825
1942.25,0.26594
1919.1,0.29637
1895.96,0.30629
1872.81,0.30203
1849.67,0.27254
1826.52,0.23631
1803.38,0.22335
1780.23,0.19915
1757.09,0.14467
1733.94,0.08821
1710.8,0.09788
1687.65,0.10919
1664.51,0.10703
1641.36,0.10626
1618.22,0.11136
1595.07,0.13029
1571.93,0.12778
1548.78,0.13874
1525.64,0.12709
1502.49,0.08910
1479.35,0.06591
1456.2,0.03824
1433.06,0.03624
1409.91,0.03320
1386.77,0.03457
1363.62,0.02800
1340.48,0.02703
1317.33,0.02591
1294.19,0.03053
1271.04,0.03831
1247.9,0.03807
1224.75,0.04073
1201.61,0.04066
1178.46,0.03361
1155.32,0.02888
1132.17,0.02073
1109.03,0.02539
1085.88,0.02582
1062.74,0.04928
1039.59,0.04014
1016.45,0.03848
993.304,0.05468
970.159,0.06965
947.014,0.12432
923.869,0.13416
900.724,0.09154
877.579,0.10310
854.434,0.11589
831.289,0.12597
808.144,0.11784
784.999,0.10350
761.854,0.09355
738.709,0.05080
715.565,0.05780
692.42,0.06551
669.275,0.05787
646.13,0.06032
622.985,0.05139
599.84,0.05648