File: 01_Data/Cotton_Rug/FTIR/IS/Cotton_Rug_IS_T_220822_R3.dpt
7497.03,0.01968
7473.89,0.02470
7450.74,0.02402
7427.6,0.02451
7404.45,0.01962
7381.31,0.01888
7358.16,0.02551
7335.02,0.01985
7311.87,0.02259
7288.73,0.02613
7265.58,0.02081
7242.44,0.01976
7219.29,0.02599
7196.15,0.01816
7173,0.02572
7149.86,0.02243
7126.71,0.02404
7103.57,0.02148
7080.42,0.02227
7057.28,0.01802
7034.13,0.01875
7010.99,0.02564
6987.84,0.02295
6964.7,0.02123
6941.55,0.02157
6918.41,0.02373
6895.26,0.02107
6872.12,0.01974
6848.97,0.02286
6825.83,0.01223
6802.68,0.02236
6779.54,0.02214
6756.39,0.02260
6733.25,0.01804
6710.1,0.02355
6686.96,0.02149
6663.82,0.02087
6640.67,0.01622
6617.53,0.01947
6594.38,0.02056
6571.24,0.01945
6548.09,0.01969
6524.95,0.02148
6501.8,0.01971
6478.66,0.01890
6455.51,0.01880
6432.37,0.02309
6409.22,0.01896
6386.08,0.02133
6362.93,0.01994
6339.79,0.02070
6316.64,0.01826
6293.5,0.01561
6270.35,0.01703
6247.21,0.01863
6224.06,0.01887
6200.92,0.01921
6177.77,0.01738
6154.63,0.02015
6131.48,0.01891
6108.34,0.01890
6085.19,0.02047
6062.05,0.01812
6038.9,0.01516
6015.76,0.01976
5992.61,0.02045
5969.47,0.01905
5946.32,0.01811
5923.18,0.01729
5900.03,0.01968
5876.89,0.01667
5853.74,0.02018
5830.6,0.02016
5807.45,0.01982
5784.31,0.01837
5761.16,0.01953
5738.02,0.01721
5714.87,0.01816
5691.73,0.01948
5668.58,0.01893
5645.44,0.01967
5622.29,0.02119
5599.15,0.01838
5576,0.01968
5552.86,0.02014
5529.71,0.01964
5506.57,0.01966
5483.42,0.01892
5460.28,0.01845
5437.13,0.01940
5413.99,0.01878
5390.84,0.01823
5367.7,0.01745
5344.55,0.02030
5321.41,0.01954
5298.26,0.01953
5275.12,0.01760
5251.97,0.01819
5228.83,0.01987
5205.68,0.01742
5182.54,0.02035
5159.39,0.02079
5136.25,0.01773
5113.1,0.02000
5089.96,0.01901
5066.81,0.01774
5043.67,0.01914
5020.52,0.01851
4997.38,0.01912
4974.23,0.01938
4951.09,0.01944
4927.94,0.01914
4904.8,0.01935
4881.65,0.01876
4858.51,0.01875
4835.36,0.01810
4812.22,0.01944
4789.07,0.01982
4765.93,0.01904
4742.78,0.01902
4719.64,0.01987
4696.49,0.01981
4673.35,0.01968
4650.2,0.01866
4627.06,0.01920
4603.92,0.01883
4580.77,0.01987
4557.63,0.01862
4534.48,0.01914
4511.34,0.01910
4488.19,0.01889
4465.05,0.01965
4441.9,0.01942
4418.76,0.01914
4395.61,0.01904
4372.47,0.01896
4349.32,0.01938
4326.18,0.01930
4303.03,0.01917
4279.89,0.01911
4256.74,0.02009
4233.6,0.01855
4210.45,0.01935
4187.31,0.02038
4164.16,0.01937
4141.02,0.01947
4117.87,0.02004
4094.73,0.01977
4071.58,0.01888
4048.44,0.01931
4025.29,0.02007
4002.15,0.01973
3979,0.01858
3955.86,0.01963
3932.71,0.01911
3909.57,0.02008
3886.42,0.01924
3863.28,0.01947
3840.13,0.02018
3816.99,0.02009
3793.84,0.01977
3770.7,0.01993
3747.55,0.01970
3724.41,0.01961
3701.26,0.01917
3678.12,0.01967
3654.97,0.01904
3631.83,0.01968
3608.68,0.01829
3585.54,0.01815
3562.39,0.01782
3539.25,0.01882
3516.1,0.01813
3492.96,0.01750
3469.81,0.01771
3446.67,0.01787
3423.52,0.01701
3400.38,0.01760
3377.23,0.01734
3354.09,0.01745
3330.94,0.01786
3307.8,0.01729
3284.65,0.01732
3261.51,0.01784
3238.36,0.01823
3215.22,0.01787
3192.07,0.01771
3168.93,0.01724
3145.78,0.01756
3122.64,0.01742
3099.49,0.01710
3076.35,0.01669
3053.2,0.01825
3030.06,0.01739
3006.91,0.01731
2983.77,0.01689
2960.62,0.01655
2937.48,0.01627
2914.33,0.01767
2891.19,0.01774
2868.04,0.01751
2844.9,0.01783
2821.75,0.01822
2798.61,0.01821
2775.46,0.01806
2752.32,0.01834
2729.17,0.01789
2706.03,0.01811
2682.88,0.01790
2659.74,0.01835
2636.59,0.01801
2613.45,0.01788
2590.3,0.01818
2567.16,0.01856
2544.02,0.01821
2520.87,0.01823
2497.73,0.01830
2474.58,0.01790
2451.44,0.01822
2428.29,0.01773
2405.15,0.01774
2382,0.01808
2358.86,0.01812
2335.71,0.01799
2312.57,0.01802
2289.42,0.01783
2266.28,0.01831
2243.13,0.01805
2219.99,0.01827
2196.84,0.01823
2173.7,0.01800
2150.55,0.01778
2127.41,0.01765
2104.26,0.01791
2081.12,0.01763
2057.97,0.01785
2034.83,0.01753
2011.68,0.01797
1988.54,0.01779
1965.39,0.01781
1942.25,0.01783
1919.1,0.01785
1895.96,0.01751
1872.81,0.01731
1849.67,0.01699
1826.52,0.01711
1803.38,0.01661
1780.23,0.01577
1757.09,0.01439
1733.94,0.01686
1710.8,0.01767
1687.65,0.01619
1664.51,0.01553
1641.36,0.01546
1618.22,0.01596
1595.07,0.01596
1571.93,0.01508
1548.78,0.01495
1525.64,0.01583
1502.49,0.01543
1479.35,0.01584
1456.2,0.01533
1433.06,0.01575
1409.91,0.01552
1386.77,0.01501
1363.62,0.01524
1340.48,0.01486
1317.33,0.01383
1294.19,0.01484
1271.04,0.01633
1247.9,0.01686
1224.75,0.01597
1201.61,0.01519
1178.46,0.01536
1155.32,0.01460
1132.17,0.01529
1109.03,0.01586
1085.88,0.01562
1062.74,0.01704
1039.59,0.01558
1016.45,0.01643
993.304,0.01795
970.159,0.01793
947.014,0.01686
923.869,0.01671
900.724,0.01659
877.579,0.01568
854.434,0.01475
831.289,0.01620
808.144,0.01646
784.999,0.01550
761.854,0.01534
738.709,0.01544
715.565,0.01489
692.42,0.01426
669.275,0.01360
646.13,0.01232
622.985,0.01298
599.84,0.01262