File: 01_Data/Cotton_Rug/FTIR/IS/Cotton_Rug_IS_S_220822_R8.dpt
7497.03,0.69246
7473.89,0.67933
7450.74,0.67795
7427.6,0.67275
7404.45,0.67454
7381.31,0.66363
7358.16,0.65763
7335.02,0.65331
7311.87,0.64800
7288.73,0.65241
7265.58,0.64785
7242.44,0.63928
7219.29,0.64901
7196.15,0.65377
7173,0.64328
7149.86,0.64038
7126.71,0.63443
7103.57,0.62246
7080.42,0.61373
7057.28,0.60125
7034.13,0.58525
7010.99,0.57774
6987.84,0.57050
6964.7,0.56520
6941.55,0.55652
6918.41,0.56115
6895.26,0.55553
6872.12,0.54845
6848.97,0.54623
6825.83,0.53937
6802.68,0.53362
6779.54,0.52540
6756.39,0.53393
6733.25,0.52760
6710.1,0.53003
6686.96,0.52511
6663.82,0.52872
6640.67,0.53111
6617.53,0.54210
6594.38,0.53862
6571.24,0.53825
6548.09,0.54013
6524.95,0.53953
6501.8,0.54166
6478.66,0.53966
6455.51,0.54347
6432.37,0.54173
6409.22,0.54659
6386.08,0.54494
6362.93,0.54712
6339.79,0.54534
6316.64,0.54531
6293.5,0.54930
6270.35,0.55242
6247.21,0.55971
6224.06,0.56835
6200.92,0.57533
6177.77,0.57856
6154.63,0.58492
6131.48,0.58768
6108.34,0.58743
6085.19,0.57811
6062.05,0.56659
6038.9,0.55862
6015.76,0.54828
5992.61,0.56961
5969.47,0.57854
5946.32,0.58108
5923.18,0.58632
5900.03,0.58757
5876.89,0.58053
5853.74,0.57328
5830.6,0.57524
5807.45,0.57550
5784.31,0.57250
5761.16,0.57345
5738.02,0.57740
5714.87,0.57632
5691.73,0.57929
5668.58,0.58009
5645.44,0.57697
5622.29,0.58295
5599.15,0.58214
5576,0.58117
5552.86,0.58385
5529.71,0.58185
5506.57,0.58350
5483.42,0.58548
5460.28,0.58458
5437.13,0.59015
5413.99,0.59605
5390.84,0.59930
5367.7,0.60119
5344.55,0.60089
5321.41,0.59773
5298.26,0.58691
5275.12,0.57136
5251.97,0.54429
5228.83,0.52729
5205.68,0.51609
5182.54,0.51302
5159.39,0.51262
5136.25,0.51928
5113.1,0.52395
5089.96,0.53676
5066.81,0.54235
5043.67,0.54922
5020.52,0.55057
4997.38,0.55099
4974.23,0.54783
4951.09,0.53616
4927.94,0.51916
4904.8,0.49830
4881.65,0.47438
4858.51,0.45318
4835.36,0.43678
4812.22,0.41916
4789.07,0.41019
4765.93,0.40737
4742.78,0.40205
4719.64,0.40041
4696.49,0.40070
4673.35,0.41632
4650.2,0.42637
4627.06,0.43055
4603.92,0.44847
4580.77,0.45006
4557.63,0.46775
4534.48,0.47376
4511.34,0.47374
4488.19,0.45949
4465.05,0.43620
4441.9,0.41013
4418.76,0.38848
4395.61,0.37529
4372.47,0.38875
4349.32,0.38595
4326.18,0.37339
4303.03,0.35990
4279.89,0.35013
4256.74,0.35267
4233.6,0.35619
4210.45,0.36387
4187.31,0.36828
4164.16,0.37260
4141.02,0.37014
4117.87,0.35763
4094.73,0.32323
4071.58,0.31698
4048.44,0.29969
4025.29,0.28936
4002.15,0.29357
3979,0.30341
3955.86,0.31200
3932.71,0.32428
3909.57,0.33559
3886.42,0.34771
3863.28,0.35913
3840.13,0.37102
3816.99,0.37333
3793.84,0.37494
3770.7,0.37324
3747.55,0.37036
3724.41,0.35937
3701.26,0.33422
3678.12,0.28837
3654.97,0.22694
3631.83,0.16895
3608.68,0.12589
3585.54,0.09275
3562.39,0.07150
3539.25,0.05796
3516.1,0.05041
3492.96,0.04497
3469.81,0.04156
3446.67,0.03779
3423.52,0.03598
3400.38,0.04067
3377.23,0.04075
3354.09,0.04147
3330.94,0.04244
3307.8,0.04286
3284.65,0.04476
3261.51,0.04693
3238.36,0.04993
3215.22,0.05489
3192.07,0.06004
3168.93,0.06592
3145.78,0.07216
3122.64,0.08035
3099.49,0.08604
3076.35,0.09373
3053.2,0.09998
3030.06,0.11373
3006.91,0.10678
2983.77,0.08796
2960.62,0.06079
2937.48,0.05870
2914.33,0.04685
2891.19,0.05084
2868.04,0.05851
2844.9,0.07476
2821.75,0.10105
2798.61,0.11764
2775.46,0.12845
2752.32,0.13283
2729.17,0.13498
2706.03,0.14491
2682.88,0.15949
2659.74,0.16846
2636.59,0.17468
2613.45,0.18278
2590.3,0.18777
2567.16,0.18947
2544.02,0.18651
2520.87,0.19065
2497.73,0.20436
2474.58,0.21882
2451.44,0.22800
2428.29,0.23586
2405.15,0.23947
2382,0.24659
2358.86,0.26239
2335.71,0.27763
2312.57,0.28564
2289.42,0.27234
2266.28,0.26309
2243.13,0.23446
2219.99,0.26345
2196.84,0.26982
2173.7,0.25428
2150.55,0.23193
2127.41,0.22265
2104.26,0.22935
2081.12,0.24166
2057.97,0.25281
2034.83,0.26183
2011.68,0.27293
1988.54,0.26704
1965.39,0.25033
1942.25,0.26790
1919.1,0.29801
1895.96,0.30908
1872.81,0.30426
1849.67,0.27440
1826.52,0.23787
1803.38,0.22433
1780.23,0.20007
1757.09,0.14494
1733.94,0.08876
1710.8,0.09852
1687.65,0.11095
1664.51,0.10968
1641.36,0.10855
1618.22,0.11361
1595.07,0.13203
1571.93,0.12896
1548.78,0.14028
1525.64,0.12808
1502.49,0.08978
1479.35,0.06599
1456.2,0.03851
1433.06,0.03580
1409.91,0.03306
1386.77,0.03471
1363.62,0.02820
1340.48,0.02666
1317.33,0.02563
1294.19,0.03057
1271.04,0.03841
1247.9,0.03784
1224.75,0.04009
1201.61,0.03962
1178.46,0.03387
1155.32,0.02887
1132.17,0.02091
1109.03,0.02538
1085.88,0.02576
1062.74,0.04971
1039.59,0.03973
1016.45,0.03907
993.304,0.05458
970.159,0.07041
947.014,0.12491
923.869,0.13509
900.724,0.09236
877.579,0.10378
854.434,0.11780
831.289,0.12760
808.144,0.11935
784.999,0.10486
761.854,0.09476
738.709,0.05198
715.565,0.05723
692.42,0.06527
669.275,0.05744
646.13,0.05855
622.985,0.05413
599.84,0.05640