File: 01_Data/Cotton_Rug/FTIR/IS/Cotton_Rug_IS_S_220822_R7.dpt
7497.03,0.68334
7473.89,0.68138
7450.74,0.67884
7427.6,0.67669
7404.45,0.67515
7381.31,0.66777
7358.16,0.65952
7335.02,0.66076
7311.87,0.65381
7288.73,0.64786
7265.58,0.64847
7242.44,0.64799
7219.29,0.64987
7196.15,0.64697
7173,0.64365
7149.86,0.63920
7126.71,0.63474
7103.57,0.62413
7080.42,0.61640
7057.28,0.59740
7034.13,0.58712
7010.99,0.57651
6987.84,0.57245
6964.7,0.56147
6941.55,0.55974
6918.41,0.54994
6895.26,0.54842
6872.12,0.55258
6848.97,0.54900
6825.83,0.53908
6802.68,0.54069
6779.54,0.53117
6756.39,0.52514
6733.25,0.52664
6710.1,0.51954
6686.96,0.52389
6663.82,0.52705
6640.67,0.53078
6617.53,0.53743
6594.38,0.53909
6571.24,0.53652
6548.09,0.53926
6524.95,0.54077
6501.8,0.54023
6478.66,0.53757
6455.51,0.53874
6432.37,0.54290
6409.22,0.54493
6386.08,0.54558
6362.93,0.54611
6339.79,0.54567
6316.64,0.54715
6293.5,0.54887
6270.35,0.55728
6247.21,0.55713
6224.06,0.56814
6200.92,0.56779
6177.77,0.57697
6154.63,0.58444
6131.48,0.58982
6108.34,0.59011
6085.19,0.57818
6062.05,0.56869
6038.9,0.55780
6015.76,0.54922
5992.61,0.56866
5969.47,0.57789
5946.32,0.58332
5923.18,0.58628
5900.03,0.58734
5876.89,0.58058
5853.74,0.57710
5830.6,0.57452
5807.45,0.57514
5784.31,0.57032
5761.16,0.57162
5738.02,0.57577
5714.87,0.57750
5691.73,0.57807
5668.58,0.57763
5645.44,0.57779
5622.29,0.58109
5599.15,0.58400
5576,0.58213
5552.86,0.58440
5529.71,0.58407
5506.57,0.58239
5483.42,0.58412
5460.28,0.58533
5437.13,0.59100
5413.99,0.59580
5390.84,0.60126
5367.7,0.60195
5344.55,0.60056
5321.41,0.59686
5298.26,0.58707
5275.12,0.56913
5251.97,0.54503
5228.83,0.52550
5205.68,0.51282
5182.54,0.51037
5159.39,0.51131
5136.25,0.51555
5113.1,0.52280
5089.96,0.53271
5066.81,0.54004
5043.67,0.54504
5020.52,0.54976
4997.38,0.55041
4974.23,0.54618
4951.09,0.53614
4927.94,0.52081
4904.8,0.49755
4881.65,0.47407
4858.51,0.45306
4835.36,0.43655
4812.22,0.42018
4789.07,0.40953
4765.93,0.40654
4742.78,0.40305
4719.64,0.40191
4696.49,0.40167
4673.35,0.41672
4650.2,0.42669
4627.06,0.43063
4603.92,0.44869
4580.77,0.45092
4557.63,0.46782
4534.48,0.47379
4511.34,0.47420
4488.19,0.45886
4465.05,0.43742
4441.9,0.40953
4418.76,0.38878
4395.61,0.37585
4372.47,0.38923
4349.32,0.38546
4326.18,0.37332
4303.03,0.35993
4279.89,0.35032
4256.74,0.35290
4233.6,0.35670
4210.45,0.36346
4187.31,0.36788
4164.16,0.37284
4141.02,0.37021
4117.87,0.35794
4094.73,0.32259
4071.58,0.31720
4048.44,0.30048
4025.29,0.28978
4002.15,0.29296
3979,0.30342
3955.86,0.31309
3932.71,0.32354
3909.57,0.33541
3886.42,0.34699
3863.28,0.35817
3840.13,0.37051
3816.99,0.37266
3793.84,0.37469
3770.7,0.37326
3747.55,0.36982
3724.41,0.35895
3701.26,0.33296
3678.12,0.28627
3654.97,0.22345
3631.83,0.16646
3608.68,0.12343
3585.54,0.09115
3562.39,0.06981
3539.25,0.05699
3516.1,0.04939
3492.96,0.04505
3469.81,0.04133
3446.67,0.03785
3423.52,0.03548
3400.38,0.03985
3377.23,0.04011
3354.09,0.03974
3330.94,0.04214
3307.8,0.04309
3284.65,0.04434
3261.51,0.04682
3238.36,0.04995
3215.22,0.05373
3192.07,0.05976
3168.93,0.06568
3145.78,0.07255
3122.64,0.07964
3099.49,0.08546
3076.35,0.09294
3053.2,0.10014
3030.06,0.11300
3006.91,0.10672
2983.77,0.08756
2960.62,0.06037
2937.48,0.05866
2914.33,0.04667
2891.19,0.05036
2868.04,0.05822
2844.9,0.07518
2821.75,0.10035
2798.61,0.11767
2775.46,0.12737
2752.32,0.13246
2729.17,0.13476
2706.03,0.14502
2682.88,0.15959
2659.74,0.16844
2636.59,0.17512
2613.45,0.18275
2590.3,0.18814
2567.16,0.18913
2544.02,0.18599
2520.87,0.19063
2497.73,0.20373
2474.58,0.21898
2451.44,0.22771
2428.29,0.23541
2405.15,0.23935
2382,0.24582
2358.86,0.26269
2335.71,0.27702
2312.57,0.28569
2289.42,0.27176
2266.28,0.26248
2243.13,0.23399
2219.99,0.26349
2196.84,0.26948
2173.7,0.25383
2150.55,0.23190
2127.41,0.22243
2104.26,0.22856
2081.12,0.24090
2057.97,0.25200
2034.83,0.26143
2011.68,0.27282
1988.54,0.26662
1965.39,0.25017
1942.25,0.26718
1919.1,0.29774
1895.96,0.30802
1872.81,0.30338
1849.67,0.27403
1826.52,0.23750
1803.38,0.22455
1780.23,0.20003
1757.09,0.14485
1733.94,0.08851
1710.8,0.09802
1687.65,0.11031
1664.51,0.10843
1641.36,0.10792
1618.22,0.11288
1595.07,0.13137
1571.93,0.12856
1548.78,0.13987
1525.64,0.12791
1502.49,0.08953
1479.35,0.06630
1456.2,0.03858
1433.06,0.03589
1409.91,0.03310
1386.77,0.03462
1363.62,0.02804
1340.48,0.02667
1317.33,0.02592
1294.19,0.03064
1271.04,0.03821
1247.9,0.03793
1224.75,0.04046
1201.61,0.04009
1178.46,0.03367
1155.32,0.02891
1132.17,0.02015
1109.03,0.02560
1085.88,0.02618
1062.74,0.04923
1039.59,0.03933
1016.45,0.03810
993.304,0.05528
970.159,0.07021
947.014,0.12475
923.869,0.13515
900.724,0.09174
877.579,0.10382
854.434,0.11635
831.289,0.12670
808.144,0.11834
784.999,0.10461
761.854,0.09345
738.709,0.05075
715.565,0.05803
692.42,0.06491
669.275,0.05859
646.13,0.05851
622.985,0.05342
599.84,0.05597