File: 01_Data/Cotton_Rug/FTIR/IS/Cotton_Rug_IS_S_220822_R3.dpt
7497.03,0.68214
7473.89,0.69068
7450.74,0.67646
7427.6,0.66852
7404.45,0.67039
7381.31,0.67193
7358.16,0.65299
7335.02,0.64867
7311.87,0.65570
7288.73,0.64834
7265.58,0.64438
7242.44,0.64525
7219.29,0.64620
7196.15,0.64581
7173,0.64091
7149.86,0.63345
7126.71,0.62176
7103.57,0.62897
7080.42,0.60858
7057.28,0.59472
7034.13,0.58416
7010.99,0.57225
6987.84,0.56685
6964.7,0.56039
6941.55,0.55682
6918.41,0.54934
6895.26,0.54734
6872.12,0.53901
6848.97,0.54149
6825.83,0.53436
6802.68,0.53259
6779.54,0.52059
6756.39,0.52733
6733.25,0.52170
6710.1,0.52169
6686.96,0.51766
6663.82,0.52882
6640.67,0.52648
6617.53,0.53276
6594.38,0.53752
6571.24,0.53328
6548.09,0.53582
6524.95,0.53939
6501.8,0.53270
6478.66,0.53742
6455.51,0.53655
6432.37,0.54250
6409.22,0.53681
6386.08,0.53977
6362.93,0.54051
6339.79,0.54205
6316.64,0.54161
6293.5,0.54950
6270.35,0.54886
6247.21,0.55509
6224.06,0.56336
6200.92,0.57129
6177.77,0.58044
6154.63,0.57881
6131.48,0.58163
6108.34,0.58464
6085.19,0.57575
6062.05,0.56399
6038.9,0.55408
6015.76,0.54552
5992.61,0.56636
5969.47,0.57201
5946.32,0.57750
5923.18,0.58423
5900.03,0.58776
5876.89,0.57799
5853.74,0.57294
5830.6,0.57383
5807.45,0.57016
5784.31,0.56986
5761.16,0.57025
5738.02,0.57366
5714.87,0.57527
5691.73,0.57620
5668.58,0.57319
5645.44,0.57637
5622.29,0.57685
5599.15,0.57728
5576,0.57810
5552.86,0.57713
5529.71,0.57987
5506.57,0.57748
5483.42,0.57877
5460.28,0.58256
5437.13,0.58692
5413.99,0.59193
5390.84,0.59657
5367.7,0.59591
5344.55,0.59253
5321.41,0.58922
5298.26,0.57794
5275.12,0.55630
5251.97,0.52446
5228.83,0.50243
5205.68,0.49265
5182.54,0.48712
5159.39,0.48862
5136.25,0.49464
5113.1,0.50078
5089.96,0.51236
5066.81,0.52207
5043.67,0.52812
5020.52,0.53391
4997.38,0.53695
4974.23,0.53471
4951.09,0.52656
4927.94,0.51202
4904.8,0.49205
4881.65,0.47110
4858.51,0.45070
4835.36,0.43405
4812.22,0.41744
4789.07,0.40796
4765.93,0.40525
4742.78,0.40066
4719.64,0.39741
4696.49,0.39840
4673.35,0.41378
4650.2,0.42416
4627.06,0.42742
4603.92,0.44639
4580.77,0.44754
4557.63,0.46465
4534.48,0.47151
4511.34,0.47114
4488.19,0.45569
4465.05,0.43422
4441.9,0.40704
4418.76,0.38656
4395.61,0.37424
4372.47,0.38702
4349.32,0.38371
4326.18,0.37220
4303.03,0.35760
4279.89,0.34768
4256.74,0.35134
4233.6,0.35500
4210.45,0.35999
4187.31,0.36581
4164.16,0.37021
4141.02,0.36713
4117.87,0.35482
4094.73,0.32043
4071.58,0.31489
4048.44,0.29748
4025.29,0.28610
4002.15,0.29039
3979,0.30006
3955.86,0.30893
3932.71,0.32061
3909.57,0.33163
3886.42,0.34162
3863.28,0.35329
3840.13,0.36548
3816.99,0.36639
3793.84,0.36753
3770.7,0.36413
3747.55,0.36006
3724.41,0.34719
3701.26,0.31904
3678.12,0.26856
3654.97,0.20125
3631.83,0.14656
3608.68,0.10970
3585.54,0.08291
3562.39,0.06557
3539.25,0.05453
3516.1,0.04800
3492.96,0.04415
3469.81,0.04049
3446.67,0.03728
3423.52,0.03567
3400.38,0.03821
3377.23,0.03964
3354.09,0.04063
3330.94,0.04189
3307.8,0.04210
3284.65,0.04426
3261.51,0.04656
3238.36,0.04880
3215.22,0.05326
3192.07,0.05799
3168.93,0.06322
3145.78,0.06882
3122.64,0.07554
3099.49,0.08102
3076.35,0.08840
3053.2,0.09488
3030.06,0.10778
3006.91,0.10241
2983.77,0.08465
2960.62,0.05995
2937.48,0.05818
2914.33,0.04686
2891.19,0.05064
2868.04,0.05827
2844.9,0.07460
2821.75,0.09935
2798.61,0.11591
2775.46,0.12611
2752.32,0.13043
2729.17,0.13323
2706.03,0.14263
2682.88,0.15655
2659.74,0.16622
2636.59,0.17292
2613.45,0.18088
2590.3,0.18602
2567.16,0.18720
2544.02,0.18460
2520.87,0.18849
2497.73,0.20175
2474.58,0.21684
2451.44,0.22582
2428.29,0.23330
2405.15,0.23692
2382,0.24309
2358.86,0.25897
2335.71,0.27284
2312.57,0.28009
2289.42,0.26742
2266.28,0.25771
2243.13,0.22938
2219.99,0.25742
2196.84,0.26282
2173.7,0.24718
2150.55,0.22579
2127.41,0.21695
2104.26,0.22307
2081.12,0.23494
2057.97,0.24559
2034.83,0.25507
2011.68,0.26600
1988.54,0.26094
1965.39,0.24461
1942.25,0.26220
1919.1,0.29163
1895.96,0.30149
1872.81,0.29698
1849.67,0.26870
1826.52,0.23331
1803.38,0.22070
1780.23,0.19649
1757.09,0.14284
1733.94,0.08733
1710.8,0.09576
1687.65,0.10461
1664.51,0.10044
1641.36,0.09851
1618.22,0.10585
1595.07,0.12587
1571.93,0.12444
1548.78,0.13578
1525.64,0.12498
1502.49,0.08804
1479.35,0.06492
1456.2,0.03829
1433.06,0.03583
1409.91,0.03329
1386.77,0.03462
1363.62,0.02809
1340.48,0.02721
1317.33,0.02559
1294.19,0.03078
1271.04,0.03851
1247.9,0.03746
1224.75,0.04048
1201.61,0.04004
1178.46,0.03355
1155.32,0.02856
1132.17,0.02063
1109.03,0.02596
1085.88,0.02649
1062.74,0.04980
1039.59,0.03974
1016.45,0.03926
993.304,0.05500
970.159,0.07023
947.014,0.12410
923.869,0.13310
900.724,0.09046
877.579,0.10099
854.434,0.11097
831.289,0.12084
808.144,0.11095
784.999,0.09796
761.854,0.08874
738.709,0.04920
715.565,0.05540
692.42,0.06371
669.275,0.05657
646.13,0.05857
622.985,0.05262
599.84,0.05728