File: 01_Data/Cinder_Block/FTIR/IS/Cinder_Block_IS_S_221214_R5.dpt
7497.03,0.19549
7473.89,0.18992
7450.74,0.19643
7427.6,0.20727
7404.45,0.19443
7381.31,0.19429
7358.16,0.19630
7335.02,0.18972
7311.87,0.19571
7288.73,0.19304
7265.58,0.19796
7242.44,0.19918
7219.29,0.19210
7196.15,0.19597
7173,0.20037
7149.86,0.19473
7126.71,0.20147
7103.57,0.19210
7080.42,0.19973
7057.28,0.19548
7034.13,0.19484
7010.99,0.19395
6987.84,0.18922
6964.7,0.19711
6941.55,0.18919
6918.41,0.19370
6895.26,0.19822
6872.12,0.19356
6848.97,0.19393
6825.83,0.19449
6802.68,0.19562
6779.54,0.19005
6756.39,0.19198
6733.25,0.19880
6710.1,0.19451
6686.96,0.19604
6663.82,0.19556
6640.67,0.19423
6617.53,0.19517
6594.38,0.19788
6571.24,0.19751
6548.09,0.19848
6524.95,0.19279
6501.8,0.19436
6478.66,0.19897
6455.51,0.19516
6432.37,0.19472
6409.22,0.19977
6386.08,0.19895
6362.93,0.19128
6339.79,0.19235
6316.64,0.19641
6293.5,0.19295
6270.35,0.19612
6247.21,0.19598
6224.06,0.19533
6200.92,0.19876
6177.77,0.19789
6154.63,0.20195
6131.48,0.19387
6108.34,0.19498
6085.19,0.19782
6062.05,0.19709
6038.9,0.19642
6015.76,0.19785
5992.61,0.19374
5969.47,0.19885
5946.32,0.19704
5923.18,0.19846
5900.03,0.19629
5876.89,0.19919
5853.74,0.19660
5830.6,0.19827
5807.45,0.19526
5784.31,0.19845
5761.16,0.19717
5738.02,0.19810
5714.87,0.19799
5691.73,0.19841
5668.58,0.19645
5645.44,0.19874
5622.29,0.19557
5599.15,0.19749
5576,0.19734
5552.86,0.19739
5529.71,0.19768
5506.57,0.19814
5483.42,0.19643
5460.28,0.19827
5437.13,0.19727
5413.99,0.19781
5390.84,0.19641
5367.7,0.19785
5344.55,0.19883
5321.41,0.19733
5298.26,0.19498
5275.12,0.19309
5251.97,0.19225
5228.83,0.18959
5205.68,0.18785
5182.54,0.18576
5159.39,0.18782
5136.25,0.18797
5113.1,0.18972
5089.96,0.18980
5066.81,0.19105
5043.67,0.19103
5020.52,0.19089
4997.38,0.19339
4974.23,0.19162
4951.09,0.19287
4927.94,0.19333
4904.8,0.19276
4881.65,0.19421
4858.51,0.19448
4835.36,0.19187
4812.22,0.19489
4789.07,0.19502
4765.93,0.19390
4742.78,0.19382
4719.64,0.19492
4696.49,0.19445
4673.35,0.19518
4650.2,0.19547
4627.06,0.19323
4603.92,0.19360
4580.77,0.19334
4557.63,0.19289
4534.48,0.19260
4511.34,0.19187
4488.19,0.19142
4465.05,0.19165
4441.9,0.19144
4418.76,0.19022
4395.61,0.19008
4372.47,0.18909
4349.32,0.18924
4326.18,0.18778
4303.03,0.18546
4279.89,0.18444
4256.74,0.18381
4233.6,0.18658
4210.45,0.18753
4187.31,0.18705
4164.16,0.18607
4141.02,0.18420
4117.87,0.18296
4094.73,0.18121
4071.58,0.17911
4048.44,0.17706
4025.29,0.17441
4002.15,0.17266
3979,0.17145
3955.86,0.16895
3932.71,0.16870
3909.57,0.17403
3886.42,0.17533
3863.28,0.17656
3840.13,0.17605
3816.99,0.17575
3793.84,0.17323
3770.7,0.17092
3747.55,0.16564
3724.41,0.15285
3701.26,0.13139
3678.12,0.10899
3654.97,0.08602
3631.83,0.06821
3608.68,0.06119
3585.54,0.05835
3562.39,0.05616
3539.25,0.05389
3516.1,0.05287
3492.96,0.05145
3469.81,0.05102
3446.67,0.04978
3423.52,0.04898
3400.38,0.04827
3377.23,0.04938
3354.09,0.05014
3330.94,0.04984
3307.8,0.05029
3284.65,0.05169
3261.51,0.05228
3238.36,0.05375
3215.22,0.05549
3192.07,0.05741
3168.93,0.05960
3145.78,0.06135
3122.64,0.06325
3099.49,0.06480
3076.35,0.06582
3053.2,0.06687
3030.06,0.06696
3006.91,0.06591
2983.77,0.05900
2960.62,0.06022
2937.48,0.05970
2914.33,0.06105
2891.19,0.06036
2868.04,0.05767
2844.9,0.06577
2821.75,0.07961
2798.61,0.08445
2775.46,0.09013
2752.32,0.09260
2729.17,0.09494
2706.03,0.09682
2682.88,0.09786
2659.74,0.09689
2636.59,0.09037
2613.45,0.07779
2590.3,0.07219
2567.16,0.06962
2544.02,0.06471
2520.87,0.05191
2497.73,0.06116
2474.58,0.08287
2451.44,0.09692
2428.29,0.10178
2405.15,0.10417
2382,0.10464
2358.86,0.10397
2335.71,0.10305
2312.57,0.10171
2289.42,0.10067
2266.28,0.09820
2243.13,0.09552
2219.99,0.09302
2196.84,0.09217
2173.7,0.09064
2150.55,0.08473
2127.41,0.08532
2104.26,0.09025
2081.12,0.09052
2057.97,0.08906
2034.83,0.08626
2011.68,0.08334
1988.54,0.08105
1965.39,0.07884
1942.25,0.07812
1919.1,0.07597
1895.96,0.07055
1872.81,0.06651
1849.67,0.06464
1826.52,0.05681
1803.38,0.03925
1780.23,0.04538
1757.09,0.04624
1733.94,0.04268
1710.8,0.04066
1687.65,0.03567
1664.51,0.03376
1641.36,0.03326
1618.22,0.03594
1595.07,0.04189
1571.93,0.05875
1548.78,0.08116
1525.64,0.09150
1502.49,0.09031
1479.35,0.08920
1456.2,0.08840
1433.06,0.08959
1409.91,0.10257
1386.77,0.08703
1363.62,0.08273
1340.48,0.08440
1317.33,0.08275
1294.19,0.08695
1271.04,0.08538
1247.9,0.08268
1224.75,0.07792
1201.61,0.06930
1178.46,0.06193
1155.32,0.06039
1132.17,0.06027
1109.03,0.05522
1085.88,0.05085
1062.74,0.04873
1039.59,0.04724
1016.45,0.04598
993.304,0.04598
970.159,0.04567
947.014,0.04577
923.869,0.04619
900.724,0.04680
877.579,0.05124
854.434,0.04974
831.289,0.04532
808.144,0.04430
784.999,0.04258
761.854,0.04151
738.709,0.03854
715.565,0.03215
692.42,0.03963
669.275,0.03814
646.13,0.03492
622.985,0.03305
599.84,0.03508