File: 01_Data/Cinder_Block/FTIR/IS/Cinder_Block_IS_T_221214_R6.dpt
7497.03,0.03081
7473.89,0.02647
7450.74,0.02367
7427.6,0.03053
7404.45,0.02399
7381.31,0.02595
7358.16,0.02418
7335.02,0.02236
7311.87,0.03190
7288.73,0.02909
7265.58,0.03088
7242.44,0.03116
7219.29,0.01943
7196.15,0.02925
7173,0.02611
7149.86,0.03318
7126.71,0.03118
7103.57,0.02788
7080.42,0.02402
7057.28,0.01420
7034.13,0.02502
7010.99,0.02573
6987.84,0.02278
6964.7,0.02378
6941.55,0.01937
6918.41,0.02650
6895.26,0.02814
6872.12,0.02141
6848.97,0.02070
6825.83,0.02193
6802.68,0.02684
6779.54,0.02410
6756.39,0.01859
6733.25,0.02798
6710.1,0.02190
6686.96,0.02051
6663.82,0.02178
6640.67,0.02331
6617.53,0.02276
6594.38,0.02542
6571.24,0.01877
6548.09,0.02518
6524.95,0.02263
6501.8,0.02783
6478.66,0.02368
6455.51,0.02699
6432.37,0.02139
6409.22,0.02335
6386.08,0.02505
6362.93,0.02173
6339.79,0.02593
6316.64,0.02076
6293.5,0.02634
6270.35,0.02185
6247.21,0.02430
6224.06,0.02022
6200.92,0.02311
6177.77,0.02397
6154.63,0.02455
6131.48,0.02313
6108.34,0.02115
6085.19,0.02319
6062.05,0.02313
6038.9,0.02459
6015.76,0.02336
5992.61,0.02305
5969.47,0.02104
5946.32,0.02254
5923.18,0.02105
5900.03,0.02435
5876.89,0.02289
5853.74,0.02415
5830.6,0.02574
5807.45,0.02276
5784.31,0.02380
5761.16,0.02225
5738.02,0.02152
5714.87,0.02452
5691.73,0.02167
5668.58,0.02129
5645.44,0.02259
5622.29,0.02365
5599.15,0.02246
5576,0.02258
5552.86,0.02296
5529.71,0.02447
5506.57,0.02159
5483.42,0.02246
5460.28,0.02408
5437.13,0.02315
5413.99,0.02378
5390.84,0.02454
5367.7,0.02226
5344.55,0.02200
5321.41,0.02424
5298.26,0.02282
5275.12,0.02316
5251.97,0.02214
5228.83,0.02470
5205.68,0.02379
5182.54,0.02412
5159.39,0.02324
5136.25,0.02210
5113.1,0.02288
5089.96,0.02362
5066.81,0.02381
5043.67,0.02306
5020.52,0.02324
4997.38,0.02462
4974.23,0.02322
4951.09,0.02294
4927.94,0.02310
4904.8,0.02384
4881.65,0.02248
4858.51,0.02429
4835.36,0.02450
4812.22,0.02361
4789.07,0.02313
4765.93,0.02308
4742.78,0.02395
4719.64,0.02298
4696.49,0.02373
4673.35,0.02385
4650.2,0.02431
4627.06,0.02415
4603.92,0.02347
4580.77,0.02387
4557.63,0.02403
4534.48,0.02379
4511.34,0.02420
4488.19,0.02318
4465.05,0.02357
4441.9,0.02391
4418.76,0.02353
4395.61,0.02373
4372.47,0.02359
4349.32,0.02359
4326.18,0.02357
4303.03,0.02361
4279.89,0.02352
4256.74,0.02354
4233.6,0.02337
4210.45,0.02429
4187.31,0.02394
4164.16,0.02360
4141.02,0.02425
4117.87,0.02409
4094.73,0.02433
4071.58,0.02380
4048.44,0.02403
4025.29,0.02365
4002.15,0.02420
3979,0.02360
3955.86,0.02404
3932.71,0.02366
3909.57,0.02412
3886.42,0.02398
3863.28,0.02466
3840.13,0.02494
3816.99,0.02458
3793.84,0.02415
3770.7,0.02359
3747.55,0.02364
3724.41,0.02408
3701.26,0.02424
3678.12,0.02405
3654.97,0.02390
3631.83,0.02338
3608.68,0.02330
3585.54,0.02330
3562.39,0.02245
3539.25,0.02205
3516.1,0.02237
3492.96,0.02226
3469.81,0.02161
3446.67,0.02213
3423.52,0.02171
3400.38,0.02171
3377.23,0.02150
3354.09,0.02129
3330.94,0.02203
3307.8,0.02136
3284.65,0.02202
3261.51,0.02153
3238.36,0.02193
3215.22,0.02192
3192.07,0.02213
3168.93,0.02188
3145.78,0.02239
3122.64,0.02251
3099.49,0.02260
3076.35,0.02298
3053.2,0.02268
3030.06,0.02206
3006.91,0.02220
2983.77,0.02164
2960.62,0.02093
2937.48,0.02140
2914.33,0.02178
2891.19,0.02199
2868.04,0.02194
2844.9,0.02265
2821.75,0.02287
2798.61,0.02324
2775.46,0.02308
2752.32,0.02238
2729.17,0.02279
2706.03,0.02327
2682.88,0.02250
2659.74,0.02315
2636.59,0.02310
2613.45,0.02330
2590.3,0.02317
2567.16,0.02305
2544.02,0.02310
2520.87,0.02335
2497.73,0.02311
2474.58,0.02301
2451.44,0.02321
2428.29,0.02328
2405.15,0.02338
2382,0.02325
2358.86,0.02339
2335.71,0.02328
2312.57,0.02330
2289.42,0.02307
2266.28,0.02319
2243.13,0.02307
2219.99,0.02338
2196.84,0.02304
2173.7,0.02284
2150.55,0.02311
2127.41,0.02325
2104.26,0.02306
2081.12,0.02271
2057.97,0.02317
2034.83,0.02266
2011.68,0.02283
1988.54,0.02309
1965.39,0.02259
1942.25,0.02303
1919.1,0.02264
1895.96,0.02269
1872.81,0.02273
1849.67,0.02241
1826.52,0.02212
1803.38,0.02177
1780.23,0.02133
1757.09,0.01960
1733.94,0.02161
1710.8,0.02259
1687.65,0.02130
1664.51,0.02022
1641.36,0.02077
1618.22,0.02072
1595.07,0.02102
1571.93,0.02010
1548.78,0.02026
1525.64,0.02083
1502.49,0.02038
1479.35,0.02027
1456.2,0.02038
1433.06,0.02017
1409.91,0.01989
1386.77,0.01995
1363.62,0.01985
1340.48,0.01954
1317.33,0.01879
1294.19,0.01976
1271.04,0.02092
1247.9,0.02176
1224.75,0.02133
1201.61,0.02100
1178.46,0.01981
1155.32,0.01899
1132.17,0.01985
1109.03,0.02031
1085.88,0.01955
1062.74,0.02186
1039.59,0.02136
1016.45,0.02112
993.304,0.02345
970.159,0.02267
947.014,0.02183
923.869,0.02177
900.724,0.02119
877.579,0.02183
854.434,0.02096
831.289,0.02074
808.144,0.02133
784.999,0.02111
761.854,0.01976
738.709,0.02043
715.565,0.02002
692.42,0.01933
669.275,0.02015
646.13,0.01810
622.985,0.01932
599.84,0.01865