File: 01_Data/Cinder_Block/FTIR/IS/Cinder_Block_IS_S_221214_R6.dpt
7497.03,0.19830
7473.89,0.19496
7450.74,0.19123
7427.6,0.19154
7404.45,0.18767
7381.31,0.18653
7358.16,0.19656
7335.02,0.19496
7311.87,0.20003
7288.73,0.19721
7265.58,0.19525
7242.44,0.19396
7219.29,0.19301
7196.15,0.18715
7173,0.19739
7149.86,0.19399
7126.71,0.20044
7103.57,0.19084
7080.42,0.18874
7057.28,0.19519
7034.13,0.19483
7010.99,0.19710
6987.84,0.19269
6964.7,0.19270
6941.55,0.19138
6918.41,0.19513
6895.26,0.19456
6872.12,0.19862
6848.97,0.19824
6825.83,0.19143
6802.68,0.19495
6779.54,0.19917
6756.39,0.19640
6733.25,0.19485
6710.1,0.19285
6686.96,0.19656
6663.82,0.19528
6640.67,0.19331
6617.53,0.19570
6594.38,0.19569
6571.24,0.19626
6548.09,0.19989
6524.95,0.19461
6501.8,0.19161
6478.66,0.19528
6455.51,0.19285
6432.37,0.19849
6409.22,0.19808
6386.08,0.19848
6362.93,0.19665
6339.79,0.19804
6316.64,0.19127
6293.5,0.19647
6270.35,0.19706
6247.21,0.19815
6224.06,0.19767
6200.92,0.20037
6177.77,0.19911
6154.63,0.19471
6131.48,0.19929
6108.34,0.19540
6085.19,0.19525
6062.05,0.19974
6038.9,0.19996
6015.76,0.19827
5992.61,0.19816
5969.47,0.19692
5946.32,0.19635
5923.18,0.19791
5900.03,0.19786
5876.89,0.19870
5853.74,0.19732
5830.6,0.19722
5807.45,0.19784
5784.31,0.19683
5761.16,0.19984
5738.02,0.19648
5714.87,0.19707
5691.73,0.19870
5668.58,0.19863
5645.44,0.19862
5622.29,0.19783
5599.15,0.19847
5576,0.19729
5552.86,0.20036
5529.71,0.19829
5506.57,0.19843
5483.42,0.19922
5460.28,0.19644
5437.13,0.19843
5413.99,0.19919
5390.84,0.20051
5367.7,0.19865
5344.55,0.19766
5321.41,0.19555
5298.26,0.19596
5275.12,0.19295
5251.97,0.19177
5228.83,0.18955
5205.68,0.18904
5182.54,0.18863
5159.39,0.18740
5136.25,0.18852
5113.1,0.18892
5089.96,0.19022
5066.81,0.19094
5043.67,0.19015
5020.52,0.19215
4997.38,0.19265
4974.23,0.19381
4951.09,0.19354
4927.94,0.19401
4904.8,0.19465
4881.65,0.19429
4858.51,0.19431
4835.36,0.19418
4812.22,0.19484
4789.07,0.19382
4765.93,0.19483
4742.78,0.19437
4719.64,0.19611
4696.49,0.19530
4673.35,0.19468
4650.2,0.19537
4627.06,0.19460
4603.92,0.19485
4580.77,0.19436
4557.63,0.19519
4534.48,0.19364
4511.34,0.19207
4488.19,0.19264
4465.05,0.19229
4441.9,0.19193
4418.76,0.19222
4395.61,0.19138
4372.47,0.18995
4349.32,0.18872
4326.18,0.18809
4303.03,0.18733
4279.89,0.18540
4256.74,0.18561
4233.6,0.18756
4210.45,0.18827
4187.31,0.18835
4164.16,0.18677
4141.02,0.18547
4117.87,0.18365
4094.73,0.18128
4071.58,0.18053
4048.44,0.17787
4025.29,0.17512
4002.15,0.17349
3979,0.17260
3955.86,0.16927
3932.71,0.16968
3909.57,0.17486
3886.42,0.17725
3863.28,0.17725
3840.13,0.17695
3816.99,0.17540
3793.84,0.17432
3770.7,0.17204
3747.55,0.16586
3724.41,0.15296
3701.26,0.13195
3678.12,0.10977
3654.97,0.08577
3631.83,0.06962
3608.68,0.06091
3585.54,0.05804
3562.39,0.05605
3539.25,0.05434
3516.1,0.05340
3492.96,0.05172
3469.81,0.05049
3446.67,0.04968
3423.52,0.04910
3400.38,0.04845
3377.23,0.04896
3354.09,0.05061
3330.94,0.05000
3307.8,0.05092
3284.65,0.05217
3261.51,0.05266
3238.36,0.05418
3215.22,0.05609
3192.07,0.05792
3168.93,0.05965
3145.78,0.06201
3122.64,0.06380
3099.49,0.06499
3076.35,0.06634
3053.2,0.06724
3030.06,0.06777
3006.91,0.06652
2983.77,0.05919
2960.62,0.05950
2937.48,0.06017
2914.33,0.06039
2891.19,0.06127
2868.04,0.05778
2844.9,0.06590
2821.75,0.08014
2798.61,0.08485
2775.46,0.09056
2752.32,0.09287
2729.17,0.09566
2706.03,0.09708
2682.88,0.09861
2659.74,0.09730
2636.59,0.09082
2613.45,0.07861
2590.3,0.07231
2567.16,0.06981
2544.02,0.06507
2520.87,0.05227
2497.73,0.06078
2474.58,0.08305
2451.44,0.09709
2428.29,0.10245
2405.15,0.10494
2382,0.10503
2358.86,0.10470
2335.71,0.10357
2312.57,0.10199
2289.42,0.10089
2266.28,0.09868
2243.13,0.09587
2219.99,0.09347
2196.84,0.09309
2173.7,0.09072
2150.55,0.08500
2127.41,0.08554
2104.26,0.09050
2081.12,0.09087
2057.97,0.08950
2034.83,0.08678
2011.68,0.08387
1988.54,0.08147
1965.39,0.07918
1942.25,0.07862
1919.1,0.07638
1895.96,0.07112
1872.81,0.06667
1849.67,0.06467
1826.52,0.05674
1803.38,0.03922
1780.23,0.04566
1757.09,0.04632
1733.94,0.04236
1710.8,0.04067
1687.65,0.03572
1664.51,0.03404
1641.36,0.03326
1618.22,0.03597
1595.07,0.04247
1571.93,0.05842
1548.78,0.08124
1525.64,0.09184
1502.49,0.09055
1479.35,0.08960
1456.2,0.08860
1433.06,0.09014
1409.91,0.10324
1386.77,0.08683
1363.62,0.08278
1340.48,0.08515
1317.33,0.08309
1294.19,0.08716
1271.04,0.08503
1247.9,0.08271
1224.75,0.07845
1201.61,0.06892
1178.46,0.06155
1155.32,0.06047
1132.17,0.06034
1109.03,0.05509
1085.88,0.05090
1062.74,0.04821
1039.59,0.04691
1016.45,0.04564
993.304,0.04606
970.159,0.04575
947.014,0.04564
923.869,0.04592
900.724,0.04643
877.579,0.05170
854.434,0.04920
831.289,0.04523
808.144,0.04267
784.999,0.04263
761.854,0.04158
738.709,0.03895
715.565,0.03298
692.42,0.03948
669.275,0.03671
646.13,0.03533
622.985,0.03298
599.84,0.03473