File: 01_Data/Cinder_Block/FTIR/IS/Cinder_Block_IS_S_221214_R8.dpt
7497.03,0.19740
7473.89,0.19708
7450.74,0.19887
7427.6,0.19325
7404.45,0.18869
7381.31,0.19201
7358.16,0.19666
7335.02,0.19259
7311.87,0.19771
7288.73,0.19838
7265.58,0.19909
7242.44,0.19286
7219.29,0.19055
7196.15,0.18203
7173,0.19317
7149.86,0.19331
7126.71,0.19914
7103.57,0.19462
7080.42,0.19479
7057.28,0.18918
7034.13,0.19204
7010.99,0.19170
6987.84,0.19513
6964.7,0.19525
6941.55,0.19615
6918.41,0.19452
6895.26,0.19495
6872.12,0.19167
6848.97,0.19045
6825.83,0.20097
6802.68,0.19935
6779.54,0.19382
6756.39,0.19212
6733.25,0.19524
6710.1,0.19112
6686.96,0.19932
6663.82,0.19904
6640.67,0.19592
6617.53,0.19310
6594.38,0.19414
6571.24,0.19415
6548.09,0.19770
6524.95,0.19876
6501.8,0.19617
6478.66,0.19347
6455.51,0.19640
6432.37,0.19744
6409.22,0.19981
6386.08,0.19511
6362.93,0.19515
6339.79,0.19613
6316.64,0.19643
6293.5,0.19768
6270.35,0.19701
6247.21,0.19628
6224.06,0.19593
6200.92,0.19496
6177.77,0.19358
6154.63,0.20101
6131.48,0.19611
6108.34,0.19850
6085.19,0.19671
6062.05,0.19876
6038.9,0.19626
6015.76,0.19765
5992.61,0.19706
5969.47,0.19856
5946.32,0.19891
5923.18,0.19623
5900.03,0.19789
5876.89,0.19636
5853.74,0.19779
5830.6,0.19683
5807.45,0.19718
5784.31,0.19763
5761.16,0.19598
5738.02,0.19737
5714.87,0.20058
5691.73,0.19790
5668.58,0.19902
5645.44,0.20049
5622.29,0.19810
5599.15,0.19916
5576,0.19916
5552.86,0.19916
5529.71,0.20001
5506.57,0.19989
5483.42,0.20038
5460.28,0.20066
5437.13,0.20014
5413.99,0.19856
5390.84,0.19918
5367.7,0.19920
5344.55,0.19767
5321.41,0.19828
5298.26,0.19726
5275.12,0.19585
5251.97,0.19389
5228.83,0.19178
5205.68,0.18753
5182.54,0.18926
5159.39,0.18804
5136.25,0.19057
5113.1,0.19024
5089.96,0.19091
5066.81,0.19132
5043.67,0.19194
5020.52,0.19217
4997.38,0.19194
4974.23,0.19316
4951.09,0.19472
4927.94,0.19535
4904.8,0.19514
4881.65,0.19549
4858.51,0.19669
4835.36,0.19356
4812.22,0.19463
4789.07,0.19654
4765.93,0.19524
4742.78,0.19598
4719.64,0.19613
4696.49,0.19574
4673.35,0.19626
4650.2,0.19589
4627.06,0.19594
4603.92,0.19622
4580.77,0.19580
4557.63,0.19489
4534.48,0.19421
4511.34,0.19377
4488.19,0.19304
4465.05,0.19294
4441.9,0.19277
4418.76,0.19275
4395.61,0.19158
4372.47,0.19156
4349.32,0.18957
4326.18,0.18930
4303.03,0.18824
4279.89,0.18655
4256.74,0.18614
4233.6,0.18807
4210.45,0.18939
4187.31,0.18905
4164.16,0.18812
4141.02,0.18654
4117.87,0.18458
4094.73,0.18249
4071.58,0.18079
4048.44,0.17839
4025.29,0.17654
4002.15,0.17484
3979,0.17294
3955.86,0.17074
3932.71,0.17080
3909.57,0.17642
3886.42,0.17770
3863.28,0.17779
3840.13,0.17806
3816.99,0.17665
3793.84,0.17556
3770.7,0.17279
3747.55,0.16675
3724.41,0.15364
3701.26,0.13315
3678.12,0.10967
3654.97,0.08632
3631.83,0.06913
3608.68,0.06189
3585.54,0.05936
3562.39,0.05666
3539.25,0.05487
3516.1,0.05260
3492.96,0.05221
3469.81,0.05094
3446.67,0.04960
3423.52,0.04976
3400.38,0.04884
3377.23,0.04926
3354.09,0.04969
3330.94,0.05094
3307.8,0.05110
3284.65,0.05210
3261.51,0.05330
3238.36,0.05382
3215.22,0.05569
3192.07,0.05804
3168.93,0.06027
3145.78,0.06202
3122.64,0.06388
3099.49,0.06569
3076.35,0.06696
3053.2,0.06795
3030.06,0.06828
3006.91,0.06708
2983.77,0.05904
2960.62,0.06006
2937.48,0.06007
2914.33,0.06076
2891.19,0.06150
2868.04,0.05867
2844.9,0.06603
2821.75,0.08045
2798.61,0.08562
2775.46,0.09092
2752.32,0.09420
2729.17,0.09626
2706.03,0.09787
2682.88,0.09896
2659.74,0.09822
2636.59,0.09124
2613.45,0.07863
2590.3,0.07241
2567.16,0.07034
2544.02,0.06556
2520.87,0.05258
2497.73,0.06094
2474.58,0.08396
2451.44,0.09755
2428.29,0.10272
2405.15,0.10544
2382,0.10616
2358.86,0.10569
2335.71,0.10394
2312.57,0.10219
2289.42,0.10119
2266.28,0.09938
2243.13,0.09643
2219.99,0.09429
2196.84,0.09310
2173.7,0.09155
2150.55,0.08555
2127.41,0.08620
2104.26,0.09123
2081.12,0.09171
2057.97,0.09025
2034.83,0.08738
2011.68,0.08431
1988.54,0.08192
1965.39,0.07946
1942.25,0.07924
1919.1,0.07674
1895.96,0.07130
1872.81,0.06725
1849.67,0.06526
1826.52,0.05761
1803.38,0.03931
1780.23,0.04569
1757.09,0.04620
1733.94,0.04300
1710.8,0.04120
1687.65,0.03579
1664.51,0.03399
1641.36,0.03377
1618.22,0.03608
1595.07,0.04220
1571.93,0.05877
1548.78,0.08181
1525.64,0.09209
1502.49,0.09083
1479.35,0.09014
1456.2,0.08920
1433.06,0.09047
1409.91,0.10350
1386.77,0.08724
1363.62,0.08312
1340.48,0.08513
1317.33,0.08331
1294.19,0.08778
1271.04,0.08586
1247.9,0.08361
1224.75,0.07819
1201.61,0.06963
1178.46,0.06149
1155.32,0.06031
1132.17,0.06015
1109.03,0.05524
1085.88,0.05151
1062.74,0.04878
1039.59,0.04652
1016.45,0.04607
993.304,0.04562
970.159,0.04613
947.014,0.04703
923.869,0.04580
900.724,0.04585
877.579,0.05220
854.434,0.04926
831.289,0.04560
808.144,0.04316
784.999,0.04257
761.854,0.04077
738.709,0.03935
715.565,0.03237
692.42,0.03928
669.275,0.03852
646.13,0.03544
622.985,0.03410
599.84,0.03467