File: 01_Data/Cinder_Block/FTIR/IS/Cinder_Block_IS_T_221214_R3.dpt
7497.03,0.03203
7473.89,0.02719
7450.74,0.02367
7427.6,0.02652
7404.45,0.02780
7381.31,0.02853
7358.16,0.02108
7335.02,0.02007
7311.87,0.03412
7288.73,0.02780
7265.58,0.02881
7242.44,0.01789
7219.29,0.02244
7196.15,0.02362
7173,0.01840
7149.86,0.02269
7126.71,0.02771
7103.57,0.02710
7080.42,0.02162
7057.28,0.02087
7034.13,0.03029
7010.99,0.02274
6987.84,0.02492
6964.7,0.02501
6941.55,0.02147
6918.41,0.01987
6895.26,0.02241
6872.12,0.02382
6848.97,0.02572
6825.83,0.02368
6802.68,0.01943
6779.54,0.02745
6756.39,0.02910
6733.25,0.02519
6710.1,0.02479
6686.96,0.02007
6663.82,0.02407
6640.67,0.02102
6617.53,0.02381
6594.38,0.02388
6571.24,0.02291
6548.09,0.02421
6524.95,0.02418
6501.8,0.02032
6478.66,0.01995
6455.51,0.02563
6432.37,0.02601
6409.22,0.02558
6386.08,0.02333
6362.93,0.02102
6339.79,0.02176
6316.64,0.02354
6293.5,0.02302
6270.35,0.02321
6247.21,0.02649
6224.06,0.02267
6200.92,0.02115
6177.77,0.02346
6154.63,0.02087
6131.48,0.02232
6108.34,0.02223
6085.19,0.02338
6062.05,0.02186
6038.9,0.02653
6015.76,0.02445
5992.61,0.02122
5969.47,0.02221
5946.32,0.02398
5923.18,0.02469
5900.03,0.01869
5876.89,0.02051
5853.74,0.02055
5830.6,0.02504
5807.45,0.02314
5784.31,0.02114
5761.16,0.02335
5738.02,0.02030
5714.87,0.02427
5691.73,0.02216
5668.58,0.02294
5645.44,0.02305
5622.29,0.02225
5599.15,0.02391
5576,0.02437
5552.86,0.02444
5529.71,0.02334
5506.57,0.02290
5483.42,0.02434
5460.28,0.02390
5437.13,0.02556
5413.99,0.02366
5390.84,0.02232
5367.7,0.02207
5344.55,0.02464
5321.41,0.02269
5298.26,0.02284
5275.12,0.02381
5251.97,0.02166
5228.83,0.02419
5205.68,0.02299
5182.54,0.02321
5159.39,0.02325
5136.25,0.02454
5113.1,0.02193
5089.96,0.02383
5066.81,0.02314
5043.67,0.02450
5020.52,0.02365
4997.38,0.02359
4974.23,0.02347
4951.09,0.02431
4927.94,0.02460
4904.8,0.02446
4881.65,0.02488
4858.51,0.02334
4835.36,0.02484
4812.22,0.02337
4789.07,0.02450
4765.93,0.02334
4742.78,0.02411
4719.64,0.02458
4696.49,0.02249
4673.35,0.02395
4650.2,0.02391
4627.06,0.02478
4603.92,0.02338
4580.77,0.02353
4557.63,0.02430
4534.48,0.02388
4511.34,0.02301
4488.19,0.02380
4465.05,0.02421
4441.9,0.02356
4418.76,0.02342
4395.61,0.02398
4372.47,0.02397
4349.32,0.02308
4326.18,0.02385
4303.03,0.02451
4279.89,0.02433
4256.74,0.02452
4233.6,0.02354
4210.45,0.02396
4187.31,0.02367
4164.16,0.02460
4141.02,0.02450
4117.87,0.02416
4094.73,0.02370
4071.58,0.02388
4048.44,0.02424
4025.29,0.02412
4002.15,0.02405
3979,0.02375
3955.86,0.02475
3932.71,0.02464
3909.57,0.02405
3886.42,0.02426
3863.28,0.02503
3840.13,0.02375
3816.99,0.02388
3793.84,0.02434
3770.7,0.02379
3747.55,0.02441
3724.41,0.02435
3701.26,0.02410
3678.12,0.02484
3654.97,0.02372
3631.83,0.02390
3608.68,0.02412
3585.54,0.02335
3562.39,0.02323
3539.25,0.02217
3516.1,0.02181
3492.96,0.02247
3469.81,0.02259
3446.67,0.02232
3423.52,0.02233
3400.38,0.02237
3377.23,0.02258
3354.09,0.02193
3330.94,0.02163
3307.8,0.02157
3284.65,0.02123
3261.51,0.02209
3238.36,0.02237
3215.22,0.02237
3192.07,0.02287
3168.93,0.02228
3145.78,0.02275
3122.64,0.02247
3099.49,0.02281
3076.35,0.02241
3053.2,0.02249
3030.06,0.02272
3006.91,0.02260
2983.77,0.02206
2960.62,0.02107
2937.48,0.02142
2914.33,0.02177
2891.19,0.02263
2868.04,0.02292
2844.9,0.02281
2821.75,0.02323
2798.61,0.02323
2775.46,0.02324
2752.32,0.02289
2729.17,0.02334
2706.03,0.02374
2682.88,0.02365
2659.74,0.02315
2636.59,0.02359
2613.45,0.02374
2590.3,0.02343
2567.16,0.02307
2544.02,0.02356
2520.87,0.02331
2497.73,0.02341
2474.58,0.02371
2451.44,0.02363
2428.29,0.02308
2405.15,0.02352
2382,0.02342
2358.86,0.02361
2335.71,0.02382
2312.57,0.02360
2289.42,0.02354
2266.28,0.02375
2243.13,0.02358
2219.99,0.02323
2196.84,0.02354
2173.7,0.02329
2150.55,0.02354
2127.41,0.02351
2104.26,0.02325
2081.12,0.02325
2057.97,0.02301
2034.83,0.02341
2011.68,0.02334
1988.54,0.02328
1965.39,0.02277
1942.25,0.02307
1919.1,0.02311
1895.96,0.02300
1872.81,0.02285
1849.67,0.02277
1826.52,0.02311
1803.38,0.02212
1780.23,0.02150
1757.09,0.01979
1733.94,0.02179
1710.8,0.02262
1687.65,0.02114
1664.51,0.02079
1641.36,0.02031
1618.22,0.02103
1595.07,0.02130
1571.93,0.02007
1548.78,0.02053
1525.64,0.02052
1502.49,0.02049
1479.35,0.02070
1456.2,0.02055
1433.06,0.02071
1409.91,0.02041
1386.77,0.01999
1363.62,0.02026
1340.48,0.01921
1317.33,0.01870
1294.19,0.01945
1271.04,0.02127
1247.9,0.02187
1224.75,0.02140
1201.61,0.02066
1178.46,0.02006
1155.32,0.01975
1132.17,0.01922
1109.03,0.02103
1085.88,0.02086
1062.74,0.02134
1039.59,0.02208
1016.45,0.02163
993.304,0.02379
970.159,0.02210
947.014,0.02217
923.869,0.02233
900.724,0.02160
877.579,0.02060
854.434,0.02091
831.289,0.02143
808.144,0.02142
784.999,0.02111
761.854,0.02033
738.709,0.02015
715.565,0.02011
692.42,0.02064
669.275,0.01881
646.13,0.01899
622.985,0.01863
599.84,0.01804