File: 01_Data/Cinder_Block/FTIR/IS/Cinder_Block_IS_S_221214_R2.dpt
7497.03,0.19621
7473.89,0.17801
7450.74,0.19429
7427.6,0.20035
7404.45,0.20337
7381.31,0.19887
7358.16,0.18913
7335.02,0.19248
7311.87,0.19153
7288.73,0.18808
7265.58,0.20092
7242.44,0.19324
7219.29,0.19258
7196.15,0.19272
7173,0.19267
7149.86,0.18797
7126.71,0.18947
7103.57,0.18806
7080.42,0.19212
7057.28,0.19421
7034.13,0.19268
7010.99,0.18842
6987.84,0.19368
6964.7,0.19563
6941.55,0.19352
6918.41,0.19824
6895.26,0.18575
6872.12,0.18984
6848.97,0.19878
6825.83,0.19240
6802.68,0.19941
6779.54,0.19697
6756.39,0.19956
6733.25,0.20105
6710.1,0.18994
6686.96,0.19248
6663.82,0.19246
6640.67,0.19440
6617.53,0.19448
6594.38,0.19421
6571.24,0.19627
6548.09,0.19534
6524.95,0.19349
6501.8,0.19519
6478.66,0.19360
6455.51,0.19653
6432.37,0.19494
6409.22,0.19503
6386.08,0.19350
6362.93,0.19776
6339.79,0.19593
6316.64,0.19806
6293.5,0.19534
6270.35,0.19620
6247.21,0.19582
6224.06,0.19546
6200.92,0.19725
6177.77,0.19668
6154.63,0.19626
6131.48,0.19667
6108.34,0.19465
6085.19,0.19617
6062.05,0.19594
6038.9,0.19716
6015.76,0.19587
5992.61,0.19651
5969.47,0.19575
5946.32,0.19601
5923.18,0.19897
5900.03,0.19638
5876.89,0.19644
5853.74,0.19623
5830.6,0.19903
5807.45,0.19784
5784.31,0.19671
5761.16,0.19731
5738.02,0.19991
5714.87,0.19667
5691.73,0.19611
5668.58,0.19753
5645.44,0.19622
5622.29,0.19870
5599.15,0.19774
5576,0.19786
5552.86,0.19786
5529.71,0.19842
5506.57,0.19867
5483.42,0.19697
5460.28,0.19917
5437.13,0.19776
5413.99,0.19845
5390.84,0.19776
5367.7,0.19657
5344.55,0.19872
5321.41,0.19773
5298.26,0.19521
5275.12,0.19387
5251.97,0.18937
5228.83,0.18724
5205.68,0.18630
5182.54,0.18512
5159.39,0.18590
5136.25,0.18750
5113.1,0.18791
5089.96,0.18859
5066.81,0.18860
5043.67,0.19027
5020.52,0.19022
4997.38,0.19072
4974.23,0.19042
4951.09,0.19202
4927.94,0.19290
4904.8,0.19289
4881.65,0.19312
4858.51,0.19313
4835.36,0.19325
4812.22,0.19346
4789.07,0.19292
4765.93,0.19392
4742.78,0.19401
4719.64,0.19436
4696.49,0.19354
4673.35,0.19483
4650.2,0.19382
4627.06,0.19353
4603.92,0.19326
4580.77,0.19392
4557.63,0.19302
4534.48,0.19225
4511.34,0.19194
4488.19,0.19104
4465.05,0.19082
4441.9,0.19149
4418.76,0.19057
4395.61,0.18958
4372.47,0.18980
4349.32,0.18902
4326.18,0.18742
4303.03,0.18554
4279.89,0.18341
4256.74,0.18466
4233.6,0.18642
4210.45,0.18770
4187.31,0.18679
4164.16,0.18585
4141.02,0.18426
4117.87,0.18247
4094.73,0.18042
4071.58,0.17920
4048.44,0.17685
4025.29,0.17378
4002.15,0.17177
3979,0.17096
3955.86,0.16838
3932.71,0.16848
3909.57,0.17342
3886.42,0.17553
3863.28,0.17607
3840.13,0.17576
3816.99,0.17442
3793.84,0.17265
3770.7,0.16976
3747.55,0.16451
3724.41,0.15231
3701.26,0.13155
3678.12,0.10853
3654.97,0.08447
3631.83,0.06804
3608.68,0.06051
3585.54,0.05781
3562.39,0.05534
3539.25,0.05432
3516.1,0.05195
3492.96,0.05100
3469.81,0.05014
3446.67,0.04917
3423.52,0.04803
3400.38,0.04780
3377.23,0.04885
3354.09,0.04903
3330.94,0.04903
3307.8,0.05010
3284.65,0.05058
3261.51,0.05192
3238.36,0.05342
3215.22,0.05568
3192.07,0.05631
3168.93,0.05841
3145.78,0.06148
3122.64,0.06251
3099.49,0.06408
3076.35,0.06542
3053.2,0.06623
3030.06,0.06690
3006.91,0.06602
2983.77,0.05869
2960.62,0.05928
2937.48,0.05997
2914.33,0.06043
2891.19,0.06002
2868.04,0.05832
2844.9,0.06594
2821.75,0.07926
2798.61,0.08439
2775.46,0.08961
2752.32,0.09263
2729.17,0.09526
2706.03,0.09652
2682.88,0.09734
2659.74,0.09635
2636.59,0.09037
2613.45,0.07836
2590.3,0.07238
2567.16,0.06974
2544.02,0.06518
2520.87,0.05212
2497.73,0.06087
2474.58,0.08267
2451.44,0.09634
2428.29,0.10159
2405.15,0.10417
2382,0.10433
2358.86,0.10408
2335.71,0.10251
2312.57,0.10033
2289.42,0.09965
2266.28,0.09759
2243.13,0.09493
2219.99,0.09235
2196.84,0.09181
2173.7,0.08979
2150.55,0.08431
2127.41,0.08449
2104.26,0.08977
2081.12,0.08971
2057.97,0.08841
2034.83,0.08598
2011.68,0.08288
1988.54,0.08105
1965.39,0.07832
1942.25,0.07781
1919.1,0.07574
1895.96,0.07059
1872.81,0.06640
1849.67,0.06444
1826.52,0.05702
1803.38,0.03933
1780.23,0.04517
1757.09,0.04615
1733.94,0.04244
1710.8,0.04096
1687.65,0.03526
1664.51,0.03327
1641.36,0.03305
1618.22,0.03567
1595.07,0.04203
1571.93,0.05851
1548.78,0.08129
1525.64,0.09161
1502.49,0.09048
1479.35,0.08980
1456.2,0.08861
1433.06,0.09031
1409.91,0.10335
1386.77,0.08749
1363.62,0.08276
1340.48,0.08500
1317.33,0.08276
1294.19,0.08701
1271.04,0.08520
1247.9,0.08264
1224.75,0.07812
1201.61,0.06912
1178.46,0.06169
1155.32,0.06032
1132.17,0.06070
1109.03,0.05528
1085.88,0.05080
1062.74,0.04867
1039.59,0.04755
1016.45,0.04629
993.304,0.04564
970.159,0.04543
947.014,0.04673
923.869,0.04626
900.724,0.04661
877.579,0.05200
854.434,0.04918
831.289,0.04516
808.144,0.04416
784.999,0.04289
761.854,0.04142
738.709,0.03902
715.565,0.03352
692.42,0.03930
669.275,0.03916
646.13,0.03488
622.985,0.03390
599.84,0.03563