File: 01_Data/Cinder_Block/FTIR/IS/Cinder_Block_IS_S_221214_R1.dpt
7497.03,0.18839
7473.89,0.18797
7450.74,0.19702
7427.6,0.18598
7404.45,0.19356
7381.31,0.19413
7358.16,0.19138
7335.02,0.19302
7311.87,0.19587
7288.73,0.18880
7265.58,0.19000
7242.44,0.18948
7219.29,0.20017
7196.15,0.19295
7173,0.18603
7149.86,0.18965
7126.71,0.18569
7103.57,0.18891
7080.42,0.18715
7057.28,0.18850
7034.13,0.18764
7010.99,0.19190
6987.84,0.19568
6964.7,0.20187
6941.55,0.19502
6918.41,0.19420
6895.26,0.19510
6872.12,0.18553
6848.97,0.19065
6825.83,0.19546
6802.68,0.19913
6779.54,0.19301
6756.39,0.19137
6733.25,0.19607
6710.1,0.19589
6686.96,0.19309
6663.82,0.19721
6640.67,0.19623
6617.53,0.19449
6594.38,0.19488
6571.24,0.19374
6548.09,0.19985
6524.95,0.19986
6501.8,0.19227
6478.66,0.19496
6455.51,0.20031
6432.37,0.19450
6409.22,0.19729
6386.08,0.19798
6362.93,0.19346
6339.79,0.19646
6316.64,0.19387
6293.5,0.19745
6270.35,0.20030
6247.21,0.19880
6224.06,0.19792
6200.92,0.19366
6177.77,0.19116
6154.63,0.19595
6131.48,0.19754
6108.34,0.19604
6085.19,0.19838
6062.05,0.19377
6038.9,0.19658
6015.76,0.19759
5992.61,0.20020
5969.47,0.19536
5946.32,0.19430
5923.18,0.19681
5900.03,0.19805
5876.89,0.19822
5853.74,0.19585
5830.6,0.19589
5807.45,0.19565
5784.31,0.19898
5761.16,0.19855
5738.02,0.19788
5714.87,0.19693
5691.73,0.19726
5668.58,0.19900
5645.44,0.19754
5622.29,0.19784
5599.15,0.19775
5576,0.19762
5552.86,0.19769
5529.71,0.19774
5506.57,0.19835
5483.42,0.19807
5460.28,0.19760
5437.13,0.19854
5413.99,0.19799
5390.84,0.19735
5367.7,0.19788
5344.55,0.19788
5321.41,0.19513
5298.26,0.19549
5275.12,0.19300
5251.97,0.18913
5228.83,0.18896
5205.68,0.18664
5182.54,0.18583
5159.39,0.18653
5136.25,0.18702
5113.1,0.18769
5089.96,0.18726
5066.81,0.18787
5043.67,0.19032
5020.52,0.19032
4997.38,0.19014
4974.23,0.19177
4951.09,0.19284
4927.94,0.19192
4904.8,0.19209
4881.65,0.19220
4858.51,0.19329
4835.36,0.19334
4812.22,0.19262
4789.07,0.19382
4765.93,0.19336
4742.78,0.19351
4719.64,0.19500
4696.49,0.19353
4673.35,0.19522
4650.2,0.19371
4627.06,0.19405
4603.92,0.19532
4580.77,0.19412
4557.63,0.19315
4534.48,0.19291
4511.34,0.19090
4488.19,0.19145
4465.05,0.19190
4441.9,0.19117
4418.76,0.19065
4395.61,0.18999
4372.47,0.18955
4349.32,0.18909
4326.18,0.18731
4303.03,0.18636
4279.89,0.18313
4256.74,0.18428
4233.6,0.18617
4210.45,0.18691
4187.31,0.18721
4164.16,0.18564
4141.02,0.18408
4117.87,0.18255
4094.73,0.18015
4071.58,0.17896
4048.44,0.17595
4025.29,0.17363
4002.15,0.17126
3979,0.17132
3955.86,0.16795
3932.71,0.16801
3909.57,0.17301
3886.42,0.17559
3863.28,0.17526
3840.13,0.17529
3816.99,0.17333
3793.84,0.17174
3770.7,0.16957
3747.55,0.16425
3724.41,0.15161
3701.26,0.13019
3678.12,0.10825
3654.97,0.08457
3631.83,0.06715
3608.68,0.05972
3585.54,0.05729
3562.39,0.05516
3539.25,0.05287
3516.1,0.05129
3492.96,0.04997
3469.81,0.05017
3446.67,0.04837
3423.52,0.04783
3400.38,0.04732
3377.23,0.04850
3354.09,0.04840
3330.94,0.04930
3307.8,0.04981
3284.65,0.05069
3261.51,0.05189
3238.36,0.05259
3215.22,0.05427
3192.07,0.05541
3168.93,0.05778
3145.78,0.06008
3122.64,0.06230
3099.49,0.06367
3076.35,0.06498
3053.2,0.06623
3030.06,0.06684
3006.91,0.06522
2983.77,0.05876
2960.62,0.05926
2937.48,0.05936
2914.33,0.06017
2891.19,0.06103
2868.04,0.05792
2844.9,0.06581
2821.75,0.07912
2798.61,0.08455
2775.46,0.08933
2752.32,0.09259
2729.17,0.09483
2706.03,0.09663
2682.88,0.09784
2659.74,0.09666
2636.59,0.09056
2613.45,0.07827
2590.3,0.07168
2567.16,0.06979
2544.02,0.06507
2520.87,0.05229
2497.73,0.06131
2474.58,0.08294
2451.44,0.09632
2428.29,0.10120
2405.15,0.10351
2382,0.10403
2358.86,0.10288
2335.71,0.10256
2312.57,0.10027
2289.42,0.09934
2266.28,0.09707
2243.13,0.09492
2219.99,0.09218
2196.84,0.09122
2173.7,0.08993
2150.55,0.08369
2127.41,0.08420
2104.26,0.08893
2081.12,0.08943
2057.97,0.08809
2034.83,0.08531
2011.68,0.08267
1988.54,0.08058
1965.39,0.07833
1942.25,0.07737
1919.1,0.07557
1895.96,0.07071
1872.81,0.06639
1849.67,0.06432
1826.52,0.05688
1803.38,0.03930
1780.23,0.04539
1757.09,0.04647
1733.94,0.04246
1710.8,0.04085
1687.65,0.03487
1664.51,0.03345
1641.36,0.03319
1618.22,0.03588
1595.07,0.04209
1571.93,0.05864
1548.78,0.08167
1525.64,0.09176
1502.49,0.09072
1479.35,0.08997
1456.2,0.08912
1433.06,0.09053
1409.91,0.10334
1386.77,0.08767
1363.62,0.08314
1340.48,0.08507
1317.33,0.08309
1294.19,0.08739
1271.04,0.08557
1247.9,0.08275
1224.75,0.07822
1201.61,0.06909
1178.46,0.06224
1155.32,0.06042
1132.17,0.06071
1109.03,0.05558
1085.88,0.05110
1062.74,0.04908
1039.59,0.04742
1016.45,0.04660
993.304,0.04601
970.159,0.04580
947.014,0.04666
923.869,0.04518
900.724,0.04651
877.579,0.05253
854.434,0.04881
831.289,0.04512
808.144,0.04352
784.999,0.04226
761.854,0.04073
738.709,0.03844
715.565,0.03208
692.42,0.03868
669.275,0.03908
646.13,0.03398
622.985,0.03474
599.84,0.03486