File: 01_Data/Cinder_Block/FTIR/IS/Cinder_Block_IS_S_221214_R4.dpt
7497.03,0.19259
7473.89,0.19269
7450.74,0.19844
7427.6,0.19055
7404.45,0.19206
7381.31,0.18939
7358.16,0.19190
7335.02,0.18613
7311.87,0.19157
7288.73,0.19074
7265.58,0.19877
7242.44,0.19395
7219.29,0.19920
7196.15,0.19369
7173,0.19727
7149.86,0.19253
7126.71,0.19607
7103.57,0.19579
7080.42,0.19567
7057.28,0.19063
7034.13,0.19626
7010.99,0.18652
6987.84,0.19908
6964.7,0.19839
6941.55,0.19126
6918.41,0.19688
6895.26,0.19160
6872.12,0.19122
6848.97,0.19507
6825.83,0.19277
6802.68,0.19358
6779.54,0.19432
6756.39,0.19204
6733.25,0.19737
6710.1,0.19356
6686.96,0.19941
6663.82,0.19815
6640.67,0.19418
6617.53,0.19519
6594.38,0.19628
6571.24,0.19325
6548.09,0.19434
6524.95,0.19142
6501.8,0.19674
6478.66,0.19780
6455.51,0.19743
6432.37,0.20216
6409.22,0.19467
6386.08,0.19575
6362.93,0.19503
6339.79,0.19437
6316.64,0.19680
6293.5,0.19523
6270.35,0.19428
6247.21,0.19748
6224.06,0.19870
6200.92,0.19442
6177.77,0.19956
6154.63,0.19654
6131.48,0.19442
6108.34,0.19733
6085.19,0.19919
6062.05,0.19688
6038.9,0.19782
6015.76,0.19830
5992.61,0.19858
5969.47,0.19922
5946.32,0.19740
5923.18,0.19931
5900.03,0.19530
5876.89,0.20005
5853.74,0.19983
5830.6,0.19650
5807.45,0.19860
5784.31,0.19827
5761.16,0.20018
5738.02,0.19816
5714.87,0.19871
5691.73,0.20063
5668.58,0.19877
5645.44,0.19794
5622.29,0.19980
5599.15,0.19931
5576,0.19760
5552.86,0.19779
5529.71,0.19829
5506.57,0.19898
5483.42,0.20091
5460.28,0.19909
5437.13,0.19919
5413.99,0.19861
5390.84,0.20014
5367.7,0.20067
5344.55,0.19960
5321.41,0.19858
5298.26,0.19733
5275.12,0.19580
5251.97,0.19253
5228.83,0.19051
5205.68,0.18933
5182.54,0.18964
5159.39,0.18728
5136.25,0.18936
5113.1,0.18925
5089.96,0.19019
5066.81,0.19050
5043.67,0.19078
5020.52,0.19165
4997.38,0.19263
4974.23,0.19314
4951.09,0.19443
4927.94,0.19538
4904.8,0.19437
4881.65,0.19555
4858.51,0.19455
4835.36,0.19682
4812.22,0.19521
4789.07,0.19495
4765.93,0.19563
4742.78,0.19575
4719.64,0.19609
4696.49,0.19548
4673.35,0.19709
4650.2,0.19560
4627.06,0.19562
4603.92,0.19623
4580.77,0.19462
4557.63,0.19406
4534.48,0.19330
4511.34,0.19317
4488.19,0.19260
4465.05,0.19288
4441.9,0.19314
4418.76,0.19217
4395.61,0.19199
4372.47,0.19100
4349.32,0.19048
4326.18,0.18910
4303.03,0.18838
4279.89,0.18522
4256.74,0.18590
4233.6,0.18769
4210.45,0.18896
4187.31,0.18749
4164.16,0.18736
4141.02,0.18665
4117.87,0.18504
4094.73,0.18186
4071.58,0.18093
4048.44,0.17730
4025.29,0.17568
4002.15,0.17321
3979,0.17308
3955.86,0.17019
3932.71,0.17008
3909.57,0.17559
3886.42,0.17743
3863.28,0.17721
3840.13,0.17726
3816.99,0.17621
3793.84,0.17424
3770.7,0.17173
3747.55,0.16651
3724.41,0.15328
3701.26,0.13167
3678.12,0.10939
3654.97,0.08643
3631.83,0.06812
3608.68,0.06169
3585.54,0.05818
3562.39,0.05666
3539.25,0.05433
3516.1,0.05296
3492.96,0.05141
3469.81,0.05036
3446.67,0.04997
3423.52,0.05019
3400.38,0.04876
3377.23,0.04950
3354.09,0.04930
3330.94,0.05032
3307.8,0.05075
3284.65,0.05159
3261.51,0.05254
3238.36,0.05446
3215.22,0.05570
3192.07,0.05719
3168.93,0.05962
3145.78,0.06233
3122.64,0.06367
3099.49,0.06486
3076.35,0.06570
3053.2,0.06712
3030.06,0.06777
3006.91,0.06668
2983.77,0.05885
2960.62,0.05926
2937.48,0.05951
2914.33,0.06088
2891.19,0.06150
2868.04,0.05836
2844.9,0.06637
2821.75,0.07990
2798.61,0.08547
2775.46,0.09047
2752.32,0.09301
2729.17,0.09516
2706.03,0.09769
2682.88,0.09845
2659.74,0.09813
2636.59,0.09088
2613.45,0.07849
2590.3,0.07273
2567.16,0.07000
2544.02,0.06571
2520.87,0.05222
2497.73,0.06095
2474.58,0.08359
2451.44,0.09730
2428.29,0.10272
2405.15,0.10487
2382,0.10535
2358.86,0.10450
2335.71,0.10365
2312.57,0.10152
2289.42,0.10071
2266.28,0.09850
2243.13,0.09616
2219.99,0.09358
2196.84,0.09261
2173.7,0.09100
2150.55,0.08515
2127.41,0.08580
2104.26,0.09088
2081.12,0.09080
2057.97,0.08981
2034.83,0.08674
2011.68,0.08386
1988.54,0.08158
1965.39,0.07919
1942.25,0.07881
1919.1,0.07617
1895.96,0.07122
1872.81,0.06720
1849.67,0.06500
1826.52,0.05738
1803.38,0.03951
1780.23,0.04596
1757.09,0.04650
1733.94,0.04264
1710.8,0.04071
1687.65,0.03562
1664.51,0.03394
1641.36,0.03346
1618.22,0.03629
1595.07,0.04199
1571.93,0.05891
1548.78,0.08180
1525.64,0.09209
1502.49,0.09127
1479.35,0.08985
1456.2,0.08931
1433.06,0.09042
1409.91,0.10356
1386.77,0.08767
1363.62,0.08331
1340.48,0.08533
1317.33,0.08347
1294.19,0.08781
1271.04,0.08588
1247.9,0.08286
1224.75,0.07838
1201.61,0.06935
1178.46,0.06145
1155.32,0.06066
1132.17,0.06045
1109.03,0.05584
1085.88,0.05152
1062.74,0.04856
1039.59,0.04699
1016.45,0.04688
993.304,0.04634
970.159,0.04580
947.014,0.04598
923.869,0.04563
900.724,0.04708
877.579,0.05218
854.434,0.04963
831.289,0.04525
808.144,0.04405
784.999,0.04251
761.854,0.04046
738.709,0.03879
715.565,0.03333
692.42,0.03932
669.275,0.03904
646.13,0.03600
622.985,0.03277
599.84,0.03608