File: 01_Data/Cinder_Block/FTIR/IS/Cinder_Block_IS_S_221214_R3.dpt
7497.03,0.19425
7473.89,0.18445
7450.74,0.19082
7427.6,0.20071
7404.45,0.19666
7381.31,0.18950
7358.16,0.19396
7335.02,0.18373
7311.87,0.19250
7288.73,0.19513
7265.58,0.18539
7242.44,0.19260
7219.29,0.19930
7196.15,0.18413
7173,0.18841
7149.86,0.19545
7126.71,0.19236
7103.57,0.19165
7080.42,0.19272
7057.28,0.18687
7034.13,0.19619
7010.99,0.19387
6987.84,0.19400
6964.7,0.19417
6941.55,0.19525
6918.41,0.19537
6895.26,0.19764
6872.12,0.18959
6848.97,0.19489
6825.83,0.19636
6802.68,0.19653
6779.54,0.19312
6756.39,0.19403
6733.25,0.19734
6710.1,0.19525
6686.96,0.19310
6663.82,0.18831
6640.67,0.19293
6617.53,0.19841
6594.38,0.19779
6571.24,0.19506
6548.09,0.19738
6524.95,0.19431
6501.8,0.19337
6478.66,0.19475
6455.51,0.19607
6432.37,0.19285
6409.22,0.19706
6386.08,0.19777
6362.93,0.19463
6339.79,0.19443
6316.64,0.19773
6293.5,0.19822
6270.35,0.19921
6247.21,0.19557
6224.06,0.19496
6200.92,0.19670
6177.77,0.19674
6154.63,0.19689
6131.48,0.19863
6108.34,0.19516
6085.19,0.19470
6062.05,0.19674
6038.9,0.19773
6015.76,0.19931
5992.61,0.19532
5969.47,0.19707
5946.32,0.19748
5923.18,0.19645
5900.03,0.19909
5876.89,0.19997
5853.74,0.19793
5830.6,0.19757
5807.45,0.19750
5784.31,0.19518
5761.16,0.19882
5738.02,0.19748
5714.87,0.19797
5691.73,0.19634
5668.58,0.19858
5645.44,0.19746
5622.29,0.19853
5599.15,0.19947
5576,0.19889
5552.86,0.19898
5529.71,0.19687
5506.57,0.19913
5483.42,0.19784
5460.28,0.19717
5437.13,0.19842
5413.99,0.19933
5390.84,0.19776
5367.7,0.19812
5344.55,0.19744
5321.41,0.19820
5298.26,0.19427
5275.12,0.19432
5251.97,0.19157
5228.83,0.18778
5205.68,0.18874
5182.54,0.18811
5159.39,0.18711
5136.25,0.18830
5113.1,0.18883
5089.96,0.18958
5066.81,0.18949
5043.67,0.19016
5020.52,0.19097
4997.38,0.19288
4974.23,0.19127
4951.09,0.19239
4927.94,0.19290
4904.8,0.19460
4881.65,0.19497
4858.51,0.19334
4835.36,0.19479
4812.22,0.19405
4789.07,0.19432
4765.93,0.19441
4742.78,0.19466
4719.64,0.19513
4696.49,0.19480
4673.35,0.19537
4650.2,0.19528
4627.06,0.19427
4603.92,0.19469
4580.77,0.19451
4557.63,0.19518
4534.48,0.19256
4511.34,0.19232
4488.19,0.19160
4465.05,0.19170
4441.9,0.19231
4418.76,0.19092
4395.61,0.19115
4372.47,0.19081
4349.32,0.18894
4326.18,0.18795
4303.03,0.18698
4279.89,0.18534
4256.74,0.18463
4233.6,0.18646
4210.45,0.18818
4187.31,0.18635
4164.16,0.18615
4141.02,0.18484
4117.87,0.18320
4094.73,0.18168
4071.58,0.17871
4048.44,0.17749
4025.29,0.17480
4002.15,0.17282
3979,0.17151
3955.86,0.16970
3932.71,0.16916
3909.57,0.17424
3886.42,0.17672
3863.28,0.17640
3840.13,0.17598
3816.99,0.17451
3793.84,0.17311
3770.7,0.17077
3747.55,0.16534
3724.41,0.15303
3701.26,0.13143
3678.12,0.10946
3654.97,0.08506
3631.83,0.06883
3608.68,0.06058
3585.54,0.05853
3562.39,0.05537
3539.25,0.05363
3516.1,0.05192
3492.96,0.05089
3469.81,0.05090
3446.67,0.04917
3423.52,0.04916
3400.38,0.04865
3377.23,0.04917
3354.09,0.04876
3330.94,0.04957
3307.8,0.05028
3284.65,0.05069
3261.51,0.05190
3238.36,0.05348
3215.22,0.05504
3192.07,0.05708
3168.93,0.06002
3145.78,0.06165
3122.64,0.06260
3099.49,0.06448
3076.35,0.06584
3053.2,0.06672
3030.06,0.06712
3006.91,0.06657
2983.77,0.05858
2960.62,0.05945
2937.48,0.05959
2914.33,0.06043
2891.19,0.06071
2868.04,0.05803
2844.9,0.06649
2821.75,0.08023
2798.61,0.08508
2775.46,0.09007
2752.32,0.09323
2729.17,0.09532
2706.03,0.09726
2682.88,0.09811
2659.74,0.09686
2636.59,0.09053
2613.45,0.07831
2590.3,0.07214
2567.16,0.07000
2544.02,0.06545
2520.87,0.05220
2497.73,0.06068
2474.58,0.08323
2451.44,0.09661
2428.29,0.10202
2405.15,0.10458
2382,0.10474
2358.86,0.10407
2335.71,0.10340
2312.57,0.10121
2289.42,0.10074
2266.28,0.09838
2243.13,0.09529
2219.99,0.09319
2196.84,0.09218
2173.7,0.09034
2150.55,0.08430
2127.41,0.08529
2104.26,0.09000
2081.12,0.09043
2057.97,0.08915
2034.83,0.08615
2011.68,0.08345
1988.54,0.08114
1965.39,0.07861
1942.25,0.07826
1919.1,0.07574
1895.96,0.07111
1872.81,0.06675
1849.67,0.06482
1826.52,0.05721
1803.38,0.03944
1780.23,0.04543
1757.09,0.04625
1733.94,0.04232
1710.8,0.04112
1687.65,0.03538
1664.51,0.03354
1641.36,0.03339
1618.22,0.03601
1595.07,0.04239
1571.93,0.05858
1548.78,0.08149
1525.64,0.09176
1502.49,0.09089
1479.35,0.08958
1456.2,0.08904
1433.06,0.08988
1409.91,0.10303
1386.77,0.08754
1363.62,0.08298
1340.48,0.08525
1317.33,0.08332
1294.19,0.08739
1271.04,0.08544
1247.9,0.08293
1224.75,0.07841
1201.61,0.06937
1178.46,0.06177
1155.32,0.06039
1132.17,0.06022
1109.03,0.05582
1085.88,0.05057
1062.74,0.04914
1039.59,0.04690
1016.45,0.04637
993.304,0.04639
970.159,0.04571
947.014,0.04667
923.869,0.04586
900.724,0.04674
877.579,0.05155
854.434,0.04945
831.289,0.04465
808.144,0.04406
784.999,0.04220
761.854,0.04083
738.709,0.03850
715.565,0.03242
692.42,0.03952
669.275,0.03934
646.13,0.03407
622.985,0.03340
599.84,0.03592