File: 01_Data/Basswood_Panel/FTIR/IS/Basswood_Panel_IS_S_220928_R7.dpt
7497.03,0.83010
7473.89,0.83111
7450.74,0.82440
7427.6,0.81771
7404.45,0.79547
7381.31,0.79700
7358.16,0.79500
7335.02,0.76353
7311.87,0.77907
7288.73,0.76741
7265.58,0.76554
7242.44,0.75947
7219.29,0.75602
7196.15,0.75340
7173,0.74750
7149.86,0.73382
7126.71,0.72591
7103.57,0.71286
7080.42,0.69587
7057.28,0.67546
7034.13,0.65525
7010.99,0.63593
6987.84,0.62548
6964.7,0.62146
6941.55,0.61589
6918.41,0.61625
6895.26,0.62075
6872.12,0.61772
6848.97,0.61367
6825.83,0.61361
6802.68,0.61759
6779.54,0.61803
6756.39,0.61459
6733.25,0.61907
6710.1,0.62153
6686.96,0.61990
6663.82,0.62114
6640.67,0.62490
6617.53,0.62643
6594.38,0.63391
6571.24,0.64148
6548.09,0.64104
6524.95,0.64146
6501.8,0.64224
6478.66,0.64476
6455.51,0.64746
6432.37,0.64416
6409.22,0.65196
6386.08,0.64991
6362.93,0.65452
6339.79,0.65149
6316.64,0.65460
6293.5,0.65838
6270.35,0.66229
6247.21,0.67254
6224.06,0.67979
6200.92,0.68386
6177.77,0.68863
6154.63,0.69151
6131.48,0.69986
6108.34,0.70249
6085.19,0.69725
6062.05,0.69834
6038.9,0.69283
6015.76,0.68773
5992.61,0.68124
5969.47,0.67751
5946.32,0.67082
5923.18,0.67326
5900.03,0.66715
5876.89,0.66218
5853.74,0.65645
5830.6,0.64893
5807.45,0.64374
5784.31,0.64608
5761.16,0.65264
5738.02,0.65974
5714.87,0.65869
5691.73,0.65566
5668.58,0.65656
5645.44,0.65818
5622.29,0.65835
5599.15,0.65741
5576,0.66090
5552.86,0.66484
5529.71,0.66549
5506.57,0.66662
5483.42,0.66664
5460.28,0.67225
5437.13,0.67432
5413.99,0.67948
5390.84,0.68165
5367.7,0.68057
5344.55,0.67905
5321.41,0.67102
5298.26,0.65053
5275.12,0.61727
5251.97,0.57677
5228.83,0.55072
5205.68,0.54228
5182.54,0.54261
5159.39,0.55199
5136.25,0.56322
5113.1,0.57571
5089.96,0.58653
5066.81,0.59772
5043.67,0.60371
5020.52,0.61016
4997.38,0.61000
4974.23,0.60276
4951.09,0.58785
4927.94,0.56796
4904.8,0.54522
4881.65,0.52615
4858.51,0.50519
4835.36,0.48951
4812.22,0.47854
4789.07,0.47226
4765.93,0.46927
4742.78,0.46819
4719.64,0.47048
4696.49,0.47495
4673.35,0.48164
4650.2,0.49201
4627.06,0.50190
4603.92,0.51043
4580.77,0.51782
4557.63,0.52370
4534.48,0.52724
4511.34,0.52727
4488.19,0.51506
4465.05,0.48545
4441.9,0.44981
4418.76,0.42548
4395.61,0.41704
4372.47,0.42363
4349.32,0.42286
4326.18,0.41675
4303.03,0.41076
4279.89,0.40472
4256.74,0.40633
4233.6,0.41150
4210.45,0.41523
4187.31,0.41703
4164.16,0.42337
4141.02,0.41985
4117.87,0.40693
4094.73,0.38862
4071.58,0.36689
4048.44,0.34634
4025.29,0.33237
4002.15,0.33320
3979,0.34004
3955.86,0.35108
3932.71,0.36292
3909.57,0.37405
3886.42,0.38489
3863.28,0.39563
3840.13,0.40693
3816.99,0.41227
3793.84,0.41289
3770.7,0.40956
3747.55,0.40383
3724.41,0.38893
3701.26,0.35965
3678.12,0.29944
3654.97,0.22256
3631.83,0.16485
3608.68,0.12095
3585.54,0.08957
3562.39,0.06960
3539.25,0.05716
3516.1,0.04855
3492.96,0.04338
3469.81,0.04033
3446.67,0.03846
3423.52,0.03730
3400.38,0.03798
3377.23,0.03761
3354.09,0.03867
3330.94,0.04030
3307.8,0.04304
3284.65,0.04532
3261.51,0.05185
3238.36,0.05785
3215.22,0.06669
3192.07,0.07486
3168.93,0.08480
3145.78,0.09506
3122.64,0.10510
3099.49,0.11403
3076.35,0.12212
3053.2,0.12970
3030.06,0.13135
3006.91,0.11811
2983.77,0.10178
2960.62,0.07539
2937.48,0.06300
2914.33,0.06320
2891.19,0.06848
2868.04,0.07361
2844.9,0.08704
2821.75,0.11927
2798.61,0.14110
2775.46,0.15026
2752.32,0.15497
2729.17,0.15712
2706.03,0.16636
2682.88,0.17656
2659.74,0.18327
2636.59,0.19007
2613.45,0.19833
2590.3,0.20534
2567.16,0.20888
2544.02,0.21087
2520.87,0.21588
2497.73,0.22472
2474.58,0.23369
2451.44,0.24135
2428.29,0.25270
2405.15,0.26508
2382,0.27566
2358.86,0.28466
2335.71,0.29253
2312.57,0.29567
2289.42,0.29397
2266.28,0.28944
2243.13,0.28200
2219.99,0.28377
2196.84,0.28037
2173.7,0.26334
2150.55,0.24955
2127.41,0.24727
2104.26,0.25341
2081.12,0.25882
2057.97,0.25824
2034.83,0.26326
2011.68,0.27688
1988.54,0.28652
1965.39,0.28553
1942.25,0.28987
1919.1,0.30169
1895.96,0.30372
1872.81,0.29877
1849.67,0.28575
1826.52,0.26259
1803.38,0.22105
1780.23,0.15332
1757.09,0.06092
1733.94,0.05066
1710.8,0.07506
1687.65,0.10225
1664.51,0.08557
1641.36,0.08425
1618.22,0.08000
1595.07,0.06267
1571.93,0.11080
1548.78,0.12513
1525.64,0.09892
1502.49,0.05886
1479.35,0.06812
1456.2,0.04606
1433.06,0.04442
1409.91,0.05066
1386.77,0.04417
1363.62,0.04330
1340.48,0.04397
1317.33,0.04405
1294.19,0.04731
1271.04,0.03805
1247.9,0.03601
1224.75,0.04054
1201.61,0.04583
1178.46,0.03723
1155.32,0.03701
1132.17,0.03113
1109.03,0.03435
1085.88,0.03497
1062.74,0.04502
1039.59,0.05073
1016.45,0.05845
993.304,0.06508
970.159,0.08742
947.014,0.11393
923.869,0.11425
900.724,0.09693
877.579,0.11741
854.434,0.12530
831.289,0.11609
808.144,0.12104
784.999,0.11704
761.854,0.10337
738.709,0.08910
715.565,0.07698
692.42,0.07417
669.275,0.06349
646.13,0.06364
622.985,0.05737
599.84,0.06279