File: 01_Data/Basswood_Panel/FTIR/IS/Basswood_Panel_IS_S_220928_R8.dpt
7497.03,0.85897
7473.89,0.84176
7450.74,0.83138
7427.6,0.82345
7404.45,0.80149
7381.31,0.80399
7358.16,0.79695
7335.02,0.78429
7311.87,0.77941
7288.73,0.77374
7265.58,0.77567
7242.44,0.77782
7219.29,0.77429
7196.15,0.76802
7173,0.76071
7149.86,0.74719
7126.71,0.74021
7103.57,0.71527
7080.42,0.69740
7057.28,0.68334
7034.13,0.65956
7010.99,0.64866
6987.84,0.64178
6964.7,0.63047
6941.55,0.62640
6918.41,0.62349
6895.26,0.62070
6872.12,0.62468
6848.97,0.62196
6825.83,0.62398
6802.68,0.61469
6779.54,0.62081
6756.39,0.61646
6733.25,0.62491
6710.1,0.62436
6686.96,0.62083
6663.82,0.62985
6640.67,0.63089
6617.53,0.63756
6594.38,0.63997
6571.24,0.63731
6548.09,0.64689
6524.95,0.64866
6501.8,0.65155
6478.66,0.65105
6455.51,0.64971
6432.37,0.65555
6409.22,0.65417
6386.08,0.65860
6362.93,0.65834
6339.79,0.65949
6316.64,0.66137
6293.5,0.66767
6270.35,0.67301
6247.21,0.67820
6224.06,0.68523
6200.92,0.69014
6177.77,0.69304
6154.63,0.69698
6131.48,0.70187
6108.34,0.70589
6085.19,0.70953
6062.05,0.70323
6038.9,0.70054
6015.76,0.69383
5992.61,0.68818
5969.47,0.68255
5946.32,0.67750
5923.18,0.67658
5900.03,0.67320
5876.89,0.66662
5853.74,0.66035
5830.6,0.65401
5807.45,0.64978
5784.31,0.64882
5761.16,0.66264
5738.02,0.66526
5714.87,0.66595
5691.73,0.66187
5668.58,0.66264
5645.44,0.66449
5622.29,0.66570
5599.15,0.66432
5576,0.66785
5552.86,0.66974
5529.71,0.67231
5506.57,0.67147
5483.42,0.67454
5460.28,0.67660
5437.13,0.68275
5413.99,0.68598
5390.84,0.68782
5367.7,0.68885
5344.55,0.68561
5321.41,0.67899
5298.26,0.65785
5275.12,0.62395
5251.97,0.58428
5228.83,0.55876
5205.68,0.54923
5182.54,0.54987
5159.39,0.55940
5136.25,0.57129
5113.1,0.58156
5089.96,0.59254
5066.81,0.60225
5043.67,0.61171
5020.52,0.61540
4997.38,0.61557
4974.23,0.60977
4951.09,0.59349
4927.94,0.57402
4904.8,0.55019
4881.65,0.52799
4858.51,0.50995
4835.36,0.49430
4812.22,0.48273
4789.07,0.47575
4765.93,0.47284
4742.78,0.47113
4719.64,0.47378
4696.49,0.47869
4673.35,0.48478
4650.2,0.49607
4627.06,0.50562
4603.92,0.51564
4580.77,0.52302
4557.63,0.52780
4534.48,0.53250
4511.34,0.53084
4488.19,0.51818
4465.05,0.48846
4441.9,0.45294
4418.76,0.42845
4395.61,0.42066
4372.47,0.42750
4349.32,0.42631
4326.18,0.42077
4303.03,0.41287
4279.89,0.40685
4256.74,0.40927
4233.6,0.41454
4210.45,0.41824
4187.31,0.42122
4164.16,0.42682
4141.02,0.42278
4117.87,0.41030
4094.73,0.39191
4071.58,0.37034
4048.44,0.34791
4025.29,0.33492
4002.15,0.33649
3979,0.34244
3955.86,0.35370
3932.71,0.36580
3909.57,0.37751
3886.42,0.38828
3863.28,0.39909
3840.13,0.41107
3816.99,0.41607
3793.84,0.41624
3770.7,0.41342
3747.55,0.40692
3724.41,0.39332
3701.26,0.36310
3678.12,0.30458
3654.97,0.22695
3631.83,0.16840
3608.68,0.12345
3585.54,0.09038
3562.39,0.06978
3539.25,0.05682
3516.1,0.04873
3492.96,0.04294
3469.81,0.03945
3446.67,0.03801
3423.52,0.03793
3400.38,0.03784
3377.23,0.03808
3354.09,0.03795
3330.94,0.04022
3307.8,0.04334
3284.65,0.04581
3261.51,0.05131
3238.36,0.05987
3215.22,0.06685
3192.07,0.07570
3168.93,0.08567
3145.78,0.09597
3122.64,0.10561
3099.49,0.11467
3076.35,0.12308
3053.2,0.13022
3030.06,0.13188
3006.91,0.11946
2983.77,0.10215
2960.62,0.07539
2937.48,0.06336
2914.33,0.06320
2891.19,0.06860
2868.04,0.07418
2844.9,0.08659
2821.75,0.11998
2798.61,0.14155
2775.46,0.15101
2752.32,0.15598
2729.17,0.15835
2706.03,0.16738
2682.88,0.17780
2659.74,0.18447
2636.59,0.19138
2613.45,0.19986
2590.3,0.20620
2567.16,0.20974
2544.02,0.21251
2520.87,0.21718
2497.73,0.22617
2474.58,0.23502
2451.44,0.24253
2428.29,0.25350
2405.15,0.26640
2382,0.27702
2358.86,0.28633
2335.71,0.29437
2312.57,0.29780
2289.42,0.29560
2266.28,0.29135
2243.13,0.28360
2219.99,0.28567
2196.84,0.28203
2173.7,0.26518
2150.55,0.25125
2127.41,0.24949
2104.26,0.25519
2081.12,0.26074
2057.97,0.26007
2034.83,0.26498
2011.68,0.27859
1988.54,0.28857
1965.39,0.28766
1942.25,0.29232
1919.1,0.30367
1895.96,0.30596
1872.81,0.30065
1849.67,0.28792
1826.52,0.26395
1803.38,0.22300
1780.23,0.15379
1757.09,0.06064
1733.94,0.05061
1710.8,0.07561
1687.65,0.10287
1664.51,0.08574
1641.36,0.08527
1618.22,0.08003
1595.07,0.06299
1571.93,0.11108
1548.78,0.12537
1525.64,0.09935
1502.49,0.05915
1479.35,0.06814
1456.2,0.04622
1433.06,0.04470
1409.91,0.05096
1386.77,0.04430
1363.62,0.04302
1340.48,0.04388
1317.33,0.04402
1294.19,0.04702
1271.04,0.03827
1247.9,0.03595
1224.75,0.04025
1201.61,0.04568
1178.46,0.03735
1155.32,0.03710
1132.17,0.03068
1109.03,0.03474
1085.88,0.03473
1062.74,0.04432
1039.59,0.05150
1016.45,0.05890
993.304,0.06450
970.159,0.08723
947.014,0.11487
923.869,0.11429
900.724,0.09669
877.579,0.11793
854.434,0.12500
831.289,0.11797
808.144,0.12223
784.999,0.11835
761.854,0.10363
738.709,0.08860
715.565,0.07684
692.42,0.07304
669.275,0.06351
646.13,0.06385
622.985,0.05824
599.84,0.05953