File: 01_Data/Basswood_Panel/FTIR/IS/Basswood_Panel_IS_S_220928_R5.dpt
7497.03,0.83605
7473.89,0.82779
7450.74,0.81954
7427.6,0.80958
7404.45,0.80228
7381.31,0.79867
7358.16,0.79044
7335.02,0.78397
7311.87,0.77056
7288.73,0.76585
7265.58,0.75738
7242.44,0.77147
7219.29,0.75818
7196.15,0.75005
7173,0.75291
7149.86,0.74044
7126.71,0.71839
7103.57,0.70863
7080.42,0.69056
7057.28,0.66995
7034.13,0.65307
7010.99,0.63732
6987.84,0.63246
6964.7,0.62240
6941.55,0.61748
6918.41,0.61759
6895.26,0.61333
6872.12,0.61459
6848.97,0.61152
6825.83,0.61419
6802.68,0.61123
6779.54,0.61344
6756.39,0.61083
6733.25,0.61727
6710.1,0.61270
6686.96,0.61305
6663.82,0.62123
6640.67,0.62826
6617.53,0.63418
6594.38,0.62850
6571.24,0.63679
6548.09,0.64201
6524.95,0.63900
6501.8,0.64333
6478.66,0.64005
6455.51,0.64648
6432.37,0.64649
6409.22,0.64928
6386.08,0.65284
6362.93,0.64941
6339.79,0.65710
6316.64,0.65224
6293.5,0.65901
6270.35,0.65841
6247.21,0.67050
6224.06,0.67596
6200.92,0.67997
6177.77,0.68878
6154.63,0.69480
6131.48,0.69593
6108.34,0.69592
6085.19,0.69878
6062.05,0.69784
6038.9,0.69158
6015.76,0.68610
5992.61,0.68083
5969.47,0.67698
5946.32,0.67303
5923.18,0.67235
5900.03,0.66448
5876.89,0.65771
5853.74,0.65706
5830.6,0.65003
5807.45,0.64573
5784.31,0.64463
5761.16,0.65543
5738.02,0.65599
5714.87,0.65868
5691.73,0.65670
5668.58,0.65702
5645.44,0.65856
5622.29,0.65936
5599.15,0.65834
5576,0.66116
5552.86,0.66311
5529.71,0.66361
5506.57,0.66376
5483.42,0.67005
5460.28,0.66871
5437.13,0.67427
5413.99,0.67924
5390.84,0.68093
5367.7,0.68096
5344.55,0.67688
5321.41,0.66955
5298.26,0.64788
5275.12,0.61227
5251.97,0.57218
5228.83,0.54622
5205.68,0.53718
5182.54,0.53707
5159.39,0.54721
5136.25,0.56054
5113.1,0.57207
5089.96,0.57984
5066.81,0.59183
5043.67,0.60183
5020.52,0.60611
4997.38,0.60588
4974.23,0.60187
4951.09,0.58647
4927.94,0.56723
4904.8,0.54508
4881.65,0.52325
4858.51,0.50461
4835.36,0.49007
4812.22,0.47830
4789.07,0.47211
4765.93,0.46792
4742.78,0.46727
4719.64,0.47109
4696.49,0.47434
4673.35,0.48198
4650.2,0.49193
4627.06,0.50136
4603.92,0.51102
4580.77,0.51784
4557.63,0.52381
4534.48,0.52777
4511.34,0.52703
4488.19,0.51545
4465.05,0.48479
4441.9,0.45003
4418.76,0.42470
4395.61,0.41765
4372.47,0.42422
4349.32,0.42290
4326.18,0.41661
4303.03,0.41082
4279.89,0.40453
4256.74,0.40661
4233.6,0.41107
4210.45,0.41497
4187.31,0.41776
4164.16,0.42314
4141.02,0.41959
4117.87,0.40675
4094.73,0.38858
4071.58,0.36622
4048.44,0.34523
4025.29,0.33235
4002.15,0.33347
3979,0.33897
3955.86,0.35066
3932.71,0.36191
3909.57,0.37347
3886.42,0.38349
3863.28,0.39508
3840.13,0.40648
3816.99,0.41107
3793.84,0.41112
3770.7,0.40814
3747.55,0.40057
3724.41,0.38657
3701.26,0.35584
3678.12,0.29602
3654.97,0.21786
3631.83,0.16147
3608.68,0.11797
3585.54,0.08798
3562.39,0.06870
3539.25,0.05629
3516.1,0.04898
3492.96,0.04309
3469.81,0.03957
3446.67,0.03809
3423.52,0.03689
3400.38,0.03752
3377.23,0.03759
3354.09,0.03709
3330.94,0.04079
3307.8,0.04288
3284.65,0.04525
3261.51,0.05106
3238.36,0.05745
3215.22,0.06560
3192.07,0.07496
3168.93,0.08434
3145.78,0.09380
3122.64,0.10404
3099.49,0.11290
3076.35,0.12127
3053.2,0.12809
3030.06,0.13004
3006.91,0.11822
2983.77,0.10139
2960.62,0.07540
2937.48,0.06318
2914.33,0.06300
2891.19,0.06856
2868.04,0.07348
2844.9,0.08586
2821.75,0.11905
2798.61,0.14089
2775.46,0.14978
2752.32,0.15515
2729.17,0.15718
2706.03,0.16628
2682.88,0.17624
2659.74,0.18279
2636.59,0.18979
2613.45,0.19855
2590.3,0.20529
2567.16,0.20859
2544.02,0.21065
2520.87,0.21579
2497.73,0.22464
2474.58,0.23341
2451.44,0.24116
2428.29,0.25191
2405.15,0.26465
2382,0.27525
2358.86,0.28420
2335.71,0.29219
2312.57,0.29474
2289.42,0.29303
2266.28,0.28878
2243.13,0.28104
2219.99,0.28270
2196.84,0.27865
2173.7,0.26237
2150.55,0.24862
2127.41,0.24673
2104.26,0.25216
2081.12,0.25765
2057.97,0.25699
2034.83,0.26161
2011.68,0.27555
1988.54,0.28490
1965.39,0.28450
1942.25,0.28906
1919.1,0.30065
1895.96,0.30256
1872.81,0.29810
1849.67,0.28481
1826.52,0.26203
1803.38,0.22096
1780.23,0.15344
1757.09,0.06119
1733.94,0.05048
1710.8,0.07490
1687.65,0.10174
1664.51,0.08419
1641.36,0.08334
1618.22,0.07960
1595.07,0.06233
1571.93,0.11022
1548.78,0.12452
1525.64,0.09903
1502.49,0.05911
1479.35,0.06768
1456.2,0.04616
1433.06,0.04492
1409.91,0.05077
1386.77,0.04409
1363.62,0.04310
1340.48,0.04380
1317.33,0.04364
1294.19,0.04719
1271.04,0.03826
1247.9,0.03608
1224.75,0.04017
1201.61,0.04606
1178.46,0.03757
1155.32,0.03710
1132.17,0.03037
1109.03,0.03505
1085.88,0.03474
1062.74,0.04505
1039.59,0.05020
1016.45,0.05822
993.304,0.06483
970.159,0.08700
947.014,0.11434
923.869,0.11430
900.724,0.09649
877.579,0.11718
854.434,0.12416
831.289,0.11566
808.144,0.11986
784.999,0.11674
761.854,0.10263
738.709,0.08797
715.565,0.07589
692.42,0.07349
669.275,0.06295
646.13,0.06487
622.985,0.05581
599.84,0.06193