File: 01_Data/Basswood_Panel/FTIR/IS/Basswood_Panel_IS_S_220928_R1.dpt
7497.03,0.83735
7473.89,0.81168
7450.74,0.81630
7427.6,0.80826
7404.45,0.79760
7381.31,0.78696
7358.16,0.77394
7335.02,0.76904
7311.87,0.76389
7288.73,0.75583
7265.58,0.76293
7242.44,0.76596
7219.29,0.76307
7196.15,0.74539
7173,0.74456
7149.86,0.73159
7126.71,0.71911
7103.57,0.70491
7080.42,0.68413
7057.28,0.66577
7034.13,0.64635
7010.99,0.63417
6987.84,0.61686
6964.7,0.60952
6941.55,0.61182
6918.41,0.61471
6895.26,0.60342
6872.12,0.60545
6848.97,0.61357
6825.83,0.60457
6802.68,0.60781
6779.54,0.60327
6756.39,0.60585
6733.25,0.60293
6710.1,0.60759
6686.96,0.61119
6663.82,0.61093
6640.67,0.61889
6617.53,0.62284
6594.38,0.62490
6571.24,0.63008
6548.09,0.63241
6524.95,0.63637
6501.8,0.63782
6478.66,0.64135
6455.51,0.64094
6432.37,0.64197
6409.22,0.64327
6386.08,0.64155
6362.93,0.64899
6339.79,0.64980
6316.64,0.65055
6293.5,0.65466
6270.35,0.65772
6247.21,0.66277
6224.06,0.67235
6200.92,0.67718
6177.77,0.68426
6154.63,0.68584
6131.48,0.68955
6108.34,0.69534
6085.19,0.69296
6062.05,0.69075
6038.9,0.68874
6015.76,0.68615
5992.61,0.67676
5969.47,0.67385
5946.32,0.67030
5923.18,0.66511
5900.03,0.66285
5876.89,0.65820
5853.74,0.65300
5830.6,0.65059
5807.45,0.63885
5784.31,0.64488
5761.16,0.65076
5738.02,0.65433
5714.87,0.65535
5691.73,0.65200
5668.58,0.65253
5645.44,0.65393
5622.29,0.65545
5599.15,0.65553
5576,0.65684
5552.86,0.65746
5529.71,0.66074
5506.57,0.66083
5483.42,0.66320
5460.28,0.66634
5437.13,0.67142
5413.99,0.67472
5390.84,0.67634
5367.7,0.67546
5344.55,0.67050
5321.41,0.66115
5298.26,0.63441
5275.12,0.59098
5251.97,0.54565
5228.83,0.51697
5205.68,0.50429
5182.54,0.50670
5159.39,0.51478
5136.25,0.53050
5113.1,0.54384
5089.96,0.55538
5066.81,0.56757
5043.67,0.57809
5020.52,0.58600
4997.38,0.58993
4974.23,0.58712
4951.09,0.57758
4927.94,0.56065
4904.8,0.54063
4881.65,0.52136
4858.51,0.50244
4835.36,0.48710
4812.22,0.47644
4789.07,0.47075
4765.93,0.46658
4742.78,0.46559
4719.64,0.46760
4696.49,0.47179
4673.35,0.47777
4650.2,0.48842
4627.06,0.49854
4603.92,0.50747
4580.77,0.51483
4557.63,0.51923
4534.48,0.52359
4511.34,0.52306
4488.19,0.51133
4465.05,0.48236
4441.9,0.44804
4418.76,0.42338
4395.61,0.41649
4372.47,0.42315
4349.32,0.42170
4326.18,0.41548
4303.03,0.40940
4279.89,0.40287
4256.74,0.40356
4233.6,0.40935
4210.45,0.41243
4187.31,0.41464
4164.16,0.41841
4141.02,0.41476
4117.87,0.40162
4094.73,0.38408
4071.58,0.36225
4048.44,0.34194
4025.29,0.32831
4002.15,0.32969
3979,0.33523
3955.86,0.34509
3932.71,0.35640
3909.57,0.36785
3886.42,0.37738
3863.28,0.38831
3840.13,0.39842
3816.99,0.40171
3793.84,0.40057
3770.7,0.39507
3747.55,0.38710
3724.41,0.36854
3701.26,0.33461
3678.12,0.26847
3654.97,0.18830
3631.83,0.13647
3608.68,0.10194
3585.54,0.07900
3562.39,0.06329
3539.25,0.05345
3516.1,0.04654
3492.96,0.04196
3469.81,0.03896
3446.67,0.03676
3423.52,0.03695
3400.38,0.03658
3377.23,0.03723
3354.09,0.03756
3330.94,0.04010
3307.8,0.04211
3284.65,0.04387
3261.51,0.04922
3238.36,0.05592
3215.22,0.06207
3192.07,0.07030
3168.93,0.07844
3145.78,0.08782
3122.64,0.09683
3099.49,0.10523
3076.35,0.11321
3053.2,0.12107
3030.06,0.12336
3006.91,0.11375
2983.77,0.09947
2960.62,0.07507
2937.48,0.06263
2914.33,0.06294
2891.19,0.06822
2868.04,0.07343
2844.9,0.08563
2821.75,0.11723
2798.61,0.13735
2775.46,0.14687
2752.32,0.15158
2729.17,0.15442
2706.03,0.16273
2682.88,0.17318
2659.74,0.17990
2636.59,0.18686
2613.45,0.19533
2590.3,0.20220
2567.16,0.20553
2544.02,0.20780
2520.87,0.21255
2497.73,0.22145
2474.58,0.23059
2451.44,0.23836
2428.29,0.24912
2405.15,0.26131
2382,0.27079
2358.86,0.27907
2335.71,0.28636
2312.57,0.28857
2289.42,0.28645
2266.28,0.28128
2243.13,0.27348
2219.99,0.27374
2196.84,0.26949
2173.7,0.25329
2150.55,0.23996
2127.41,0.23745
2104.26,0.24320
2081.12,0.24796
2057.97,0.24748
2034.83,0.25229
2011.68,0.26563
1988.54,0.27504
1965.39,0.27549
1942.25,0.28035
1919.1,0.29188
1895.96,0.29419
1872.81,0.28967
1849.67,0.27734
1826.52,0.25591
1803.38,0.21746
1780.23,0.15448
1757.09,0.06236
1733.94,0.04977
1710.8,0.07296
1687.65,0.09725
1664.51,0.07836
1641.36,0.07636
1618.22,0.07506
1595.07,0.06166
1571.93,0.10806
1548.78,0.12097
1525.64,0.09732
1502.49,0.05927
1479.35,0.06742
1456.2,0.04611
1433.06,0.04440
1409.91,0.05091
1386.77,0.04393
1363.62,0.04338
1340.48,0.04400
1317.33,0.04386
1294.19,0.04721
1271.04,0.03848
1247.9,0.03598
1224.75,0.04062
1201.61,0.04581
1178.46,0.03747
1155.32,0.03680
1132.17,0.03105
1109.03,0.03456
1085.88,0.03464
1062.74,0.04438
1039.59,0.05114
1016.45,0.05868
993.304,0.06471
970.159,0.08650
947.014,0.11252
923.869,0.11186
900.724,0.09393
877.579,0.11359
854.434,0.11897
831.289,0.11024
808.144,0.11221
784.999,0.10750
761.854,0.09435
738.709,0.08149
715.565,0.07280
692.42,0.06935
669.275,0.06124
646.13,0.06039
622.985,0.05611
599.84,0.05866