File: 01_Data/Basswood_Panel/FTIR/IS/Basswood_Panel_IS_S_220928_R4.dpt
7497.03,0.84078
7473.89,0.83751
7450.74,0.81641
7427.6,0.80752
7404.45,0.80971
7381.31,0.78892
7358.16,0.79342
7335.02,0.78064
7311.87,0.77113
7288.73,0.77807
7265.58,0.76781
7242.44,0.77089
7219.29,0.77490
7196.15,0.75539
7173,0.74967
7149.86,0.73565
7126.71,0.72689
7103.57,0.70845
7080.42,0.69351
7057.28,0.66647
7034.13,0.65495
7010.99,0.63804
6987.84,0.63019
6964.7,0.62354
6941.55,0.62019
6918.41,0.61690
6895.26,0.62006
6872.12,0.61944
6848.97,0.61810
6825.83,0.61835
6802.68,0.61320
6779.54,0.61391
6756.39,0.61632
6733.25,0.61700
6710.1,0.62275
6686.96,0.62210
6663.82,0.62174
6640.67,0.62726
6617.53,0.63012
6594.38,0.64371
6571.24,0.64277
6548.09,0.64047
6524.95,0.64591
6501.8,0.64944
6478.66,0.64765
6455.51,0.64967
6432.37,0.65038
6409.22,0.65353
6386.08,0.65504
6362.93,0.65501
6339.79,0.65759
6316.64,0.65562
6293.5,0.66430
6270.35,0.66658
6247.21,0.67101
6224.06,0.67909
6200.92,0.68508
6177.77,0.68946
6154.63,0.69541
6131.48,0.69807
6108.34,0.70211
6085.19,0.70224
6062.05,0.70197
6038.9,0.69731
6015.76,0.69075
5992.61,0.68421
5969.47,0.67948
5946.32,0.67390
5923.18,0.67444
5900.03,0.67127
5876.89,0.66190
5853.74,0.66007
5830.6,0.65285
5807.45,0.64482
5784.31,0.64760
5761.16,0.65702
5738.02,0.66218
5714.87,0.65938
5691.73,0.65972
5668.58,0.65762
5645.44,0.66085
5622.29,0.66137
5599.15,0.66293
5576,0.66228
5552.86,0.66399
5529.71,0.66889
5506.57,0.66876
5483.42,0.67098
5460.28,0.67113
5437.13,0.67798
5413.99,0.68300
5390.84,0.68496
5367.7,0.68297
5344.55,0.68072
5321.41,0.67272
5298.26,0.64835
5275.12,0.61348
5251.97,0.57284
5228.83,0.54441
5205.68,0.53278
5182.54,0.53550
5159.39,0.54541
5136.25,0.55872
5113.1,0.56986
5089.96,0.58178
5066.81,0.59204
5043.67,0.60119
5020.52,0.60605
4997.38,0.60691
4974.23,0.60144
4951.09,0.58783
4927.94,0.56813
4904.8,0.54659
4881.65,0.52573
4858.51,0.50661
4835.36,0.49226
4812.22,0.48008
4789.07,0.47521
4765.93,0.47053
4742.78,0.47026
4719.64,0.47249
4696.49,0.47519
4673.35,0.48179
4650.2,0.49383
4627.06,0.50337
4603.92,0.51186
4580.77,0.51891
4557.63,0.52465
4534.48,0.52877
4511.34,0.52894
4488.19,0.51583
4465.05,0.48622
4441.9,0.45143
4418.76,0.42703
4395.61,0.41931
4372.47,0.42585
4349.32,0.42417
4326.18,0.41780
4303.03,0.41150
4279.89,0.40522
4256.74,0.40806
4233.6,0.41327
4210.45,0.41599
4187.31,0.41855
4164.16,0.42368
4141.02,0.42000
4117.87,0.40740
4094.73,0.38849
4071.58,0.36813
4048.44,0.34693
4025.29,0.33325
4002.15,0.33388
3979,0.33962
3955.86,0.35094
3932.71,0.36341
3909.57,0.37424
3886.42,0.38474
3863.28,0.39540
3840.13,0.40635
3816.99,0.41109
3793.84,0.41084
3770.7,0.40771
3747.55,0.40091
3724.41,0.38552
3701.26,0.35429
3678.12,0.29318
3654.97,0.21469
3631.83,0.15790
3608.68,0.11605
3585.54,0.08707
3562.39,0.06843
3539.25,0.05580
3516.1,0.04867
3492.96,0.04324
3469.81,0.03958
3446.67,0.03829
3423.52,0.03745
3400.38,0.03775
3377.23,0.03657
3354.09,0.03818
3330.94,0.04048
3307.8,0.04246
3284.65,0.04489
3261.51,0.05051
3238.36,0.05740
3215.22,0.06578
3192.07,0.07360
3168.93,0.08407
3145.78,0.09400
3122.64,0.10296
3099.49,0.11268
3076.35,0.12014
3053.2,0.12804
3030.06,0.12915
3006.91,0.11760
2983.77,0.10141
2960.62,0.07537
2937.48,0.06341
2914.33,0.06317
2891.19,0.06784
2868.04,0.07342
2844.9,0.08640
2821.75,0.11927
2798.61,0.14026
2775.46,0.14951
2752.32,0.15459
2729.17,0.15689
2706.03,0.16572
2682.88,0.17625
2659.74,0.18254
2636.59,0.18985
2613.45,0.19830
2590.3,0.20505
2567.16,0.20851
2544.02,0.21045
2520.87,0.21600
2497.73,0.22447
2474.58,0.23353
2451.44,0.24116
2428.29,0.25182
2405.15,0.26465
2382,0.27541
2358.86,0.28345
2335.71,0.29166
2312.57,0.29488
2289.42,0.29263
2266.28,0.28798
2243.13,0.28058
2219.99,0.28218
2196.84,0.27832
2173.7,0.26145
2150.55,0.24778
2127.41,0.24584
2104.26,0.25144
2081.12,0.25693
2057.97,0.25599
2034.83,0.26089
2011.68,0.27465
1988.54,0.28442
1965.39,0.28376
1942.25,0.28848
1919.1,0.30016
1895.96,0.30228
1872.81,0.29715
1849.67,0.28476
1826.52,0.26183
1803.38,0.22105
1780.23,0.15393
1757.09,0.06183
1733.94,0.05055
1710.8,0.07462
1687.65,0.10142
1664.51,0.08356
1641.36,0.08288
1618.22,0.07889
1595.07,0.06198
1571.93,0.11044
1548.78,0.12449
1525.64,0.09913
1502.49,0.05920
1479.35,0.06785
1456.2,0.04634
1433.06,0.04465
1409.91,0.05063
1386.77,0.04392
1363.62,0.04317
1340.48,0.04368
1317.33,0.04419
1294.19,0.04736
1271.04,0.03815
1247.9,0.03567
1224.75,0.04022
1201.61,0.04545
1178.46,0.03709
1155.32,0.03686
1132.17,0.03063
1109.03,0.03474
1085.88,0.03525
1062.74,0.04503
1039.59,0.05056
1016.45,0.05791
993.304,0.06495
970.159,0.08706
947.014,0.11421
923.869,0.11358
900.724,0.09586
877.579,0.11671
854.434,0.12334
831.289,0.11463
808.144,0.11890
784.999,0.11643
761.854,0.10146
738.709,0.08707
715.565,0.07534
692.42,0.07234
669.275,0.06318
646.13,0.06295
622.985,0.05485
599.84,0.06108