File: 01_Data/Basswood_Panel/FTIR/IS/Basswood_Panel_IS_S_220928_R2.dpt
7497.03,0.84858
7473.89,0.82582
7450.74,0.83337
7427.6,0.81754
7404.45,0.80206
7381.31,0.79777
7358.16,0.78504
7335.02,0.78751
7311.87,0.77715
7288.73,0.77734
7265.58,0.77246
7242.44,0.76807
7219.29,0.76990
7196.15,0.75584
7173,0.74686
7149.86,0.73831
7126.71,0.72884
7103.57,0.70686
7080.42,0.69239
7057.28,0.66457
7034.13,0.65388
7010.99,0.63852
6987.84,0.63215
6964.7,0.62607
6941.55,0.61787
6918.41,0.61819
6895.26,0.61730
6872.12,0.62230
6848.97,0.61390
6825.83,0.61099
6802.68,0.61590
6779.54,0.61328
6756.39,0.61345
6733.25,0.61353
6710.1,0.62095
6686.96,0.61840
6663.82,0.62051
6640.67,0.62406
6617.53,0.63194
6594.38,0.63705
6571.24,0.64303
6548.09,0.64050
6524.95,0.64183
6501.8,0.63944
6478.66,0.64498
6455.51,0.64642
6432.37,0.64686
6409.22,0.65118
6386.08,0.64728
6362.93,0.65359
6339.79,0.65399
6316.64,0.65672
6293.5,0.65688
6270.35,0.66404
6247.21,0.67026
6224.06,0.67704
6200.92,0.68204
6177.77,0.68744
6154.63,0.69345
6131.48,0.69650
6108.34,0.70015
6085.19,0.70307
6062.05,0.69820
6038.9,0.69577
6015.76,0.68981
5992.61,0.68446
5969.47,0.68036
5946.32,0.67404
5923.18,0.67385
5900.03,0.66800
5876.89,0.66107
5853.74,0.65737
5830.6,0.65295
5807.45,0.64693
5784.31,0.64918
5761.16,0.65641
5738.02,0.65933
5714.87,0.66121
5691.73,0.65779
5668.58,0.65680
5645.44,0.65776
5622.29,0.66206
5599.15,0.65865
5576,0.65985
5552.86,0.66530
5529.71,0.66603
5506.57,0.66863
5483.42,0.66904
5460.28,0.67005
5437.13,0.67613
5413.99,0.67977
5390.84,0.68124
5367.7,0.68043
5344.55,0.67771
5321.41,0.66438
5298.26,0.64280
5275.12,0.60241
5251.97,0.55859
5228.83,0.53104
5205.68,0.51983
5182.54,0.52118
5159.39,0.52969
5136.25,0.54393
5113.1,0.55807
5089.96,0.56916
5066.81,0.57909
5043.67,0.58913
5020.52,0.59669
4997.38,0.59963
4974.23,0.59524
4951.09,0.58442
4927.94,0.56551
4904.8,0.54535
4881.65,0.52437
4858.51,0.50686
4835.36,0.49087
4812.22,0.47925
4789.07,0.47376
4765.93,0.46932
4742.78,0.46799
4719.64,0.47143
4696.49,0.47431
4673.35,0.48106
4650.2,0.49231
4627.06,0.50108
4603.92,0.51083
4580.77,0.51795
4557.63,0.52315
4534.48,0.52710
4511.34,0.52711
4488.19,0.51471
4465.05,0.48482
4441.9,0.45115
4418.76,0.42651
4395.61,0.41819
4372.47,0.42435
4349.32,0.42405
4326.18,0.41734
4303.03,0.41140
4279.89,0.40444
4256.74,0.40655
4233.6,0.41142
4210.45,0.41470
4187.31,0.41702
4164.16,0.42225
4141.02,0.41768
4117.87,0.40520
4094.73,0.38692
4071.58,0.36558
4048.44,0.34522
4025.29,0.33156
4002.15,0.33209
3979,0.33849
3955.86,0.34828
3932.71,0.36059
3909.57,0.37165
3886.42,0.38141
3863.28,0.39177
3840.13,0.40300
3816.99,0.40656
3793.84,0.40610
3770.7,0.40163
3747.55,0.39324
3724.41,0.37706
3701.26,0.34416
3678.12,0.28076
3654.97,0.20191
3631.83,0.14619
3608.68,0.10952
3585.54,0.08299
3562.39,0.06589
3539.25,0.05489
3516.1,0.04751
3492.96,0.04297
3469.81,0.03987
3446.67,0.03738
3423.52,0.03763
3400.38,0.03697
3377.23,0.03741
3354.09,0.03724
3330.94,0.03895
3307.8,0.04283
3284.65,0.04547
3261.51,0.05014
3238.36,0.05707
3215.22,0.06400
3192.07,0.07264
3168.93,0.08121
3145.78,0.09102
3122.64,0.09973
3099.49,0.10953
3076.35,0.11692
3053.2,0.12434
3030.06,0.12625
3006.91,0.11594
2983.77,0.10041
2960.62,0.07470
2937.48,0.06309
2914.33,0.06276
2891.19,0.06857
2868.04,0.07315
2844.9,0.08636
2821.75,0.11861
2798.61,0.13904
2775.46,0.14850
2752.32,0.15321
2729.17,0.15580
2706.03,0.16508
2682.88,0.17448
2659.74,0.18204
2636.59,0.18892
2613.45,0.19690
2590.3,0.20372
2567.16,0.20730
2544.02,0.20955
2520.87,0.21438
2497.73,0.22279
2474.58,0.23191
2451.44,0.23995
2428.29,0.25072
2405.15,0.26309
2382,0.27326
2358.86,0.28165
2335.71,0.28920
2312.57,0.29207
2289.42,0.28950
2266.28,0.28484
2243.13,0.27719
2219.99,0.27836
2196.84,0.27435
2173.7,0.25766
2150.55,0.24460
2127.41,0.24209
2104.26,0.24745
2081.12,0.25258
2057.97,0.25222
2034.83,0.25676
2011.68,0.27049
1988.54,0.27957
1965.39,0.27996
1942.25,0.28424
1919.1,0.29614
1895.96,0.29865
1872.81,0.29367
1849.67,0.28112
1826.52,0.25888
1803.38,0.21933
1780.23,0.15398
1757.09,0.06174
1733.94,0.04985
1710.8,0.07395
1687.65,0.09920
1664.51,0.08172
1641.36,0.07950
1618.22,0.07691
1595.07,0.06190
1571.93,0.10915
1548.78,0.12287
1525.64,0.09785
1502.49,0.05913
1479.35,0.06772
1456.2,0.04590
1433.06,0.04449
1409.91,0.05107
1386.77,0.04434
1363.62,0.04320
1340.48,0.04355
1317.33,0.04391
1294.19,0.04678
1271.04,0.03828
1247.9,0.03595
1224.75,0.04033
1201.61,0.04592
1178.46,0.03730
1155.32,0.03708
1132.17,0.03073
1109.03,0.03494
1085.88,0.03490
1062.74,0.04493
1039.59,0.05127
1016.45,0.05824
993.304,0.06461
970.159,0.08700
947.014,0.11351
923.869,0.11302
900.724,0.09494
877.579,0.11568
854.434,0.12194
831.289,0.11215
808.144,0.11536
784.999,0.11202
761.854,0.09855
738.709,0.08498
715.565,0.07376
692.42,0.07196
669.275,0.06227
646.13,0.06131
622.985,0.05454
599.84,0.05862