File: 01_Data/Basswood_Panel/FTIR/IS/Basswood_Panel_IS_S_220928_R3.dpt
7497.03,0.84367
7473.89,0.83922
7450.74,0.81626
7427.6,0.80676
7404.45,0.80725
7381.31,0.80085
7358.16,0.79811
7335.02,0.78007
7311.87,0.77125
7288.73,0.76616
7265.58,0.77400
7242.44,0.76786
7219.29,0.76635
7196.15,0.75754
7173,0.75249
7149.86,0.73983
7126.71,0.72502
7103.57,0.70683
7080.42,0.68854
7057.28,0.67089
7034.13,0.66031
7010.99,0.64138
6987.84,0.63087
6964.7,0.62580
6941.55,0.61718
6918.41,0.61674
6895.26,0.61764
6872.12,0.62036
6848.97,0.61775
6825.83,0.61522
6802.68,0.61511
6779.54,0.61582
6756.39,0.61904
6733.25,0.61436
6710.1,0.61270
6686.96,0.61967
6663.82,0.62244
6640.67,0.63032
6617.53,0.62953
6594.38,0.63522
6571.24,0.63414
6548.09,0.64180
6524.95,0.64170
6501.8,0.64429
6478.66,0.64838
6455.51,0.64965
6432.37,0.64671
6409.22,0.65192
6386.08,0.64953
6362.93,0.65221
6339.79,0.65315
6316.64,0.65503
6293.5,0.65604
6270.35,0.66315
6247.21,0.67265
6224.06,0.67856
6200.92,0.68547
6177.77,0.68917
6154.63,0.69492
6131.48,0.69842
6108.34,0.69887
6085.19,0.70009
6062.05,0.69970
6038.9,0.69654
6015.76,0.68868
5992.61,0.68408
5969.47,0.67998
5946.32,0.67422
5923.18,0.67232
5900.03,0.66895
5876.89,0.65859
5853.74,0.65713
5830.6,0.65318
5807.45,0.64220
5784.31,0.64711
5761.16,0.65514
5738.02,0.65831
5714.87,0.66095
5691.73,0.65879
5668.58,0.65609
5645.44,0.65808
5622.29,0.66025
5599.15,0.66132
5576,0.65899
5552.86,0.66363
5529.71,0.66347
5506.57,0.66573
5483.42,0.66793
5460.28,0.67130
5437.13,0.67568
5413.99,0.68069
5390.84,0.68054
5367.7,0.68038
5344.55,0.67735
5321.41,0.66651
5298.26,0.64604
5275.12,0.60610
5251.97,0.56344
5228.83,0.53548
5205.68,0.52636
5182.54,0.52752
5159.39,0.53787
5136.25,0.54881
5113.1,0.56253
5089.96,0.57428
5066.81,0.58445
5043.67,0.59272
5020.52,0.60039
4997.38,0.60255
4974.23,0.59886
4951.09,0.58487
4927.94,0.56530
4904.8,0.54416
4881.65,0.52433
4858.51,0.50622
4835.36,0.49143
4812.22,0.47906
4789.07,0.47190
4765.93,0.46928
4742.78,0.46773
4719.64,0.47052
4696.49,0.47382
4673.35,0.48158
4650.2,0.49156
4627.06,0.50095
4603.92,0.51046
4580.77,0.51795
4557.63,0.52331
4534.48,0.52644
4511.34,0.52692
4488.19,0.51362
4465.05,0.48574
4441.9,0.44992
4418.76,0.42459
4395.61,0.41699
4372.47,0.42380
4349.32,0.42337
4326.18,0.41662
4303.03,0.41027
4279.89,0.40368
4256.74,0.40604
4233.6,0.41125
4210.45,0.41403
4187.31,0.41733
4164.16,0.42249
4141.02,0.41827
4117.87,0.40559
4094.73,0.38717
4071.58,0.36544
4048.44,0.34476
4025.29,0.33096
4002.15,0.33263
3979,0.33857
3955.86,0.34901
3932.71,0.36096
3909.57,0.37232
3886.42,0.38205
3863.28,0.39306
3840.13,0.40470
3816.99,0.40807
3793.84,0.40782
3770.7,0.40419
3747.55,0.39537
3724.41,0.38054
3701.26,0.34925
3678.12,0.28583
3654.97,0.20712
3631.83,0.15261
3608.68,0.11302
3585.54,0.08558
3562.39,0.06745
3539.25,0.05586
3516.1,0.04768
3492.96,0.04289
3469.81,0.03991
3446.67,0.03811
3423.52,0.03762
3400.38,0.03703
3377.23,0.03720
3354.09,0.03800
3330.94,0.03908
3307.8,0.04265
3284.65,0.04509
3261.51,0.05086
3238.36,0.05740
3215.22,0.06430
3192.07,0.07385
3168.93,0.08190
3145.78,0.09205
3122.64,0.10145
3099.49,0.11108
3076.35,0.11871
3053.2,0.12635
3030.06,0.12843
3006.91,0.11646
2983.77,0.10062
2960.62,0.07527
2937.48,0.06313
2914.33,0.06325
2891.19,0.06809
2868.04,0.07367
2844.9,0.08581
2821.75,0.11853
2798.61,0.13910
2775.46,0.14916
2752.32,0.15358
2729.17,0.15595
2706.03,0.16506
2682.88,0.17477
2659.74,0.18176
2636.59,0.18904
2613.45,0.19752
2590.3,0.20422
2567.16,0.20773
2544.02,0.20961
2520.87,0.21496
2497.73,0.22336
2474.58,0.23246
2451.44,0.23996
2428.29,0.25055
2405.15,0.26362
2382,0.27383
2358.86,0.28211
2335.71,0.29006
2312.57,0.29295
2289.42,0.29060
2266.28,0.28607
2243.13,0.27868
2219.99,0.27949
2196.84,0.27588
2173.7,0.25898
2150.55,0.24557
2127.41,0.24322
2104.26,0.24903
2081.12,0.25389
2057.97,0.25382
2034.83,0.25853
2011.68,0.27222
1988.54,0.28176
1965.39,0.28131
1942.25,0.28604
1919.1,0.29774
1895.96,0.29970
1872.81,0.29502
1849.67,0.28216
1826.52,0.25975
1803.38,0.21962
1780.23,0.15373
1757.09,0.06153
1733.94,0.05050
1710.8,0.07409
1687.65,0.10037
1664.51,0.08277
1641.36,0.08081
1618.22,0.07818
1595.07,0.06215
1571.93,0.10994
1548.78,0.12357
1525.64,0.09803
1502.49,0.05902
1479.35,0.06740
1456.2,0.04629
1433.06,0.04444
1409.91,0.05059
1386.77,0.04398
1363.62,0.04291
1340.48,0.04371
1317.33,0.04394
1294.19,0.04707
1271.04,0.03839
1247.9,0.03612
1224.75,0.04055
1201.61,0.04600
1178.46,0.03774
1155.32,0.03714
1132.17,0.03083
1109.03,0.03466
1085.88,0.03472
1062.74,0.04442
1039.59,0.05053
1016.45,0.05757
993.304,0.06523
970.159,0.08730
947.014,0.11404
923.869,0.11347
900.724,0.09578
877.579,0.11663
854.434,0.12228
831.289,0.11344
808.144,0.11698
784.999,0.11423
761.854,0.09968
738.709,0.08622
715.565,0.07447
692.42,0.07241
669.275,0.06277
646.13,0.06267
622.985,0.05690
599.84,0.06104