File: 01_Data/Basswood_Panel/FTIR/IS/Basswood_Panel_IS_S_220928_R6.dpt
7497.03,0.84603
7473.89,0.83778
7450.74,0.82625
7427.6,0.82022
7404.45,0.81025
7381.31,0.79593
7358.16,0.79616
7335.02,0.79243
7311.87,0.78144
7288.73,0.76883
7265.58,0.78023
7242.44,0.76551
7219.29,0.76870
7196.15,0.76465
7173,0.75776
7149.86,0.74054
7126.71,0.73790
7103.57,0.71163
7080.42,0.69735
7057.28,0.67588
7034.13,0.65904
7010.99,0.64485
6987.84,0.62692
6964.7,0.62950
6941.55,0.61828
6918.41,0.61915
6895.26,0.62193
6872.12,0.62173
6848.97,0.61543
6825.83,0.61757
6802.68,0.61804
6779.54,0.61556
6756.39,0.61303
6733.25,0.61709
6710.1,0.61692
6686.96,0.62435
6663.82,0.62667
6640.67,0.63197
6617.53,0.63005
6594.38,0.63735
6571.24,0.64276
6548.09,0.64718
6524.95,0.64663
6501.8,0.64812
6478.66,0.64666
6455.51,0.65323
6432.37,0.65434
6409.22,0.65533
6386.08,0.65559
6362.93,0.65550
6339.79,0.65978
6316.64,0.66147
6293.5,0.66273
6270.35,0.66677
6247.21,0.67185
6224.06,0.68099
6200.92,0.68849
6177.77,0.69084
6154.63,0.69595
6131.48,0.70282
6108.34,0.70215
6085.19,0.70237
6062.05,0.69914
6038.9,0.69805
6015.76,0.69234
5992.61,0.68523
5969.47,0.67984
5946.32,0.67610
5923.18,0.67388
5900.03,0.67082
5876.89,0.66517
5853.74,0.66034
5830.6,0.65433
5807.45,0.64700
5784.31,0.64859
5761.16,0.66056
5738.02,0.66178
5714.87,0.66308
5691.73,0.66122
5668.58,0.66060
5645.44,0.65956
5622.29,0.66331
5599.15,0.66444
5576,0.66608
5552.86,0.66673
5529.71,0.66875
5506.57,0.67032
5483.42,0.67151
5460.28,0.67338
5437.13,0.67691
5413.99,0.68415
5390.84,0.68651
5367.7,0.68460
5344.55,0.68290
5321.41,0.67549
5298.26,0.65297
5275.12,0.61838
5251.97,0.57913
5228.83,0.55343
5205.68,0.54178
5182.54,0.54348
5159.39,0.55129
5136.25,0.56615
5113.1,0.57633
5089.96,0.58715
5066.81,0.59682
5043.67,0.60399
5020.52,0.61125
4997.38,0.61096
4974.23,0.60521
4951.09,0.59101
4927.94,0.56980
4904.8,0.54732
4881.65,0.52500
4858.51,0.50820
4835.36,0.49297
4812.22,0.48165
4789.07,0.47482
4765.93,0.47121
4742.78,0.47048
4719.64,0.47320
4696.49,0.47702
4673.35,0.48363
4650.2,0.49451
4627.06,0.50377
4603.92,0.51332
4580.77,0.51997
4557.63,0.52574
4534.48,0.53007
4511.34,0.52918
4488.19,0.51732
4465.05,0.48793
4441.9,0.45225
4418.76,0.42766
4395.61,0.41946
4372.47,0.42648
4349.32,0.42469
4326.18,0.41905
4303.03,0.41204
4279.89,0.40574
4256.74,0.40775
4233.6,0.41372
4210.45,0.41642
4187.31,0.41908
4164.16,0.42509
4141.02,0.42103
4117.87,0.40836
4094.73,0.39069
4071.58,0.36836
4048.44,0.34731
4025.29,0.33375
4002.15,0.33456
3979,0.34096
3955.86,0.35132
3932.71,0.36468
3909.57,0.37555
3886.42,0.38592
3863.28,0.39655
3840.13,0.40902
3816.99,0.41297
3793.84,0.41360
3770.7,0.41052
3747.55,0.40319
3724.41,0.38881
3701.26,0.35859
3678.12,0.29877
3654.97,0.22086
3631.83,0.16376
3608.68,0.11983
3585.54,0.08958
3562.39,0.06930
3539.25,0.05679
3516.1,0.04900
3492.96,0.04284
3469.81,0.04017
3446.67,0.03716
3423.52,0.03728
3400.38,0.03797
3377.23,0.03828
3354.09,0.03816
3330.94,0.04035
3307.8,0.04344
3284.65,0.04582
3261.51,0.05096
3238.36,0.05870
3215.22,0.06674
3192.07,0.07446
3168.93,0.08463
3145.78,0.09470
3122.64,0.10445
3099.49,0.11353
3076.35,0.12152
3053.2,0.12925
3030.06,0.13106
3006.91,0.11831
2983.77,0.10146
2960.62,0.07532
2937.48,0.06279
2914.33,0.06280
2891.19,0.06827
2868.04,0.07390
2844.9,0.08639
2821.75,0.11974
2798.61,0.14084
2775.46,0.15032
2752.32,0.15509
2729.17,0.15748
2706.03,0.16638
2682.88,0.17661
2659.74,0.18344
2636.59,0.19031
2613.45,0.19926
2590.3,0.20571
2567.16,0.20913
2544.02,0.21169
2520.87,0.21648
2497.73,0.22500
2474.58,0.23439
2451.44,0.24224
2428.29,0.25228
2405.15,0.26545
2382,0.27594
2358.86,0.28540
2335.71,0.29248
2312.57,0.29593
2289.42,0.29431
2266.28,0.28973
2243.13,0.28237
2219.99,0.28365
2196.84,0.28008
2173.7,0.26352
2150.55,0.24994
2127.41,0.24772
2104.26,0.25336
2081.12,0.25925
2057.97,0.25801
2034.83,0.26319
2011.68,0.27696
1988.54,0.28653
1965.39,0.28560
1942.25,0.29028
1919.1,0.30192
1895.96,0.30395
1872.81,0.29931
1849.67,0.28619
1826.52,0.26272
1803.38,0.22147
1780.23,0.15340
1757.09,0.06137
1733.94,0.05065
1710.8,0.07491
1687.65,0.10255
1664.51,0.08531
1641.36,0.08437
1618.22,0.07976
1595.07,0.06241
1571.93,0.11073
1548.78,0.12516
1525.64,0.09881
1502.49,0.05905
1479.35,0.06784
1456.2,0.04619
1433.06,0.04449
1409.91,0.05083
1386.77,0.04394
1363.62,0.04307
1340.48,0.04374
1317.33,0.04415
1294.19,0.04743
1271.04,0.03852
1247.9,0.03617
1224.75,0.04052
1201.61,0.04539
1178.46,0.03731
1155.32,0.03691
1132.17,0.03064
1109.03,0.03493
1085.88,0.03450
1062.74,0.04532
1039.59,0.05072
1016.45,0.05872
993.304,0.06464
970.159,0.08770
947.014,0.11476
923.869,0.11414
900.724,0.09684
877.579,0.11730
854.434,0.12435
831.289,0.11612
808.144,0.11993
784.999,0.11746
761.854,0.10255
738.709,0.08871
715.565,0.07611
692.42,0.07289
669.275,0.06290
646.13,0.06300
622.985,0.05787
599.84,0.05964