File: 01_Data/Exterior_Plywood/FTIR/IS/Exterior_Plywood_IS_S_220927_R7.dpt
7497.03,0.79724
7473.89,0.80144
7450.74,0.78591
7427.6,0.77185
7404.45,0.76164
7381.31,0.75336
7358.16,0.74804
7335.02,0.74033
7311.87,0.73715
7288.73,0.72768
7265.58,0.73400
7242.44,0.73171
7219.29,0.73102
7196.15,0.72342
7173,0.71332
7149.86,0.69270
7126.71,0.68094
7103.57,0.67530
7080.42,0.65278
7057.28,0.62979
7034.13,0.61096
7010.99,0.59154
6987.84,0.58796
6964.7,0.58089
6941.55,0.57608
6918.41,0.57570
6895.26,0.57479
6872.12,0.56985
6848.97,0.57744
6825.83,0.57077
6802.68,0.57110
6779.54,0.57046
6756.39,0.57004
6733.25,0.56827
6710.1,0.57453
6686.96,0.57207
6663.82,0.57501
6640.67,0.57870
6617.53,0.58443
6594.38,0.58694
6571.24,0.59105
6548.09,0.59179
6524.95,0.59621
6501.8,0.59862
6478.66,0.59495
6455.51,0.59405
6432.37,0.60082
6409.22,0.59781
6386.08,0.60379
6362.93,0.60641
6339.79,0.60654
6316.64,0.60826
6293.5,0.61248
6270.35,0.61455
6247.21,0.62712
6224.06,0.62799
6200.92,0.63920
6177.77,0.64655
6154.63,0.64750
6131.48,0.65207
6108.34,0.65830
6085.19,0.66455
6062.05,0.66309
6038.9,0.66031
6015.76,0.65537
5992.61,0.65052
5969.47,0.64593
5946.32,0.64841
5923.18,0.64795
5900.03,0.64492
5876.89,0.63690
5853.74,0.63951
5830.6,0.63858
5807.45,0.63449
5784.31,0.63400
5761.16,0.63562
5738.02,0.63618
5714.87,0.63408
5691.73,0.63276
5668.58,0.63282
5645.44,0.63308
5622.29,0.63120
5599.15,0.63064
5576,0.63323
5552.86,0.63402
5529.71,0.63298
5506.57,0.63620
5483.42,0.64075
5460.28,0.63903
5437.13,0.64380
5413.99,0.64827
5390.84,0.65104
5367.7,0.65238
5344.55,0.64872
5321.41,0.63915
5298.26,0.61841
5275.12,0.58289
5251.97,0.54317
5228.83,0.51368
5205.68,0.50017
5182.54,0.49780
5159.39,0.50547
5136.25,0.51669
5113.1,0.53013
5089.96,0.54083
5066.81,0.54984
5043.67,0.55979
5020.52,0.56633
4997.38,0.56768
4974.23,0.56352
4951.09,0.54939
4927.94,0.53127
4904.8,0.51034
4881.65,0.48912
4858.51,0.47213
4835.36,0.45602
4812.22,0.44425
4789.07,0.43843
4765.93,0.43452
4742.78,0.43469
4719.64,0.43761
4696.49,0.44272
4673.35,0.44883
4650.2,0.45780
4627.06,0.46776
4603.92,0.48026
4580.77,0.48959
4557.63,0.49619
4534.48,0.50195
4511.34,0.50376
4488.19,0.49765
4465.05,0.47817
4441.9,0.45045
4418.76,0.42184
4395.61,0.40652
4372.47,0.41390
4349.32,0.41750
4326.18,0.41167
4303.03,0.40101
4279.89,0.39473
4256.74,0.39789
4233.6,0.40045
4210.45,0.40075
4187.31,0.40291
4164.16,0.40838
4141.02,0.40354
4117.87,0.38906
4094.73,0.36779
4071.58,0.34425
4048.44,0.32114
4025.29,0.30706
4002.15,0.30670
3979,0.31352
3955.86,0.32214
3932.71,0.33369
3909.57,0.34523
3886.42,0.35440
3863.28,0.36262
3840.13,0.37295
3816.99,0.37624
3793.84,0.37495
3770.7,0.37101
3747.55,0.36402
3724.41,0.34785
3701.26,0.31764
3678.12,0.25805
3654.97,0.18102
3631.83,0.12671
3608.68,0.09189
3585.54,0.06907
3562.39,0.05571
3539.25,0.04826
3516.1,0.04318
3492.96,0.04090
3469.81,0.03914
3446.67,0.03803
3423.52,0.03885
3400.38,0.03840
3377.23,0.03883
3354.09,0.04006
3330.94,0.04206
3307.8,0.04387
3284.65,0.04543
3261.51,0.04879
3238.36,0.05228
3215.22,0.05548
3192.07,0.06153
3168.93,0.06792
3145.78,0.07404
3122.64,0.08242
3099.49,0.08996
3076.35,0.09675
3053.2,0.10472
3030.06,0.10978
3006.91,0.10613
2983.77,0.09311
2960.62,0.07063
2937.48,0.06068
2914.33,0.05935
2891.19,0.06137
2868.04,0.06584
2844.9,0.07724
2821.75,0.09954
2798.61,0.11691
2775.46,0.12543
2752.32,0.12919
2729.17,0.13159
2706.03,0.13980
2682.88,0.14990
2659.74,0.15737
2636.59,0.16531
2613.45,0.17293
2590.3,0.17884
2567.16,0.18274
2544.02,0.18363
2520.87,0.18883
2497.73,0.19842
2474.58,0.20947
2451.44,0.21841
2428.29,0.23043
2405.15,0.24267
2382,0.25360
2358.86,0.26213
2335.71,0.26895
2312.57,0.27140
2289.42,0.26925
2266.28,0.26379
2243.13,0.25813
2219.99,0.25580
2196.84,0.25092
2173.7,0.23703
2150.55,0.22622
2127.41,0.22337
2104.26,0.22862
2081.12,0.23103
2057.97,0.22680
2034.83,0.23316
2011.68,0.24676
1988.54,0.25530
1965.39,0.26218
1942.25,0.27369
1919.1,0.28033
1895.96,0.27968
1872.81,0.27731
1849.67,0.27113
1826.52,0.25907
1803.38,0.23619
1780.23,0.19138
1757.09,0.10038
1733.94,0.07041
1710.8,0.08920
1687.65,0.09170
1664.51,0.06860
1641.36,0.07030
1618.22,0.06924
1595.07,0.06341
1571.93,0.09407
1548.78,0.11181
1525.64,0.07595
1502.49,0.05317
1479.35,0.05749
1456.2,0.04497
1433.06,0.04185
1409.91,0.04646
1386.77,0.04283
1363.62,0.04173
1340.48,0.04274
1317.33,0.04146
1294.19,0.04194
1271.04,0.03824
1247.9,0.04018
1224.75,0.04113
1201.61,0.04088
1178.46,0.03464
1155.32,0.03853
1132.17,0.03185
1109.03,0.03649
1085.88,0.03711
1062.74,0.05492
1039.59,0.05744
1016.45,0.06409
993.304,0.06651
970.159,0.08055
947.014,0.09147
923.869,0.09935
900.724,0.08126
877.579,0.08807
854.434,0.09517
831.289,0.09330
808.144,0.07856
784.999,0.07822
761.854,0.07093
738.709,0.06502
715.565,0.05857
692.42,0.05431
669.275,0.05147
646.13,0.04893
622.985,0.04617
599.84,0.04959