File: 01_Data/Exterior_Plywood/FTIR/IS/Exterior_Plywood_IS_S_220927_R2.dpt
7497.03,0.79056
7473.89,0.78583
7450.74,0.77584
7427.6,0.78103
7404.45,0.76467
7381.31,0.74964
7358.16,0.74542
7335.02,0.73566
7311.87,0.73629
7288.73,0.72981
7265.58,0.72949
7242.44,0.73133
7219.29,0.72968
7196.15,0.71996
7173,0.71241
7149.86,0.69177
7126.71,0.67854
7103.57,0.66569
7080.42,0.63878
7057.28,0.62757
7034.13,0.60990
7010.99,0.58746
6987.84,0.58563
6964.7,0.57162
6941.55,0.56851
6918.41,0.57012
6895.26,0.56866
6872.12,0.56616
6848.97,0.56875
6825.83,0.56378
6802.68,0.56734
6779.54,0.56412
6756.39,0.56735
6733.25,0.56915
6710.1,0.56749
6686.96,0.57190
6663.82,0.57483
6640.67,0.57788
6617.53,0.57619
6594.38,0.57981
6571.24,0.58283
6548.09,0.59112
6524.95,0.59368
6501.8,0.59206
6478.66,0.59300
6455.51,0.59190
6432.37,0.59659
6409.22,0.59594
6386.08,0.59831
6362.93,0.60252
6339.79,0.60246
6316.64,0.60273
6293.5,0.60613
6270.35,0.61072
6247.21,0.62357
6224.06,0.62749
6200.92,0.63168
6177.77,0.64052
6154.63,0.64393
6131.48,0.65237
6108.34,0.65765
6085.19,0.65665
6062.05,0.65673
6038.9,0.65370
6015.76,0.64973
5992.61,0.64543
5969.47,0.64151
5946.32,0.64184
5923.18,0.64748
5900.03,0.64047
5876.89,0.63637
5853.74,0.63659
5830.6,0.63541
5807.45,0.63286
5784.31,0.63367
5761.16,0.63404
5738.02,0.63400
5714.87,0.63185
5691.73,0.63103
5668.58,0.63075
5645.44,0.62746
5622.29,0.62713
5599.15,0.62531
5576,0.62671
5552.86,0.62897
5529.71,0.63070
5506.57,0.63133
5483.42,0.63501
5460.28,0.63539
5437.13,0.64070
5413.99,0.64447
5390.84,0.64539
5367.7,0.64568
5344.55,0.64320
5321.41,0.62864
5298.26,0.60443
5275.12,0.56839
5251.97,0.52187
5228.83,0.49028
5205.68,0.47739
5182.54,0.47506
5159.39,0.48177
5136.25,0.49558
5113.1,0.50772
5089.96,0.52022
5066.81,0.53121
5043.67,0.54243
5020.52,0.54844
4997.38,0.55489
4974.23,0.55066
4951.09,0.54191
4927.94,0.52507
4904.8,0.50634
4881.65,0.48622
4858.51,0.46945
4835.36,0.45388
4812.22,0.44231
4789.07,0.43556
4765.93,0.43266
4742.78,0.43279
4719.64,0.43591
4696.49,0.44125
4673.35,0.44605
4650.2,0.45576
4627.06,0.46405
4603.92,0.47750
4580.77,0.48596
4557.63,0.49369
4534.48,0.49879
4511.34,0.49971
4488.19,0.49500
4465.05,0.47502
4441.9,0.44936
4418.76,0.42054
4395.61,0.40477
4372.47,0.41190
4349.32,0.41655
4326.18,0.40992
4303.03,0.39865
4279.89,0.39231
4256.74,0.39537
4233.6,0.39813
4210.45,0.39741
4187.31,0.39988
4164.16,0.40451
4141.02,0.39903
4117.87,0.38412
4094.73,0.36335
4071.58,0.34126
4048.44,0.31831
4025.29,0.30378
4002.15,0.30345
3979,0.30923
3955.86,0.31852
3932.71,0.32923
3909.57,0.34072
3886.42,0.34920
3863.28,0.35644
3840.13,0.36662
3816.99,0.36860
3793.84,0.36724
3770.7,0.36297
3747.55,0.35277
3724.41,0.33505
3701.26,0.30269
3678.12,0.24111
3654.97,0.16358
3631.83,0.11396
3608.68,0.08355
3585.54,0.06399
3562.39,0.05355
3539.25,0.04692
3516.1,0.04270
3492.96,0.03943
3469.81,0.03825
3446.67,0.03759
3423.52,0.03830
3400.38,0.03867
3377.23,0.03903
3354.09,0.04011
3330.94,0.04176
3307.8,0.04369
3284.65,0.04503
3261.51,0.04811
3238.36,0.05087
3215.22,0.05482
3192.07,0.05955
3168.93,0.06514
3145.78,0.07069
3122.64,0.07822
3099.49,0.08584
3076.35,0.09231
3053.2,0.09939
3030.06,0.10494
3006.91,0.10218
2983.77,0.09077
2960.62,0.06984
2937.48,0.06058
2914.33,0.05900
2891.19,0.06115
2868.04,0.06536
2844.9,0.07717
2821.75,0.09852
2798.61,0.11562
2775.46,0.12383
2752.32,0.12711
2729.17,0.12977
2706.03,0.13792
2682.88,0.14773
2659.74,0.15522
2636.59,0.16331
2613.45,0.17091
2590.3,0.17668
2567.16,0.18088
2544.02,0.18199
2520.87,0.18679
2497.73,0.19681
2474.58,0.20713
2451.44,0.21651
2428.29,0.22733
2405.15,0.23987
2382,0.25003
2358.86,0.25809
2335.71,0.26402
2312.57,0.26658
2289.42,0.26364
2266.28,0.25789
2243.13,0.25146
2219.99,0.24866
2196.84,0.24332
2173.7,0.22971
2150.55,0.21958
2127.41,0.21639
2104.26,0.22135
2081.12,0.22296
2057.97,0.21988
2034.83,0.22612
2011.68,0.23936
1988.54,0.24836
1965.39,0.25518
1942.25,0.26632
1919.1,0.27306
1895.96,0.27260
1872.81,0.27031
1849.67,0.26409
1826.52,0.25285
1803.38,0.23036
1780.23,0.18850
1757.09,0.10086
1733.94,0.06982
1710.8,0.08761
1687.65,0.08728
1664.51,0.06496
1641.36,0.06600
1618.22,0.06645
1595.07,0.06203
1571.93,0.09235
1548.78,0.10856
1525.64,0.07482
1502.49,0.05306
1479.35,0.05718
1456.2,0.04403
1433.06,0.04181
1409.91,0.04692
1386.77,0.04269
1363.62,0.04165
1340.48,0.04226
1317.33,0.04120
1294.19,0.04167
1271.04,0.03804
1247.9,0.04062
1224.75,0.04085
1201.61,0.04071
1178.46,0.03433
1155.32,0.03817
1132.17,0.03178
1109.03,0.03616
1085.88,0.03692
1062.74,0.05479
1039.59,0.05731
1016.45,0.06413
993.304,0.06624
970.159,0.07970
947.014,0.09056
923.869,0.09752
900.724,0.07981
877.579,0.08756
854.434,0.09252
831.289,0.08937
808.144,0.07579
784.999,0.07513
761.854,0.06850
738.709,0.06320
715.565,0.05681
692.42,0.05332
669.275,0.05004
646.13,0.04828
622.985,0.04594
599.84,0.04867