File: 01_Data/Exterior_Plywood/FTIR/IS/Exterior_Plywood_IS_S_220927_R6.dpt
7497.03,0.79922
7473.89,0.77103
7450.74,0.77448
7427.6,0.77846
7404.45,0.76360
7381.31,0.75004
7358.16,0.73822
7335.02,0.74717
7311.87,0.73046
7288.73,0.73088
7265.58,0.73924
7242.44,0.72792
7219.29,0.72482
7196.15,0.71386
7173,0.71392
7149.86,0.69858
7126.71,0.69010
7103.57,0.67655
7080.42,0.64308
7057.28,0.63166
7034.13,0.62031
7010.99,0.60137
6987.84,0.58528
6964.7,0.58129
6941.55,0.57758
6918.41,0.57532
6895.26,0.57628
6872.12,0.56867
6848.97,0.56380
6825.83,0.56462
6802.68,0.57092
6779.54,0.56834
6756.39,0.56867
6733.25,0.56751
6710.1,0.57602
6686.96,0.57324
6663.82,0.57512
6640.67,0.57917
6617.53,0.58232
6594.38,0.58329
6571.24,0.58565
6548.09,0.59150
6524.95,0.59249
6501.8,0.59524
6478.66,0.59330
6455.51,0.59297
6432.37,0.60080
6409.22,0.60028
6386.08,0.60270
6362.93,0.60671
6339.79,0.60808
6316.64,0.60730
6293.5,0.61134
6270.35,0.61664
6247.21,0.62230
6224.06,0.63097
6200.92,0.63375
6177.77,0.64206
6154.63,0.64759
6131.48,0.65262
6108.34,0.65504
6085.19,0.66152
6062.05,0.65725
6038.9,0.65879
6015.76,0.65190
5992.61,0.64488
5969.47,0.64443
5946.32,0.64851
5923.18,0.64752
5900.03,0.64568
5876.89,0.63911
5853.74,0.64011
5830.6,0.63692
5807.45,0.62985
5784.31,0.63190
5761.16,0.63600
5738.02,0.63494
5714.87,0.63558
5691.73,0.63253
5668.58,0.63170
5645.44,0.62995
5622.29,0.62937
5599.15,0.62672
5576,0.62657
5552.86,0.63154
5529.71,0.63535
5506.57,0.63590
5483.42,0.63549
5460.28,0.63888
5437.13,0.64137
5413.99,0.64815
5390.84,0.64828
5367.7,0.64928
5344.55,0.64635
5321.41,0.63633
5298.26,0.61465
5275.12,0.57958
5251.97,0.53906
5228.83,0.50989
5205.68,0.49564
5182.54,0.49469
5159.39,0.50106
5136.25,0.51261
5113.1,0.52719
5089.96,0.53520
5066.81,0.54781
5043.67,0.55585
5020.52,0.56452
4997.38,0.56517
4974.23,0.56083
4951.09,0.54781
4927.94,0.53038
4904.8,0.51055
4881.65,0.48932
4858.51,0.46970
4835.36,0.45581
4812.22,0.44432
4789.07,0.43745
4765.93,0.43464
4742.78,0.43397
4719.64,0.43783
4696.49,0.44154
4673.35,0.44902
4650.2,0.45743
4627.06,0.46630
4603.92,0.47954
4580.77,0.48875
4557.63,0.49637
4534.48,0.50191
4511.34,0.50250
4488.19,0.49581
4465.05,0.47798
4441.9,0.45053
4418.76,0.42184
4395.61,0.40638
4372.47,0.41411
4349.32,0.41738
4326.18,0.41113
4303.03,0.40048
4279.89,0.39437
4256.74,0.39711
4233.6,0.39998
4210.45,0.40025
4187.31,0.40264
4164.16,0.40671
4141.02,0.40275
4117.87,0.38889
4094.73,0.36722
4071.58,0.34385
4048.44,0.32037
4025.29,0.30664
4002.15,0.30559
3979,0.31259
3955.86,0.32222
3932.71,0.33320
3909.57,0.34423
3886.42,0.35323
3863.28,0.36188
3840.13,0.37252
3816.99,0.37507
3793.84,0.37373
3770.7,0.37048
3747.55,0.36190
3724.41,0.34574
3701.26,0.31610
3678.12,0.25627
3654.97,0.17860
3631.83,0.12524
3608.68,0.09045
3585.54,0.06831
3562.39,0.05637
3539.25,0.04820
3516.1,0.04339
3492.96,0.04039
3469.81,0.03858
3446.67,0.03861
3423.52,0.03852
3400.38,0.03850
3377.23,0.03933
3354.09,0.03961
3330.94,0.04237
3307.8,0.04386
3284.65,0.04603
3261.51,0.04864
3238.36,0.05202
3215.22,0.05629
3192.07,0.06097
3168.93,0.06731
3145.78,0.07424
3122.64,0.08149
3099.49,0.08970
3076.35,0.09663
3053.2,0.10356
3030.06,0.10880
3006.91,0.10504
2983.77,0.09281
2960.62,0.07078
2937.48,0.06127
2914.33,0.05938
2891.19,0.06137
2868.04,0.06583
2844.9,0.07753
2821.75,0.09898
2798.61,0.11733
2775.46,0.12476
2752.32,0.12850
2729.17,0.13151
2706.03,0.13943
2682.88,0.14952
2659.74,0.15672
2636.59,0.16481
2613.45,0.17255
2590.3,0.17864
2567.16,0.18224
2544.02,0.18329
2520.87,0.18869
2497.73,0.19883
2474.58,0.20891
2451.44,0.21824
2428.29,0.23011
2405.15,0.24209
2382,0.25272
2358.86,0.26189
2335.71,0.26834
2312.57,0.27093
2289.42,0.26865
2266.28,0.26287
2243.13,0.25677
2219.99,0.25448
2196.84,0.25005
2173.7,0.23632
2150.55,0.22557
2127.41,0.22303
2104.26,0.22767
2081.12,0.22995
2057.97,0.22622
2034.83,0.23196
2011.68,0.24613
1988.54,0.25432
1965.39,0.26114
1942.25,0.27281
1919.1,0.27964
1895.96,0.27890
1872.81,0.27604
1849.67,0.27041
1826.52,0.25799
1803.38,0.23528
1780.23,0.19114
1757.09,0.10086
1733.94,0.07010
1710.8,0.08927
1687.65,0.09117
1664.51,0.06796
1641.36,0.06982
1618.22,0.06901
1595.07,0.06328
1571.93,0.09380
1548.78,0.11125
1525.64,0.07596
1502.49,0.05304
1479.35,0.05735
1456.2,0.04455
1433.06,0.04199
1409.91,0.04615
1386.77,0.04300
1363.62,0.04158
1340.48,0.04295
1317.33,0.04125
1294.19,0.04186
1271.04,0.03816
1247.9,0.04064
1224.75,0.04127
1201.61,0.04069
1178.46,0.03474
1155.32,0.03836
1132.17,0.03164
1109.03,0.03657
1085.88,0.03671
1062.74,0.05496
1039.59,0.05635
1016.45,0.06410
993.304,0.06673
970.159,0.08004
947.014,0.09136
923.869,0.09855
900.724,0.08097
877.579,0.08820
854.434,0.09489
831.289,0.09300
808.144,0.07852
784.999,0.07807
761.854,0.07195
738.709,0.06504
715.565,0.05884
692.42,0.05520
669.275,0.05068
646.13,0.04981
622.985,0.04663
599.84,0.04912