File: 01_Data/Exterior_Plywood/FTIR/IS/Exterior_Plywood_IS_S_220927_R1.dpt
7497.03,0.78412
7473.89,0.77450
7450.74,0.77458
7427.6,0.76269
7404.45,0.75917
7381.31,0.75501
7358.16,0.74884
7335.02,0.73216
7311.87,0.73376
7288.73,0.73081
7265.58,0.72106
7242.44,0.71628
7219.29,0.71145
7196.15,0.70951
7173,0.70127
7149.86,0.68264
7126.71,0.67156
7103.57,0.65986
7080.42,0.63874
7057.28,0.62454
7034.13,0.60144
7010.99,0.58808
6987.84,0.57998
6964.7,0.57564
6941.55,0.57370
6918.41,0.56608
6895.26,0.56607
6872.12,0.56366
6848.97,0.56395
6825.83,0.55991
6802.68,0.56678
6779.54,0.56049
6756.39,0.55823
6733.25,0.56102
6710.1,0.56310
6686.96,0.56611
6663.82,0.57186
6640.67,0.57036
6617.53,0.57758
6594.38,0.57823
6571.24,0.58288
6548.09,0.58210
6524.95,0.58636
6501.8,0.58939
6478.66,0.59149
6455.51,0.59237
6432.37,0.59058
6409.22,0.59640
6386.08,0.59868
6362.93,0.59938
6339.79,0.60204
6316.64,0.60512
6293.5,0.61059
6270.35,0.61132
6247.21,0.61425
6224.06,0.62216
6200.92,0.62883
6177.77,0.63510
6154.63,0.63968
6131.48,0.64388
6108.34,0.64825
6085.19,0.65216
6062.05,0.65307
6038.9,0.65242
6015.76,0.64363
5992.61,0.64307
5969.47,0.64123
5946.32,0.64400
5923.18,0.64053
5900.03,0.63677
5876.89,0.63410
5853.74,0.63347
5830.6,0.63036
5807.45,0.62768
5784.31,0.62746
5761.16,0.62819
5738.02,0.63043
5714.87,0.62921
5691.73,0.62716
5668.58,0.62615
5645.44,0.62169
5622.29,0.62287
5599.15,0.62064
5576,0.62288
5552.86,0.62658
5529.71,0.62448
5506.57,0.62708
5483.42,0.62867
5460.28,0.63208
5437.13,0.63406
5413.99,0.64081
5390.84,0.64409
5367.7,0.64050
5344.55,0.63562
5321.41,0.62470
5298.26,0.59711
5275.12,0.55700
5251.97,0.51106
5228.83,0.47929
5205.68,0.46123
5182.54,0.45975
5159.39,0.46880
5136.25,0.47943
5113.1,0.49302
5089.96,0.50519
5066.81,0.51777
5043.67,0.52923
5020.52,0.53850
4997.38,0.54265
4974.23,0.54188
4951.09,0.53505
4927.94,0.52054
4904.8,0.50269
4881.65,0.48407
4858.51,0.46762
4835.36,0.45176
4812.22,0.43950
4789.07,0.43360
4765.93,0.43090
4742.78,0.42972
4719.64,0.43335
4696.49,0.43668
4673.35,0.44340
4650.2,0.45185
4627.06,0.46166
4603.92,0.47411
4580.77,0.48354
4557.63,0.49092
4534.48,0.49566
4511.34,0.49731
4488.19,0.48990
4465.05,0.47203
4441.9,0.44679
4418.76,0.41807
4395.61,0.40311
4372.47,0.41109
4349.32,0.41392
4326.18,0.40819
4303.03,0.39530
4279.89,0.38998
4256.74,0.39301
4233.6,0.39447
4210.45,0.39531
4187.31,0.39740
4164.16,0.40014
4141.02,0.39579
4117.87,0.38095
4094.73,0.35966
4071.58,0.33738
4048.44,0.31503
4025.29,0.30095
4002.15,0.30013
3979,0.30673
3955.86,0.31462
3932.71,0.32529
3909.57,0.33595
3886.42,0.34432
3863.28,0.35261
3840.13,0.36128
3816.99,0.36340
3793.84,0.36037
3770.7,0.35527
3747.55,0.34488
3724.41,0.32603
3701.26,0.29168
3678.12,0.22903
3654.97,0.15244
3631.83,0.10571
3608.68,0.07818
3585.54,0.06174
3562.39,0.05192
3539.25,0.04549
3516.1,0.04170
3492.96,0.03994
3469.81,0.03808
3446.67,0.03822
3423.52,0.03854
3400.38,0.03820
3377.23,0.03854
3354.09,0.03997
3330.94,0.04119
3307.8,0.04349
3284.65,0.04495
3261.51,0.04763
3238.36,0.05053
3215.22,0.05372
3192.07,0.05837
3168.93,0.06328
3145.78,0.06909
3122.64,0.07566
3099.49,0.08248
3076.35,0.08832
3053.2,0.09567
3030.06,0.10131
3006.91,0.09958
2983.77,0.08893
2960.62,0.06989
2937.48,0.06082
2914.33,0.05892
2891.19,0.06078
2868.04,0.06563
2844.9,0.07673
2821.75,0.09759
2798.61,0.11415
2775.46,0.12179
2752.32,0.12528
2729.17,0.12815
2706.03,0.13573
2682.88,0.14571
2659.74,0.15385
2636.59,0.16120
2613.45,0.16858
2590.3,0.17523
2567.16,0.17908
2544.02,0.17955
2520.87,0.18513
2497.73,0.19462
2474.58,0.20496
2451.44,0.21434
2428.29,0.22514
2405.15,0.23684
2382,0.24680
2358.86,0.25457
2335.71,0.25937
2312.57,0.26178
2289.42,0.25855
2266.28,0.25239
2243.13,0.24567
2219.99,0.24226
2196.84,0.23720
2173.7,0.22383
2150.55,0.21352
2127.41,0.21062
2104.26,0.21507
2081.12,0.21766
2057.97,0.21428
2034.83,0.22029
2011.68,0.23370
1988.54,0.24224
1965.39,0.24922
1942.25,0.26017
1919.1,0.26710
1895.96,0.26652
1872.81,0.26423
1849.67,0.25881
1826.52,0.24730
1803.38,0.22589
1780.23,0.18578
1757.09,0.10114
1733.94,0.06922
1710.8,0.08560
1687.65,0.08463
1664.51,0.06242
1641.36,0.06311
1618.22,0.06487
1595.07,0.06170
1571.93,0.09000
1548.78,0.10573
1525.64,0.07418
1502.49,0.05284
1479.35,0.05692
1456.2,0.04406
1433.06,0.04175
1409.91,0.04673
1386.77,0.04264
1363.62,0.04163
1340.48,0.04227
1317.33,0.04139
1294.19,0.04181
1271.04,0.03856
1247.9,0.04057
1224.75,0.04134
1201.61,0.04099
1178.46,0.03424
1155.32,0.03822
1132.17,0.03180
1109.03,0.03679
1085.88,0.03662
1062.74,0.05446
1039.59,0.05702
1016.45,0.06412
993.304,0.06628
970.159,0.07946
947.014,0.08944
923.869,0.09600
900.724,0.07856
877.579,0.08456
854.434,0.08982
831.289,0.08688
808.144,0.07388
784.999,0.07222
761.854,0.06585
738.709,0.06126
715.565,0.05446
692.42,0.05355
669.275,0.04832
646.13,0.04897
622.985,0.04476
599.84,0.04930