File: 01_Data/Exterior_Plywood/FTIR/IS/Exterior_Plywood_IS_S_220927_R3.dpt
7497.03,0.79780
7473.89,0.79151
7450.74,0.77754
7427.6,0.75868
7404.45,0.75911
7381.31,0.75013
7358.16,0.74588
7335.02,0.73625
7311.87,0.73182
7288.73,0.72497
7265.58,0.73021
7242.44,0.72308
7219.29,0.72437
7196.15,0.71252
7173,0.69873
7149.86,0.70005
7126.71,0.68680
7103.57,0.66691
7080.42,0.64514
7057.28,0.62669
7034.13,0.60260
7010.99,0.59291
6987.84,0.58057
6964.7,0.57954
6941.55,0.57746
6918.41,0.56760
6895.26,0.56671
6872.12,0.57458
6848.97,0.56929
6825.83,0.56337
6802.68,0.56285
6779.54,0.56668
6756.39,0.56354
6733.25,0.56529
6710.1,0.57054
6686.96,0.56809
6663.82,0.57609
6640.67,0.57160
6617.53,0.57776
6594.38,0.58620
6571.24,0.58701
6548.09,0.59154
6524.95,0.58745
6501.8,0.59106
6478.66,0.59032
6455.51,0.59233
6432.37,0.59752
6409.22,0.59645
6386.08,0.59708
6362.93,0.59933
6339.79,0.60674
6316.64,0.60443
6293.5,0.60621
6270.35,0.61334
6247.21,0.61879
6224.06,0.62748
6200.92,0.63052
6177.77,0.63871
6154.63,0.64700
6131.48,0.65023
6108.34,0.65470
6085.19,0.65737
6062.05,0.65481
6038.9,0.65273
6015.76,0.65004
5992.61,0.64618
5969.47,0.64099
5946.32,0.64406
5923.18,0.64382
5900.03,0.64080
5876.89,0.63693
5853.74,0.63581
5830.6,0.63497
5807.45,0.63227
5784.31,0.62898
5761.16,0.63050
5738.02,0.63127
5714.87,0.63099
5691.73,0.63093
5668.58,0.62618
5645.44,0.62572
5622.29,0.62484
5599.15,0.62497
5576,0.62699
5552.86,0.62908
5529.71,0.63068
5506.57,0.63218
5483.42,0.63444
5460.28,0.63327
5437.13,0.64199
5413.99,0.64413
5390.84,0.64580
5367.7,0.64709
5344.55,0.64254
5321.41,0.63146
5298.26,0.60901
5275.12,0.57066
5251.97,0.52851
5228.83,0.49715
5205.68,0.48460
5182.54,0.48201
5159.39,0.48899
5136.25,0.50073
5113.1,0.51399
5089.96,0.52538
5066.81,0.53584
5043.67,0.54771
5020.52,0.55436
4997.38,0.55716
4974.23,0.55432
4951.09,0.54397
4927.94,0.52584
4904.8,0.50657
4881.65,0.48768
4858.51,0.47008
4835.36,0.45469
4812.22,0.44286
4789.07,0.43653
4765.93,0.43247
4742.78,0.43392
4719.64,0.43623
4696.49,0.44018
4673.35,0.44658
4650.2,0.45612
4627.06,0.46500
4603.92,0.47575
4580.77,0.48630
4557.63,0.49466
4534.48,0.49941
4511.34,0.50070
4488.19,0.49365
4465.05,0.47523
4441.9,0.44955
4418.76,0.42046
4395.61,0.40507
4372.47,0.41203
4349.32,0.41587
4326.18,0.40971
4303.03,0.39933
4279.89,0.39204
4256.74,0.39543
4233.6,0.39770
4210.45,0.39843
4187.31,0.40082
4164.16,0.40467
4141.02,0.40021
4117.87,0.38640
4094.73,0.36522
4071.58,0.34200
4048.44,0.31876
4025.29,0.30510
4002.15,0.30453
3979,0.31053
3955.86,0.31903
3932.71,0.33063
3909.57,0.34166
3886.42,0.35023
3863.28,0.35845
3840.13,0.36875
3816.99,0.37121
3793.84,0.36844
3770.7,0.36522
3747.55,0.35601
3724.41,0.33910
3701.26,0.30737
3678.12,0.24685
3654.97,0.16844
3631.83,0.11858
3608.68,0.08559
3585.54,0.06574
3562.39,0.05485
3539.25,0.04764
3516.1,0.04346
3492.96,0.04005
3469.81,0.03822
3446.67,0.03811
3423.52,0.03838
3400.38,0.03893
3377.23,0.03877
3354.09,0.03969
3330.94,0.04153
3307.8,0.04305
3284.65,0.04525
3261.51,0.04820
3238.36,0.05102
3215.22,0.05613
3192.07,0.05975
3168.93,0.06569
3145.78,0.07245
3122.64,0.07992
3099.49,0.08737
3076.35,0.09381
3053.2,0.10129
3030.06,0.10659
3006.91,0.10341
2983.77,0.09203
2960.62,0.07040
2937.48,0.06074
2914.33,0.05957
2891.19,0.06153
2868.04,0.06573
2844.9,0.07766
2821.75,0.09868
2798.61,0.11601
2775.46,0.12397
2752.32,0.12800
2729.17,0.13048
2706.03,0.13857
2682.88,0.14838
2659.74,0.15607
2636.59,0.16367
2613.45,0.17078
2590.3,0.17745
2567.16,0.18080
2544.02,0.18213
2520.87,0.18773
2497.73,0.19758
2474.58,0.20757
2451.44,0.21673
2428.29,0.22823
2405.15,0.24102
2382,0.25133
2358.86,0.25950
2335.71,0.26561
2312.57,0.26803
2289.42,0.26540
2266.28,0.25994
2243.13,0.25375
2219.99,0.25058
2196.84,0.24578
2173.7,0.23187
2150.55,0.22176
2127.41,0.21887
2104.26,0.22346
2081.12,0.22567
2057.97,0.22202
2034.83,0.22807
2011.68,0.24200
1988.54,0.25060
1965.39,0.25695
1942.25,0.26845
1919.1,0.27559
1895.96,0.27456
1872.81,0.27269
1849.67,0.26655
1826.52,0.25452
1803.38,0.23247
1780.23,0.18946
1757.09,0.10078
1733.94,0.06977
1710.8,0.08815
1687.65,0.08909
1664.51,0.06622
1641.36,0.06728
1618.22,0.06729
1595.07,0.06237
1571.93,0.09268
1548.78,0.10953
1525.64,0.07509
1502.49,0.05300
1479.35,0.05741
1456.2,0.04424
1433.06,0.04190
1409.91,0.04665
1386.77,0.04285
1363.62,0.04200
1340.48,0.04246
1317.33,0.04108
1294.19,0.04175
1271.04,0.03780
1247.9,0.04068
1224.75,0.04147
1201.61,0.04116
1178.46,0.03392
1155.32,0.03858
1132.17,0.03207
1109.03,0.03628
1085.88,0.03685
1062.74,0.05485
1039.59,0.05743
1016.45,0.06397
993.304,0.06624
970.159,0.08003
947.014,0.09107
923.869,0.09753
900.724,0.07991
877.579,0.08768
854.434,0.09330
831.289,0.09101
808.144,0.07716
784.999,0.07548
761.854,0.06980
738.709,0.06396
715.565,0.05736
692.42,0.05309
669.275,0.05038
646.13,0.05073
622.985,0.04970
599.84,0.05146