File: 01_Data/Exterior_Plywood/FTIR/IS/Exterior_Plywood_IS_S_220927_R4.dpt
7497.03,0.79638
7473.89,0.79139
7450.74,0.78027
7427.6,0.77496
7404.45,0.75893
7381.31,0.75932
7358.16,0.74573
7335.02,0.73835
7311.87,0.72756
7288.73,0.73155
7265.58,0.72813
7242.44,0.72504
7219.29,0.71991
7196.15,0.71959
7173,0.70737
7149.86,0.70505
7126.71,0.68286
7103.57,0.66645
7080.42,0.64419
7057.28,0.63082
7034.13,0.60890
7010.99,0.59248
6987.84,0.58641
6964.7,0.57992
6941.55,0.57631
6918.41,0.57247
6895.26,0.56946
6872.12,0.57525
6848.97,0.56931
6825.83,0.56935
6802.68,0.56625
6779.54,0.56704
6756.39,0.56854
6733.25,0.56676
6710.1,0.57152
6686.96,0.57361
6663.82,0.57208
6640.67,0.57989
6617.53,0.57884
6594.38,0.58272
6571.24,0.58289
6548.09,0.58851
6524.95,0.59008
6501.8,0.59469
6478.66,0.59140
6455.51,0.59450
6432.37,0.59712
6409.22,0.59748
6386.08,0.60200
6362.93,0.60515
6339.79,0.60605
6316.64,0.60603
6293.5,0.60752
6270.35,0.61771
6247.21,0.62084
6224.06,0.62718
6200.92,0.63385
6177.77,0.64031
6154.63,0.64563
6131.48,0.65240
6108.34,0.65591
6085.19,0.65719
6062.05,0.65684
6038.9,0.65523
6015.76,0.64875
5992.61,0.64701
5969.47,0.64433
5946.32,0.64710
5923.18,0.64547
5900.03,0.64232
5876.89,0.64049
5853.74,0.63962
5830.6,0.63544
5807.45,0.63330
5784.31,0.63123
5761.16,0.63553
5738.02,0.63628
5714.87,0.63285
5691.73,0.63329
5668.58,0.62815
5645.44,0.62838
5622.29,0.62670
5599.15,0.62820
5576,0.62862
5552.86,0.63133
5529.71,0.63151
5506.57,0.63348
5483.42,0.63404
5460.28,0.63657
5437.13,0.63980
5413.99,0.64574
5390.84,0.64875
5367.7,0.64786
5344.55,0.64423
5321.41,0.63316
5298.26,0.61162
5275.12,0.57386
5251.97,0.53167
5228.83,0.50417
5205.68,0.48994
5182.54,0.48773
5159.39,0.49563
5136.25,0.50532
5113.1,0.51881
5089.96,0.52888
5066.81,0.54097
5043.67,0.55053
5020.52,0.55784
4997.38,0.56035
4974.23,0.55708
4951.09,0.54502
4927.94,0.52665
4904.8,0.50792
4881.65,0.48830
4858.51,0.46956
4835.36,0.45503
4812.22,0.44392
4789.07,0.43608
4765.93,0.43418
4742.78,0.43264
4719.64,0.43602
4696.49,0.44104
4673.35,0.44698
4650.2,0.45588
4627.06,0.46587
4603.92,0.47820
4580.77,0.48774
4557.63,0.49470
4534.48,0.49950
4511.34,0.50156
4488.19,0.49512
4465.05,0.47671
4441.9,0.44897
4418.76,0.42042
4395.61,0.40504
4372.47,0.41257
4349.32,0.41657
4326.18,0.40936
4303.03,0.39902
4279.89,0.39271
4256.74,0.39641
4233.6,0.39826
4210.45,0.39928
4187.31,0.40131
4164.16,0.40600
4141.02,0.40082
4117.87,0.38682
4094.73,0.36590
4071.58,0.34250
4048.44,0.31967
4025.29,0.30559
4002.15,0.30502
3979,0.31195
3955.86,0.32053
3932.71,0.33140
3909.57,0.34283
3886.42,0.35132
3863.28,0.36006
3840.13,0.36984
3816.99,0.37216
3793.84,0.37149
3770.7,0.36717
3747.55,0.35899
3724.41,0.34253
3701.26,0.31148
3678.12,0.25111
3654.97,0.17331
3631.83,0.12193
3608.68,0.08804
3585.54,0.06679
3562.39,0.05475
3539.25,0.04784
3516.1,0.04357
3492.96,0.04021
3469.81,0.03868
3446.67,0.03807
3423.52,0.03864
3400.38,0.03891
3377.23,0.03836
3354.09,0.04000
3330.94,0.04237
3307.8,0.04433
3284.65,0.04543
3261.51,0.04771
3238.36,0.05181
3215.22,0.05488
3192.07,0.06094
3168.93,0.06598
3145.78,0.07291
3122.64,0.08086
3099.49,0.08846
3076.35,0.09474
3053.2,0.10250
3030.06,0.10786
3006.91,0.10432
2983.77,0.09232
2960.62,0.07079
2937.48,0.06044
2914.33,0.05992
2891.19,0.06137
2868.04,0.06551
2844.9,0.07736
2821.75,0.09897
2798.61,0.11637
2775.46,0.12487
2752.32,0.12850
2729.17,0.13090
2706.03,0.13866
2682.88,0.14900
2659.74,0.15671
2636.59,0.16373
2613.45,0.17151
2590.3,0.17820
2567.16,0.18206
2544.02,0.18270
2520.87,0.18754
2497.73,0.19787
2474.58,0.20827
2451.44,0.21742
2428.29,0.22912
2405.15,0.24130
2382,0.25208
2358.86,0.26083
2335.71,0.26687
2312.57,0.26953
2289.42,0.26655
2266.28,0.26097
2243.13,0.25516
2219.99,0.25275
2196.84,0.24766
2173.7,0.23392
2150.55,0.22353
2127.41,0.22065
2104.26,0.22548
2081.12,0.22764
2057.97,0.22374
2034.83,0.22996
2011.68,0.24366
1988.54,0.25221
1965.39,0.25904
1942.25,0.27037
1919.1,0.27747
1895.96,0.27651
1872.81,0.27417
1849.67,0.26813
1826.52,0.25610
1803.38,0.23324
1780.23,0.19024
1757.09,0.10089
1733.94,0.06994
1710.8,0.08872
1687.65,0.09032
1664.51,0.06740
1641.36,0.06873
1618.22,0.06770
1595.07,0.06314
1571.93,0.09336
1548.78,0.11023
1525.64,0.07560
1502.49,0.05267
1479.35,0.05735
1456.2,0.04454
1433.06,0.04175
1409.91,0.04628
1386.77,0.04258
1363.62,0.04177
1340.48,0.04219
1317.33,0.04122
1294.19,0.04225
1271.04,0.03818
1247.9,0.04077
1224.75,0.04116
1201.61,0.04116
1178.46,0.03456
1155.32,0.03864
1132.17,0.03201
1109.03,0.03629
1085.88,0.03696
1062.74,0.05485
1039.59,0.05705
1016.45,0.06387
993.304,0.06651
970.159,0.07995
947.014,0.09143
923.869,0.09842
900.724,0.08066
877.579,0.08832
854.434,0.09474
831.289,0.09177
808.144,0.07758
784.999,0.07764
761.854,0.07122
738.709,0.06455
715.565,0.05720
692.42,0.05535
669.275,0.05108
646.13,0.05119
622.985,0.04741
599.84,0.05096