File: 01_Data/Exterior_Plywood/FTIR/IS/Exterior_Plywood_IS_S_220927_R8.dpt
7497.03,0.80332
7473.89,0.80640
7450.74,0.78468
7427.6,0.77721
7404.45,0.76232
7381.31,0.74913
7358.16,0.74057
7335.02,0.73357
7311.87,0.73946
7288.73,0.73408
7265.58,0.72872
7242.44,0.72773
7219.29,0.73306
7196.15,0.71384
7173,0.70937
7149.86,0.70655
7126.71,0.68853
7103.57,0.67983
7080.42,0.64753
7057.28,0.63844
7034.13,0.61799
7010.99,0.59792
6987.84,0.58954
6964.7,0.57870
6941.55,0.57840
6918.41,0.57318
6895.26,0.57120
6872.12,0.57432
6848.97,0.57414
6825.83,0.57322
6802.68,0.56978
6779.54,0.57084
6756.39,0.56473
6733.25,0.56970
6710.1,0.57350
6686.96,0.57654
6663.82,0.57953
6640.67,0.57952
6617.53,0.58536
6594.38,0.58677
6571.24,0.59243
6548.09,0.59171
6524.95,0.59355
6501.8,0.59996
6478.66,0.59236
6455.51,0.60361
6432.37,0.59732
6409.22,0.60615
6386.08,0.60536
6362.93,0.60833
6339.79,0.60910
6316.64,0.61035
6293.5,0.61247
6270.35,0.61878
6247.21,0.62385
6224.06,0.63273
6200.92,0.63787
6177.77,0.64534
6154.63,0.64797
6131.48,0.65518
6108.34,0.66039
6085.19,0.66108
6062.05,0.66077
6038.9,0.66199
6015.76,0.65454
5992.61,0.65027
5969.47,0.64428
5946.32,0.64642
5923.18,0.65251
5900.03,0.64503
5876.89,0.64075
5853.74,0.63985
5830.6,0.64074
5807.45,0.63485
5784.31,0.63283
5761.16,0.63539
5738.02,0.63826
5714.87,0.63578
5691.73,0.63642
5668.58,0.63462
5645.44,0.63171
5622.29,0.63118
5599.15,0.63093
5576,0.63181
5552.86,0.63350
5529.71,0.63657
5506.57,0.63724
5483.42,0.63783
5460.28,0.64053
5437.13,0.64306
5413.99,0.64774
5390.84,0.65252
5367.7,0.65249
5344.55,0.64800
5321.41,0.63999
5298.26,0.61927
5275.12,0.58403
5251.97,0.54468
5228.83,0.51495
5205.68,0.50132
5182.54,0.50051
5159.39,0.50765
5136.25,0.51796
5113.1,0.53240
5089.96,0.54230
5066.81,0.55426
5043.67,0.56148
5020.52,0.56853
4997.38,0.57032
4974.23,0.56491
4951.09,0.55048
4927.94,0.53254
4904.8,0.51021
4881.65,0.48982
4858.51,0.47177
4835.36,0.45708
4812.22,0.44516
4789.07,0.43809
4765.93,0.43519
4742.78,0.43570
4719.64,0.43823
4696.49,0.44293
4673.35,0.44913
4650.2,0.45822
4627.06,0.46771
4603.92,0.48013
4580.77,0.49058
4557.63,0.49725
4534.48,0.50261
4511.34,0.50518
4488.19,0.49751
4465.05,0.47830
4441.9,0.45239
4418.76,0.42222
4395.61,0.40662
4372.47,0.41327
4349.32,0.41799
4326.18,0.41170
4303.03,0.40086
4279.89,0.39498
4256.74,0.39816
4233.6,0.40042
4210.45,0.40210
4187.31,0.40360
4164.16,0.40858
4141.02,0.40394
4117.87,0.38957
4094.73,0.36907
4071.58,0.34474
4048.44,0.32209
4025.29,0.30763
4002.15,0.30705
3979,0.31366
3955.86,0.32300
3932.71,0.33372
3909.57,0.34570
3886.42,0.35473
3863.28,0.36364
3840.13,0.37491
3816.99,0.37686
3793.84,0.37594
3770.7,0.37270
3747.55,0.36454
3724.41,0.34964
3701.26,0.31913
3678.12,0.26000
3654.97,0.18235
3631.83,0.12901
3608.68,0.09373
3585.54,0.06922
3562.39,0.05616
3539.25,0.04865
3516.1,0.04403
3492.96,0.04083
3469.81,0.03925
3446.67,0.03823
3423.52,0.03881
3400.38,0.03891
3377.23,0.03953
3354.09,0.04017
3330.94,0.04216
3307.8,0.04446
3284.65,0.04546
3261.51,0.04867
3238.36,0.05216
3215.22,0.05728
3192.07,0.06146
3168.93,0.06791
3145.78,0.07534
3122.64,0.08261
3099.49,0.09007
3076.35,0.09784
3053.2,0.10504
3030.06,0.11003
3006.91,0.10634
2983.77,0.09337
2960.62,0.07055
2937.48,0.06114
2914.33,0.05941
2891.19,0.06097
2868.04,0.06595
2844.9,0.07773
2821.75,0.09974
2798.61,0.11717
2775.46,0.12602
2752.32,0.12979
2729.17,0.13209
2706.03,0.14021
2682.88,0.15051
2659.74,0.15790
2636.59,0.16523
2613.45,0.17293
2590.3,0.17944
2567.16,0.18308
2544.02,0.18374
2520.87,0.18956
2497.73,0.19951
2474.58,0.20998
2451.44,0.21924
2428.29,0.23067
2405.15,0.24308
2382,0.25402
2358.86,0.26296
2335.71,0.26989
2312.57,0.27254
2289.42,0.27022
2266.28,0.26461
2243.13,0.25852
2219.99,0.25661
2196.84,0.25191
2173.7,0.23780
2150.55,0.22731
2127.41,0.22444
2104.26,0.22981
2081.12,0.23151
2057.97,0.22723
2034.83,0.23372
2011.68,0.24770
1988.54,0.25657
1965.39,0.26275
1942.25,0.27460
1919.1,0.28178
1895.96,0.28027
1872.81,0.27822
1849.67,0.27202
1826.52,0.25988
1803.38,0.23655
1780.23,0.19176
1757.09,0.10074
1733.94,0.07045
1710.8,0.08966
1687.65,0.09237
1664.51,0.06832
1641.36,0.07090
1618.22,0.06927
1595.07,0.06329
1571.93,0.09456
1548.78,0.11210
1525.64,0.07649
1502.49,0.05295
1479.35,0.05727
1456.2,0.04441
1433.06,0.04192
1409.91,0.04620
1386.77,0.04270
1363.62,0.04184
1340.48,0.04270
1317.33,0.04098
1294.19,0.04207
1271.04,0.03847
1247.9,0.04088
1224.75,0.04085
1201.61,0.04112
1178.46,0.03503
1155.32,0.03836
1132.17,0.03250
1109.03,0.03596
1085.88,0.03667
1062.74,0.05546
1039.59,0.05738
1016.45,0.06457
993.304,0.06611
970.159,0.08050
947.014,0.09202
923.869,0.09912
900.724,0.08159
877.579,0.08918
854.434,0.09538
831.289,0.09490
808.144,0.07844
784.999,0.07882
761.854,0.07213
738.709,0.06636
715.565,0.05853
692.42,0.05500
669.275,0.05042
646.13,0.04960
622.985,0.04701
599.84,0.04931