File: 01_Data/Exterior_Plywood/FTIR/IS/Exterior_Plywood_IS_S_220927_R5.dpt
7497.03,0.79301
7473.89,0.78512
7450.74,0.78537
7427.6,0.77840
7404.45,0.75994
7381.31,0.75476
7358.16,0.74858
7335.02,0.73785
7311.87,0.73772
7288.73,0.73123
7265.58,0.73536
7242.44,0.73004
7219.29,0.72246
7196.15,0.71689
7173,0.71111
7149.86,0.69722
7126.71,0.68611
7103.57,0.66817
7080.42,0.64865
7057.28,0.63103
7034.13,0.60747
7010.99,0.60048
6987.84,0.58202
6964.7,0.58259
6941.55,0.57246
6918.41,0.57483
6895.26,0.57673
6872.12,0.56817
6848.97,0.56978
6825.83,0.56761
6802.68,0.57028
6779.54,0.57111
6756.39,0.56953
6733.25,0.57800
6710.1,0.57148
6686.96,0.57593
6663.82,0.57636
6640.67,0.57780
6617.53,0.58497
6594.38,0.58059
6571.24,0.59351
6548.09,0.59079
6524.95,0.59390
6501.8,0.59446
6478.66,0.59576
6455.51,0.59830
6432.37,0.59938
6409.22,0.59810
6386.08,0.60209
6362.93,0.60680
6339.79,0.60491
6316.64,0.60685
6293.5,0.60724
6270.35,0.61504
6247.21,0.62099
6224.06,0.62912
6200.92,0.64129
6177.77,0.64162
6154.63,0.64832
6131.48,0.65262
6108.34,0.65851
6085.19,0.66046
6062.05,0.66217
6038.9,0.65642
6015.76,0.65194
5992.61,0.64854
5969.47,0.64823
5946.32,0.64566
5923.18,0.64862
5900.03,0.64466
5876.89,0.63840
5853.74,0.63848
5830.6,0.63770
5807.45,0.63571
5784.31,0.63246
5761.16,0.63542
5738.02,0.63729
5714.87,0.63405
5691.73,0.63252
5668.58,0.63096
5645.44,0.63038
5622.29,0.62896
5599.15,0.63107
5576,0.63240
5552.86,0.63273
5529.71,0.63403
5506.57,0.63624
5483.42,0.63651
5460.28,0.64028
5437.13,0.64512
5413.99,0.64953
5390.84,0.64991
5367.7,0.65040
5344.55,0.64778
5321.41,0.63699
5298.26,0.61507
5275.12,0.58050
5251.97,0.53723
5228.83,0.50695
5205.68,0.49510
5182.54,0.49223
5159.39,0.49984
5136.25,0.51297
5113.1,0.52264
5089.96,0.53428
5066.81,0.54680
5043.67,0.55520
5020.52,0.56218
4997.38,0.56533
4974.23,0.55977
4951.09,0.54839
4927.94,0.53008
4904.8,0.50994
4881.65,0.49025
4858.51,0.47115
4835.36,0.45646
4812.22,0.44451
4789.07,0.43936
4765.93,0.43549
4742.78,0.43541
4719.64,0.43845
4696.49,0.44266
4673.35,0.44937
4650.2,0.45815
4627.06,0.46731
4603.92,0.47950
4580.77,0.48981
4557.63,0.49709
4534.48,0.50206
4511.34,0.50357
4488.19,0.49572
4465.05,0.47770
4441.9,0.45095
4418.76,0.42117
4395.61,0.40625
4372.47,0.41342
4349.32,0.41758
4326.18,0.41204
4303.03,0.40022
4279.89,0.39495
4256.74,0.39750
4233.6,0.39991
4210.45,0.40021
4187.31,0.40319
4164.16,0.40737
4141.02,0.40216
4117.87,0.38826
4094.73,0.36737
4071.58,0.34375
4048.44,0.32083
4025.29,0.30693
4002.15,0.30601
3979,0.31250
3955.86,0.32175
3932.71,0.33332
3909.57,0.34391
3886.42,0.35274
3863.28,0.36158
3840.13,0.37159
3816.99,0.37388
3793.84,0.37387
3770.7,0.36983
3747.55,0.36097
3724.41,0.34537
3701.26,0.31343
3678.12,0.25310
3654.97,0.17636
3631.83,0.12353
3608.68,0.08994
3585.54,0.06772
3562.39,0.05617
3539.25,0.04798
3516.1,0.04346
3492.96,0.04046
3469.81,0.03919
3446.67,0.03784
3423.52,0.03806
3400.38,0.03875
3377.23,0.03852
3354.09,0.03984
3330.94,0.04165
3307.8,0.04449
3284.65,0.04499
3261.51,0.04871
3238.36,0.05164
3215.22,0.05629
3192.07,0.06111
3168.93,0.06698
3145.78,0.07412
3122.64,0.08165
3099.49,0.08971
3076.35,0.09585
3053.2,0.10320
3030.06,0.10861
3006.91,0.10494
2983.77,0.09254
2960.62,0.07096
2937.48,0.06142
2914.33,0.05994
2891.19,0.06193
2868.04,0.06574
2844.9,0.07740
2821.75,0.09931
2798.61,0.11656
2775.46,0.12483
2752.32,0.12881
2729.17,0.13160
2706.03,0.13939
2682.88,0.14962
2659.74,0.15660
2636.59,0.16464
2613.45,0.17207
2590.3,0.17892
2567.16,0.18249
2544.02,0.18345
2520.87,0.18915
2497.73,0.19897
2474.58,0.20929
2451.44,0.21859
2428.29,0.22996
2405.15,0.24230
2382,0.25298
2358.86,0.26177
2335.71,0.26840
2312.57,0.27053
2289.42,0.26820
2266.28,0.26251
2243.13,0.25701
2219.99,0.25399
2196.84,0.24951
2173.7,0.23598
2150.55,0.22492
2127.41,0.22223
2104.26,0.22706
2081.12,0.22944
2057.97,0.22529
2034.83,0.23152
2011.68,0.24518
1988.54,0.25382
1965.39,0.26072
1942.25,0.27216
1919.1,0.27927
1895.96,0.27804
1872.81,0.27557
1849.67,0.26993
1826.52,0.25746
1803.38,0.23484
1780.23,0.19116
1757.09,0.10035
1733.94,0.07031
1710.8,0.08907
1687.65,0.09076
1664.51,0.06762
1641.36,0.06906
1618.22,0.06874
1595.07,0.06349
1571.93,0.09338
1548.78,0.11109
1525.64,0.07594
1502.49,0.05310
1479.35,0.05747
1456.2,0.04465
1433.06,0.04188
1409.91,0.04637
1386.77,0.04252
1363.62,0.04182
1340.48,0.04251
1317.33,0.04123
1294.19,0.04175
1271.04,0.03797
1247.9,0.04047
1224.75,0.04093
1201.61,0.04073
1178.46,0.03423
1155.32,0.03837
1132.17,0.03210
1109.03,0.03615
1085.88,0.03717
1062.74,0.05505
1039.59,0.05698
1016.45,0.06400
993.304,0.06618
970.159,0.07979
947.014,0.09121
923.869,0.09839
900.724,0.08070
877.579,0.08827
854.434,0.09419
831.289,0.09217
808.144,0.07794
784.999,0.07764
761.854,0.07128
738.709,0.06515
715.565,0.05739
692.42,0.05359
669.275,0.05056
646.13,0.04963
622.985,0.04782
599.84,0.05116