File: 01_Data/Engineered_Wood_Furniture/Cone/Engineered_Wood_Furniture_HRRPUA_25.csv
Time after Ignition,Engineered_Wood_Furniture_R1,Engineered_Wood_Furniture_R2,Engineered_Wood_Furniture_R3,Mean,Std. Dev.
0.0,18.9,35.8,16.6,23.8,10.5
4.0,146.0,164.3,118.4,142.9,23.1
8.0,257.3,234.9,267.4,253.2,16.7
12.0,282.4,256.4,303.3,280.7,23.5
16.0,234.0,246.4,263.2,247.9,14.7
20.0,203.3,182.6,210.4,198.8,14.4
24.0,185.8,136.0,172.3,164.7,25.8
28.0,180.9,118.1,162.5,153.8,32.3
32.0,185.3,108.8,164.2,152.8,39.5
36.0,193.4,110.7,182.2,162.1,44.9
40.0,199.1,122.9,200.6,174.2,44.4
44.0,210.6,138.2,215.9,188.2,43.4
48.0,214.7,146.2,224.5,195.2,42.6
52.0,217.6,147.2,222.9,195.9,42.3
56.0,218.1,154.9,219.7,197.6,36.9
60.0,216.7,155.6,214.2,195.5,34.5
64.0,204.4,155.1,211.5,190.3,30.7
68.0,198.5,159.3,209.1,189.0,26.2
72.0,194.3,159.5,199.0,184.3,21.6
76.0,190.6,160.8,192.8,181.4,17.9
80.0,183.9,160.2,187.5,177.2,14.9
84.0,176.7,155.1,175.2,169.0,12.1
88.0,164.7,157.0,170.8,164.2,6.9
92.0,160.4,152.2,166.3,159.6,7.1
96.0,151.7,150.7,156.3,152.9,3.0
100.0,143.6,151.8,149.6,148.3,4.2
104.0,139.0,149.1,138.7,142.2,5.9
108.0,133.4,153.8,136.5,141.2,11.0
112.0,129.6,149.9,133.7,137.7,10.7
116.0,126.6,147.9,131.3,135.3,11.2
120.0,124.9,148.5,130.3,134.6,12.4
124.0,122.8,144.4,126.0,131.1,11.7
128.0,122.3,144.0,123.7,130.0,12.1
132.0,120.5,143.0,122.4,128.6,12.5
136.0,115.8,139.1,122.8,125.9,11.9
140.0,113.0,133.9,121.1,122.7,10.5
144.0,113.5,135.3,118.4,122.4,11.4
148.0,110.0,131.1,115.6,118.9,10.9
152.0,109.4,131.0,116.6,119.0,11.0
156.0,108.2,127.3,116.3,117.3,9.6
160.0,105.6,124.7,112.9,114.4,9.7
164.0,102.9,124.0,110.1,112.3,10.7
168.0,101.8,122.9,109.2,111.3,10.7
172.0,97.7,120.3,106.2,108.1,11.4
176.0,98.2,117.3,105.3,106.9,9.6
180.0,96.1,117.7,102.3,105.4,11.2
184.0,99.1,114.3,102.5,105.3,8.0
188.0,98.9,114.9,98.7,104.2,9.3
192.0,97.7,113.4,96.4,102.5,9.4
196.0,95.7,112.5,94.8,101.0,10.0
200.0,94.6,109.0,92.8,98.8,8.9
204.0,96.2,108.1,90.8,98.4,8.8
208.0,96.5,106.7,90.1,97.8,8.3
212.0,93.6,108.0,88.3,96.6,10.2
216.0,91.7,106.4,86.9,95.0,10.1
220.0,88.0,105.6,85.8,93.1,10.9
224.0,87.2,103.4,87.4,92.7,9.3
228.0,86.3,100.7,85.6,90.9,8.5
232.0,85.9,99.1,86.5,90.5,7.5
236.0,84.3,95.3,85.5,88.3,6.0
240.0,83.4,93.0,83.8,86.7,5.4
244.0,80.6,95.1,83.8,86.5,7.6
248.0,80.0,93.7,81.4,85.0,7.5
252.0,80.3,91.6,80.5,84.1,6.5
256.0,77.7,90.8,78.2,82.2,7.4
260.0,76.5,89.0,76.6,80.7,7.2
264.0,76.4,88.4,73.8,79.6,7.8
268.0,72.8,85.2,72.2,76.8,7.3
272.0,70.6,83.6,70.5,74.9,7.6
276.0,71.0,82.0,69.8,74.3,6.7
280.0,69.4,79.0,68.7,72.4,5.8
284.0,69.0,77.4,68.0,71.5,5.1
288.0,67.9,75.2,66.3,69.8,4.7
292.0,66.5,74.8,65.0,68.7,5.3
296.0,67.9,73.4,63.3,68.2,5.1
300.0,66.2,70.6,63.7,66.8,3.5
304.0,64.9,71.5,63.5,66.6,4.3
308.0,64.0,72.9,63.2,66.7,5.4
312.0,63.4,72.5,61.6,65.9,5.8
316.0,63.0,69.4,62.0,64.8,4.0
320.0,62.2,66.9,60.0,63.0,3.5
324.0,62.5,64.7,59.9,62.4,2.4
328.0,61.6,62.6,59.8,61.3,1.4
332.0,60.4,62.4,59.0,60.6,1.7
336.0,59.1,62.9,58.1,60.0,2.5
340.0,60.5,60.8,58.1,59.8,1.4
344.0,60.0,62.0,58.6,60.2,1.7
348.0,62.0,60.1,57.9,60.0,2.0
352.0,61.8,59.2,59.8,60.3,1.3
356.0,61.8,57.7,59.5,59.6,2.1
360.0,61.5,58.3,59.2,59.7,1.6
364.0,63.1,58.7,58.7,60.2,2.5
368.0,63.1,57.8,57.3,59.4,3.2
372.0,64.0,58.0,57.0,59.7,3.8
376.0,63.5,58.7,58.2,60.2,2.9
380.0,63.0,57.1,58.0,59.4,3.1
384.0,64.3,56.0,58.2,59.5,4.3
388.0,63.7,55.1,58.0,58.9,4.3
392.0,64.3,55.0,56.9,58.7,4.9
396.0,65.2,55.1,55.3,58.5,5.8
400.0,64.9,53.9,56.8,58.6,5.7
404.0,65.5,54.2,56.9,58.9,5.9
408.0,66.6,54.9,54.6,58.7,6.8
412.0,68.3,55.2,55.7,59.7,7.4
416.0,69.2,55.2,56.3,60.2,7.8
420.0,68.7,54.8,56.7,60.1,7.6
424.0,70.3,54.2,57.3,60.6,8.5
428.0,69.9,54.8,57.4,60.7,8.1
432.0,70.6,53.9,57.0,60.5,8.9
436.0,70.7,52.6,57.4,60.2,9.4
440.0,72.4,52.7,59.0,61.4,10.0
444.0,72.0,52.4,59.2,61.2,10.0
448.0,71.6,51.7,59.8,61.0,10.0
452.0,71.4,52.2,60.2,61.3,9.6
456.0,71.1,51.1,60.1,60.8,10.0
460.0,72.7,50.9,61.4,61.7,10.9
464.0,73.4,50.1,62.3,61.9,11.7
468.0,71.6,51.6,63.8,62.3,10.1
472.0,72.0,50.7,62.4,61.7,10.7
476.0,73.1,51.1,62.9,62.4,11.0
480.0,73.1,52.9,63.8,63.3,10.1
484.0,74.1,54.1,66.7,65.0,10.1
488.0,74.4,53.3,67.7,65.2,10.8
492.0,74.9,53.3,68.4,65.6,11.1
496.0,75.5,53.1,69.3,66.0,11.6
500.0,75.1,54.7,70.3,66.7,10.7
504.0,75.9,54.0,71.7,67.2,11.6
508.0,76.3,54.1,72.4,67.6,11.9
512.0,77.1,53.8,74.3,68.4,12.7
516.0,77.3,54.5,74.9,68.9,12.5
520.0,75.7,55.5,78.3,69.8,12.5
524.0,76.9,56.3,76.2,69.8,11.7
528.0,77.7,57.4,75.8,70.3,11.2
532.0,78.8,56.8,75.9,70.5,12.0
536.0,77.1,57.7,76.5,70.4,11.0
540.0,77.5,57.8,77.7,71.0,11.4
544.0,76.6,58.8,78.6,71.3,10.9
548.0,77.4,59.1,79.8,72.1,11.3
552.0,78.9,59.9,79.7,72.8,11.2
556.0,77.5,59.9,78.9,72.1,10.6
560.0,78.3,61.7,80.9,73.6,10.4
564.0,78.1,63.0,82.5,74.5,10.2
568.0,79.3,63.9,82.9,75.4,10.1
572.0,77.8,64.7,83.3,75.3,9.6
576.0,79.8,66.2,86.2,77.4,10.3
580.0,81.5,65.1,85.4,77.3,10.8
584.0,82.7,65.3,85.3,77.8,10.9
588.0,82.3,68.2,86.3,79.0,9.5
592.0,82.5,68.6,85.7,78.9,9.1
596.0,84.0,68.2,88.0,80.1,10.4
600.0,84.3,67.3,88.2,80.0,11.1
604.0,85.2,69.0,88.6,80.9,10.5
608.0,85.2,71.1,89.6,82.0,9.7
612.0,85.7,72.1,90.8,82.8,9.7
616.0,87.1,72.2,90.9,83.4,9.9
620.0,89.5,72.8,91.6,84.6,10.3
624.0,91.3,73.9,91.8,85.7,10.2
628.0,90.7,75.8,92.3,86.3,9.1
632.0,93.5,74.8,95.2,87.8,11.3
636.0,93.6,76.4,95.1,88.4,10.4
640.0,94.6,77.8,95.5,89.3,10.0
644.0,96.9,78.8,95.4,90.4,10.1
648.0,99.6,79.7,96.3,91.9,10.6
652.0,101.4,80.6,97.3,93.1,11.0
656.0,101.7,81.6,97.0,93.4,10.5
660.0,102.1,81.7,98.5,94.1,10.9
664.0,103.8,81.9,100.3,95.3,11.7
668.0,106.1,82.4,104.2,97.6,13.2
672.0,107.8,83.5,102.7,98.0,12.8
676.0,111.5,83.2,105.8,100.2,15.0
680.0,112.2,86.6,109.1,102.6,14.0
684.0,116.1,86.6,108.4,103.7,15.3
688.0,120.7,86.6,110.4,105.9,17.5
692.0,120.5,86.0,111.7,106.1,17.9
696.0,124.8,86.2,112.4,107.8,19.7
700.0,126.9,87.3,113.5,109.2,20.1
704.0,129.0,89.4,117.2,111.9,20.3
708.0,133.2,90.0,118.0,113.7,21.9
712.0,133.7,90.7,118.3,114.2,21.8
716.0,137.1,91.9,124.1,117.7,23.3
720.0,139.7,93.5,126.4,119.9,23.8
724.0,140.6,94.6,126.8,120.7,23.6
728.0,143.8,97.5,128.5,123.2,23.6
732.0,144.2,97.5,131.0,124.2,24.1
736.0,149.1,98.9,131.9,126.7,25.5
740.0,150.5,102.2,133.9,128.9,24.5
744.0,151.2,101.8,137.0,130.0,25.4
748.0,155.2,105.7,139.9,133.6,25.4
752.0,157.0,105.7,141.2,134.7,26.3
756.0,159.2,107.4,145.2,137.3,26.8
760.0,161.1,108.7,145.6,138.5,26.9
764.0,165.1,110.0,148.9,141.3,28.3
768.0,166.4,112.4,148.8,142.5,27.5
772.0,167.6,115.5,151.4,144.8,26.7
776.0,169.6,119.6,156.5,148.6,25.9
780.0,171.2,118.9,157.3,149.2,27.1
784.0,176.2,124.4,157.8,152.8,26.2
788.0,175.2,125.9,162.6,154.6,25.6
792.0,178.6,130.3,161.2,156.7,24.5
796.0,176.5,135.4,168.6,160.2,21.8
800.0,180.4,136.2,170.7,162.5,23.2
804.0,180.6,136.8,170.7,162.7,23.0
808.0,185.8,141.8,171.6,166.4,22.5
812.0,186.0,145.8,177.4,169.7,21.1
816.0,188.1,153.1,177.5,172.9,18.0
820.0,186.7,158.1,179.6,174.8,14.9
824.0,185.9,162.3,185.8,178.0,13.6
828.0,188.1,163.0,181.1,177.4,13.0
832.0,191.4,169.3,182.7,181.1,11.2
836.0,189.4,174.9,186.3,183.5,7.6
840.0,193.1,179.7,185.2,186.0,6.7
844.0,191.3,180.6,186.7,186.2,5.4
848.0,190.6,187.7,188.4,188.9,1.5
852.0,190.8,189.2,186.2,188.7,2.3
856.0,192.3,194.6,186.7,191.2,4.0
860.0,191.0,197.8,184.6,191.2,6.6
864.0,191.5,198.2,187.7,192.5,5.3
868.0,192.7,202.7,187.0,194.1,7.9
872.0,195.8,203.6,189.3,196.3,7.2
876.0,192.8,206.6,183.0,194.1,11.8
880.0,195.8,202.5,181.9,193.4,10.5
884.0,192.5,203.4,184.0,193.3,9.8
888.0,194.6,204.7,179.4,192.9,12.7
892.0,192.7,207.3,179.1,193.1,14.1
896.0,193.6,211.0,181.2,195.3,14.9
900.0,191.2,210.3,179.8,193.7,15.4
904.0,192.2,209.1,176.8,192.7,16.2
908.0,186.6,214.0,174.9,191.8,20.0
912.0,186.4,209.4,177.9,191.2,16.3
916.0,178.9,210.6,173.5,187.7,20.0
920.0,180.9,210.4,174.5,188.6,19.1
924.0,178.4,214.0,173.2,188.5,22.2
928.0,171.4,211.9,177.4,186.9,21.9
932.0,172.1,209.5,176.4,186.0,20.5
936.0,167.9,209.8,176.0,184.6,22.2
940.0,166.9,213.0,177.1,185.6,24.2
944.0,163.9,208.1,176.0,182.6,22.9
948.0,166.4,208.6,178.8,184.6,21.7
952.0,161.5,207.2,171.9,180.2,24.0
956.0,160.8,207.6,175.9,181.4,23.9
960.0,155.9,209.4,173.6,179.6,27.3
964.0,149.9,205.3,174.1,176.4,27.8
968.0,145.5,205.7,176.7,176.0,30.1
972.0,139.5,205.2,173.6,172.8,32.9
976.0,133.3,198.5,171.3,167.7,32.7
980.0,123.3,194.1,172.7,163.4,36.3
984.0,115.1,190.4,170.9,158.8,39.1
988.0,102.1,183.7,163.2,149.7,42.4
992.0,90.8,178.0,162.4,143.8,46.5
996.0,85.2,171.8,146.2,134.4,44.5
1000.0,79.1,164.7,138.2,127.3,43.8
1004.0,76.5,156.7,127.6,120.3,40.6
1008.0,74.5,146.8,117.2,112.8,36.4
1012.0,71.0,137.7,103.1,104.0,33.4
1016.0,67.0,126.3,94.8,96.0,29.7
1020.0,65.6,113.7,85.7,88.3,24.1
1024.0,65.6,103.3,79.2,82.7,19.1
1028.0,63.6,91.9,75.3,76.9,14.3
1032.0,62.7,83.7,70.7,72.4,10.6
1036.0,62.2,80.9,66.6,69.9,9.8
1040.0,61.7,74.7,62.9,66.5,7.2
1044.0,62.5,69.2,59.8,63.9,4.8
1048.0,64.7,64.0,56.5,61.7,4.6
1052.0,67.3,60.0,54.8,60.7,6.2
1056.0,67.3,58.3,54.5,60.0,6.5
1060.0,65.5,55.4,52.6,57.8,6.8
1064.0,63.6,52.8,51.8,56.1,6.5
1068.0,63.5,51.6,50.3,55.1,7.3
1072.0,62.8,50.6,49.3,54.2,7.5
1076.0,63.4,49.6,48.7,53.9,8.2
1080.0,63.5,48.6,47.9,53.3,8.8
1084.0,64.0,49.2,46.7,53.3,9.4
1088.0,64.2,48.6,47.1,53.3,9.5
1092.0,65.0,48.1,47.1,53.4,10.1
1096.0,63.4,47.7,45.8,52.3,9.6
1100.0,63.5,46.4,46.1,52.0,10.0
1104.0,63.6,43.5,43.3,50.1,11.6
1108.0,64.2,42.3,,53.3,15.5
1112.0,63.1,40.8,,51.9,15.8
1116.0,61.7,38.7,,50.2,16.3
1120.0,61.6,,,61.6,
1124.0,60.7,,,60.7,
1128.0,59.8,,,59.8,
1132.0,61.0,,,61.0,
1136.0,59.3,,,59.3,
1140.0,54.0,,,54.0,
1144.0,52.2,,,52.2,
1148.0,50.8,,,50.8,
1149.25,51.2,,,51.2,