File: 01_Data/PLA_3D_Printer_Filament/FTIR/IS/PLA_3D_Printer_Filament_IS_T_221108_R6.dpt
7497.03,0.02944
7473.89,0.01964
7450.74,0.02115
7427.6,0.01876
7404.45,0.02741
7381.31,0.03238
7358.16,0.02168
7335.02,0.02486
7311.87,0.01398
7288.73,0.02451
7265.58,0.01679
7242.44,0.02730
7219.29,0.02571
7196.15,0.02615
7173,0.02544
7149.86,0.02239
7126.71,0.02193
7103.57,0.02278
7080.42,0.02693
7057.28,0.02090
7034.13,0.02917
7010.99,0.02498
6987.84,0.02163
6964.7,0.02803
6941.55,0.02723
6918.41,0.01874
6895.26,0.01845
6872.12,0.02315
6848.97,0.02880
6825.83,0.02270
6802.68,0.01908
6779.54,0.01953
6756.39,0.02171
6733.25,0.02302
6710.1,0.02717
6686.96,0.02081
6663.82,0.02275
6640.67,0.02269
6617.53,0.02335
6594.38,0.02010
6571.24,0.02363
6548.09,0.02247
6524.95,0.01992
6501.8,0.02199
6478.66,0.02006
6455.51,0.02064
6432.37,0.02005
6409.22,0.02156
6386.08,0.02013
6362.93,0.01884
6339.79,0.02017
6316.64,0.02065
6293.5,0.02429
6270.35,0.02215
6247.21,0.01994
6224.06,0.01951
6200.92,0.02053
6177.77,0.02334
6154.63,0.02446
6131.48,0.02500
6108.34,0.02142
6085.19,0.02255
6062.05,0.02011
6038.9,0.02094
6015.76,0.02013
5992.61,0.02511
5969.47,0.02265
5946.32,0.02127
5923.18,0.01853
5900.03,0.02002
5876.89,0.01894
5853.74,0.01992
5830.6,0.02237
5807.45,0.02214
5784.31,0.02123
5761.16,0.02050
5738.02,0.02355
5714.87,0.02240
5691.73,0.02288
5668.58,0.02056
5645.44,0.02167
5622.29,0.02296
5599.15,0.02321
5576,0.02106
5552.86,0.02018
5529.71,0.01924
5506.57,0.02140
5483.42,0.02052
5460.28,0.02107
5437.13,0.02310
5413.99,0.02227
5390.84,0.01955
5367.7,0.02260
5344.55,0.02254
5321.41,0.02252
5298.26,0.02141
5275.12,0.02105
5251.97,0.02135
5228.83,0.02266
5205.68,0.02120
5182.54,0.02118
5159.39,0.02196
5136.25,0.02204
5113.1,0.02254
5089.96,0.02177
5066.81,0.02155
5043.67,0.02232
5020.52,0.02211
4997.38,0.02137
4974.23,0.02231
4951.09,0.02045
4927.94,0.02192
4904.8,0.02141
4881.65,0.02157
4858.51,0.02248
4835.36,0.02168
4812.22,0.02338
4789.07,0.02298
4765.93,0.02152
4742.78,0.02233
4719.64,0.02314
4696.49,0.02197
4673.35,0.02229
4650.2,0.02137
4627.06,0.02171
4603.92,0.02173
4580.77,0.02194
4557.63,0.02276
4534.48,0.02210
4511.34,0.02177
4488.19,0.02241
4465.05,0.02263
4441.9,0.02327
4418.76,0.02224
4395.61,0.02202
4372.47,0.02217
4349.32,0.02210
4326.18,0.02274
4303.03,0.02207
4279.89,0.02251
4256.74,0.02155
4233.6,0.02196
4210.45,0.02273
4187.31,0.02185
4164.16,0.02253
4141.02,0.02235
4117.87,0.02214
4094.73,0.02316
4071.58,0.02256
4048.44,0.02239
4025.29,0.02219
4002.15,0.02235
3979,0.02258
3955.86,0.02275
3932.71,0.02291
3909.57,0.02275
3886.42,0.02340
3863.28,0.02323
3840.13,0.02280
3816.99,0.02233
3793.84,0.02311
3770.7,0.02268
3747.55,0.02222
3724.41,0.02270
3701.26,0.02207
3678.12,0.02203
3654.97,0.02256
3631.83,0.02283
3608.68,0.02237
3585.54,0.02180
3562.39,0.02159
3539.25,0.02160
3516.1,0.02126
3492.96,0.02043
3469.81,0.02018
3446.67,0.02073
3423.52,0.02058
3400.38,0.02014
3377.23,0.01964
3354.09,0.02130
3330.94,0.02019
3307.8,0.01991
3284.65,0.02071
3261.51,0.01993
3238.36,0.02046
3215.22,0.02093
3192.07,0.02094
3168.93,0.02076
3145.78,0.02081
3122.64,0.02082
3099.49,0.02090
3076.35,0.02079
3053.2,0.02070
3030.06,0.02087
3006.91,0.02038
2983.77,0.01973
2960.62,0.01968
2937.48,0.01969
2914.33,0.02031
2891.19,0.02079
2868.04,0.02030
2844.9,0.02103
2821.75,0.02146
2798.61,0.02151
2775.46,0.02137
2752.32,0.02138
2729.17,0.02171
2706.03,0.02147
2682.88,0.02148
2659.74,0.02180
2636.59,0.02147
2613.45,0.02159
2590.3,0.02160
2567.16,0.02137
2544.02,0.02158
2520.87,0.02150
2497.73,0.02169
2474.58,0.02158
2451.44,0.02186
2428.29,0.02142
2405.15,0.02192
2382,0.02152
2358.86,0.02171
2335.71,0.02191
2312.57,0.02153
2289.42,0.02154
2266.28,0.02124
2243.13,0.02130
2219.99,0.02127
2196.84,0.02124
2173.7,0.02150
2150.55,0.02127
2127.41,0.02093
2104.26,0.02134
2081.12,0.02129
2057.97,0.02094
2034.83,0.02106
2011.68,0.02149
1988.54,0.02165
1965.39,0.02091
1942.25,0.02129
1919.1,0.02134
1895.96,0.02068
1872.81,0.02076
1849.67,0.02088
1826.52,0.02022
1803.38,0.01995
1780.23,0.01936
1757.09,0.01794
1733.94,0.02021
1710.8,0.02115
1687.65,0.01968
1664.51,0.01891
1641.36,0.01886
1618.22,0.01893
1595.07,0.01932
1571.93,0.01888
1548.78,0.01830
1525.64,0.01907
1502.49,0.01937
1479.35,0.01870
1456.2,0.01880
1433.06,0.01910
1409.91,0.01903
1386.77,0.01823
1363.62,0.01847
1340.48,0.01836
1317.33,0.01740
1294.19,0.01861
1271.04,0.01961
1247.9,0.02082
1224.75,0.01959
1201.61,0.01931
1178.46,0.01842
1155.32,0.01788
1132.17,0.01764
1109.03,0.01868
1085.88,0.01863
1062.74,0.02025
1039.59,0.02089
1016.45,0.01971
993.304,0.02179
970.159,0.02063
947.014,0.02013
923.869,0.01919
900.724,0.01974
877.579,0.01928
854.434,0.01923
831.289,0.01955
808.144,0.01903
784.999,0.01874
761.854,0.01796
738.709,0.01837
715.565,0.01853
692.42,0.01788
669.275,0.01681
646.13,0.01645
622.985,0.01713
599.84,0.01449