File: 01_Data/PLA_3D_Printer_Filament/FTIR/IS/PLA_3D_Printer_Filament_IS_S_221108_R6.dpt
7497.03,0.04504
7473.89,0.05518
7450.74,0.05265
7427.6,0.05106
7404.45,0.05161
7381.31,0.04663
7358.16,0.05521
7335.02,0.05050
7311.87,0.05990
7288.73,0.04758
7265.58,0.05584
7242.44,0.05737
7219.29,0.04893
7196.15,0.05480
7173,0.05730
7149.86,0.04495
7126.71,0.05063
7103.57,0.05545
7080.42,0.04952
7057.28,0.04611
7034.13,0.04980
7010.99,0.04605
6987.84,0.04549
6964.7,0.05263
6941.55,0.05051
6918.41,0.04814
6895.26,0.05090
6872.12,0.05212
6848.97,0.04668
6825.83,0.05809
6802.68,0.04590
6779.54,0.04775
6756.39,0.04857
6733.25,0.04489
6710.1,0.04877
6686.96,0.05321
6663.82,0.05148
6640.67,0.05210
6617.53,0.05019
6594.38,0.04751
6571.24,0.04860
6548.09,0.05122
6524.95,0.05014
6501.8,0.05031
6478.66,0.04952
6455.51,0.04964
6432.37,0.05073
6409.22,0.04293
6386.08,0.05107
6362.93,0.04915
6339.79,0.04985
6316.64,0.05002
6293.5,0.04784
6270.35,0.05011
6247.21,0.05030
6224.06,0.04548
6200.92,0.04704
6177.77,0.04812
6154.63,0.04758
6131.48,0.04961
6108.34,0.04868
6085.19,0.04824
6062.05,0.05177
6038.9,0.05377
6015.76,0.04942
5992.61,0.05039
5969.47,0.05217
5946.32,0.04815
5923.18,0.04559
5900.03,0.04744
5876.89,0.04916
5853.74,0.04913
5830.6,0.04739
5807.45,0.04811
5784.31,0.04855
5761.16,0.04746
5738.02,0.04876
5714.87,0.04776
5691.73,0.04927
5668.58,0.04880
5645.44,0.04863
5622.29,0.04942
5599.15,0.04945
5576,0.04903
5552.86,0.04849
5529.71,0.04897
5506.57,0.04820
5483.42,0.05161
5460.28,0.05005
5437.13,0.04670
5413.99,0.05016
5390.84,0.04865
5367.7,0.04903
5344.55,0.04940
5321.41,0.04988
5298.26,0.04891
5275.12,0.04744
5251.97,0.04788
5228.83,0.04582
5205.68,0.04813
5182.54,0.04810
5159.39,0.04763
5136.25,0.04960
5113.1,0.04873
5089.96,0.04828
5066.81,0.04779
5043.67,0.04999
5020.52,0.04864
4997.38,0.05000
4974.23,0.04878
4951.09,0.04900
4927.94,0.04774
4904.8,0.04858
4881.65,0.04967
4858.51,0.04723
4835.36,0.04738
4812.22,0.04737
4789.07,0.04682
4765.93,0.04768
4742.78,0.04686
4719.64,0.04710
4696.49,0.04641
4673.35,0.04800
4650.2,0.04762
4627.06,0.04741
4603.92,0.04776
4580.77,0.04748
4557.63,0.04832
4534.48,0.04814
4511.34,0.04799
4488.19,0.04778
4465.05,0.04688
4441.9,0.04600
4418.76,0.04671
4395.61,0.04593
4372.47,0.04516
4349.32,0.04559
4326.18,0.04540
4303.03,0.04426
4279.89,0.04562
4256.74,0.04564
4233.6,0.04633
4210.45,0.04604
4187.31,0.04664
4164.16,0.04640
4141.02,0.04568
4117.87,0.04565
4094.73,0.04512
4071.58,0.04485
4048.44,0.04476
4025.29,0.04396
4002.15,0.04499
3979,0.04505
3955.86,0.04536
3932.71,0.04528
3909.57,0.04534
3886.42,0.04665
3863.28,0.04608
3840.13,0.04665
3816.99,0.04708
3793.84,0.04671
3770.7,0.04659
3747.55,0.04594
3724.41,0.04557
3701.26,0.04443
3678.12,0.04400
3654.97,0.04244
3631.83,0.04156
3608.68,0.04194
3585.54,0.04048
3562.39,0.04005
3539.25,0.03951
3516.1,0.03924
3492.96,0.03907
3469.81,0.03918
3446.67,0.04027
3423.52,0.03982
3400.38,0.03921
3377.23,0.04027
3354.09,0.03939
3330.94,0.03946
3307.8,0.03886
3284.65,0.03872
3261.51,0.03989
3238.36,0.03917
3215.22,0.03921
3192.07,0.03928
3168.93,0.03964
3145.78,0.03994
3122.64,0.03978
3099.49,0.03976
3076.35,0.03911
3053.2,0.03937
3030.06,0.03910
3006.91,0.03739
2983.77,0.03819
2960.62,0.03817
2937.48,0.03953
2914.33,0.04159
2891.19,0.04025
2868.04,0.03970
2844.9,0.04131
2821.75,0.04080
2798.61,0.04127
2775.46,0.04121
2752.32,0.04078
2729.17,0.04112
2706.03,0.04086
2682.88,0.04101
2659.74,0.04097
2636.59,0.04043
2613.45,0.04095
2590.3,0.04098
2567.16,0.04098
2544.02,0.04095
2520.87,0.04050
2497.73,0.04070
2474.58,0.04124
2451.44,0.04141
2428.29,0.04103
2405.15,0.04136
2382,0.04085
2358.86,0.04150
2335.71,0.04125
2312.57,0.04126
2289.42,0.04111
2266.28,0.04120
2243.13,0.04088
2219.99,0.04107
2196.84,0.04077
2173.7,0.04027
2150.55,0.03985
2127.41,0.03975
2104.26,0.03922
2081.12,0.03915
2057.97,0.03945
2034.83,0.03944
2011.68,0.03932
1988.54,0.03931
1965.39,0.03926
1942.25,0.03887
1919.1,0.03831
1895.96,0.03755
1872.81,0.03686
1849.67,0.03503
1826.52,0.03294
1803.38,0.02869
1780.23,0.02325
1757.09,0.07415
1733.94,0.06061
1710.8,0.04928
1687.65,0.04381
1664.51,0.04138
1641.36,0.04113
1618.22,0.04041
1595.07,0.03928
1571.93,0.03863
1548.78,0.03764
1525.64,0.03723
1502.49,0.03551
1479.35,0.03314
1456.2,0.03395
1433.06,0.03749
1409.91,0.03338
1386.77,0.03059
1363.62,0.03436
1340.48,0.03500
1317.33,0.03241
1294.19,0.03078
1271.04,0.02911
1247.9,0.02911
1224.75,0.02642
1201.61,0.03870
1178.46,0.07007
1155.32,0.03702
1132.17,0.04398
1109.03,0.04145
1085.88,0.09220
1062.74,0.06739
1039.59,0.06705
1016.45,0.06966
993.304,0.06247
970.159,0.05603
947.014,0.05356
923.869,0.05093
900.724,0.04838
877.579,0.04671
854.434,0.04995
831.289,0.04804
808.144,0.04696
784.999,0.04383
761.854,0.04367
738.709,0.04704
715.565,0.04471
692.42,0.04554
669.275,0.04741
646.13,0.04398
622.985,0.04345
599.84,0.04280