File: 01_Data/PLA_3D_Printer_Filament/FTIR/IS/PLA_3D_Printer_Filament_IS_S_221108_R2.dpt
7497.03,0.05932
7473.89,0.04900
7450.74,0.05824
7427.6,0.05015
7404.45,0.04105
7381.31,0.05637
7358.16,0.04889
7335.02,0.05402
7311.87,0.05307
7288.73,0.04619
7265.58,0.05560
7242.44,0.04678
7219.29,0.04987
7196.15,0.04703
7173,0.04708
7149.86,0.05089
7126.71,0.04790
7103.57,0.04459
7080.42,0.05413
7057.28,0.05230
7034.13,0.05061
7010.99,0.05291
6987.84,0.05207
6964.7,0.05294
6941.55,0.04703
6918.41,0.05192
6895.26,0.04927
6872.12,0.04901
6848.97,0.04537
6825.83,0.05336
6802.68,0.05033
6779.54,0.04906
6756.39,0.04943
6733.25,0.04697
6710.1,0.04961
6686.96,0.04702
6663.82,0.04601
6640.67,0.04751
6617.53,0.04973
6594.38,0.04845
6571.24,0.05282
6548.09,0.04822
6524.95,0.04712
6501.8,0.04713
6478.66,0.05213
6455.51,0.04994
6432.37,0.04538
6409.22,0.04872
6386.08,0.04823
6362.93,0.04650
6339.79,0.04857
6316.64,0.04441
6293.5,0.05102
6270.35,0.04795
6247.21,0.04794
6224.06,0.04978
6200.92,0.04716
6177.77,0.04833
6154.63,0.04696
6131.48,0.04449
6108.34,0.05313
6085.19,0.04642
6062.05,0.04676
6038.9,0.04722
6015.76,0.04676
5992.61,0.04578
5969.47,0.04851
5946.32,0.04966
5923.18,0.04726
5900.03,0.04998
5876.89,0.04882
5853.74,0.04871
5830.6,0.04770
5807.45,0.04950
5784.31,0.04689
5761.16,0.04847
5738.02,0.05306
5714.87,0.05017
5691.73,0.04867
5668.58,0.04820
5645.44,0.04908
5622.29,0.04932
5599.15,0.04964
5576,0.04877
5552.86,0.05092
5529.71,0.04783
5506.57,0.04893
5483.42,0.04981
5460.28,0.04949
5437.13,0.04950
5413.99,0.04933
5390.84,0.04958
5367.7,0.04912
5344.55,0.05041
5321.41,0.04907
5298.26,0.04726
5275.12,0.04964
5251.97,0.04798
5228.83,0.04866
5205.68,0.04837
5182.54,0.04754
5159.39,0.04750
5136.25,0.04901
5113.1,0.04846
5089.96,0.04777
5066.81,0.04860
5043.67,0.04805
5020.52,0.04833
4997.38,0.04797
4974.23,0.04841
4951.09,0.04756
4927.94,0.04906
4904.8,0.04734
4881.65,0.04861
4858.51,0.04739
4835.36,0.04823
4812.22,0.04779
4789.07,0.04643
4765.93,0.04676
4742.78,0.04598
4719.64,0.04675
4696.49,0.04667
4673.35,0.04755
4650.2,0.04769
4627.06,0.04794
4603.92,0.04873
4580.77,0.04763
4557.63,0.04797
4534.48,0.04832
4511.34,0.04767
4488.19,0.04765
4465.05,0.04627
4441.9,0.04568
4418.76,0.04562
4395.61,0.04558
4372.47,0.04522
4349.32,0.04483
4326.18,0.04460
4303.03,0.04556
4279.89,0.04568
4256.74,0.04514
4233.6,0.04564
4210.45,0.04598
4187.31,0.04599
4164.16,0.04550
4141.02,0.04546
4117.87,0.04520
4094.73,0.04495
4071.58,0.04491
4048.44,0.04476
4025.29,0.04438
4002.15,0.04518
3979,0.04478
3955.86,0.04563
3932.71,0.04576
3909.57,0.04575
3886.42,0.04604
3863.28,0.04664
3840.13,0.04609
3816.99,0.04589
3793.84,0.04627
3770.7,0.04618
3747.55,0.04550
3724.41,0.04517
3701.26,0.04467
3678.12,0.04381
3654.97,0.04239
3631.83,0.04138
3608.68,0.04132
3585.54,0.04111
3562.39,0.04014
3539.25,0.03921
3516.1,0.03897
3492.96,0.03893
3469.81,0.04069
3446.67,0.04030
3423.52,0.04031
3400.38,0.03964
3377.23,0.03903
3354.09,0.04027
3330.94,0.03897
3307.8,0.04008
3284.65,0.03961
3261.51,0.03968
3238.36,0.04000
3215.22,0.03990
3192.07,0.04082
3168.93,0.03973
3145.78,0.03979
3122.64,0.04071
3099.49,0.03967
3076.35,0.03947
3053.2,0.03924
3030.06,0.03827
3006.91,0.03799
2983.77,0.03883
2960.62,0.03859
2937.48,0.03967
2914.33,0.04222
2891.19,0.04007
2868.04,0.03997
2844.9,0.04184
2821.75,0.04111
2798.61,0.04058
2775.46,0.04173
2752.32,0.04124
2729.17,0.04071
2706.03,0.04111
2682.88,0.04100
2659.74,0.04077
2636.59,0.04104
2613.45,0.04118
2590.3,0.04115
2567.16,0.04074
2544.02,0.04098
2520.87,0.04100
2497.73,0.04124
2474.58,0.04102
2451.44,0.04114
2428.29,0.04080
2405.15,0.04087
2382,0.04133
2358.86,0.04193
2335.71,0.04179
2312.57,0.04092
2289.42,0.04120
2266.28,0.04142
2243.13,0.04115
2219.99,0.04097
2196.84,0.04115
2173.7,0.04047
2150.55,0.03979
2127.41,0.03972
2104.26,0.03994
2081.12,0.03932
2057.97,0.04002
2034.83,0.03958
2011.68,0.03942
1988.54,0.03931
1965.39,0.03897
1942.25,0.03894
1919.1,0.03842
1895.96,0.03784
1872.81,0.03702
1849.67,0.03548
1826.52,0.03296
1803.38,0.02903
1780.23,0.02302
1757.09,0.07449
1733.94,0.06028
1710.8,0.04954
1687.65,0.04404
1664.51,0.04203
1641.36,0.04103
1618.22,0.04050
1595.07,0.03963
1571.93,0.03902
1548.78,0.03805
1525.64,0.03712
1502.49,0.03564
1479.35,0.03299
1456.2,0.03424
1433.06,0.03734
1409.91,0.03357
1386.77,0.03068
1363.62,0.03447
1340.48,0.03547
1317.33,0.03279
1294.19,0.03124
1271.04,0.03007
1247.9,0.02946
1224.75,0.02667
1201.61,0.03904
1178.46,0.07043
1155.32,0.03724
1132.17,0.04497
1109.03,0.04290
1085.88,0.09407
1062.74,0.06814
1039.59,0.06806
1016.45,0.07073
993.304,0.06370
970.159,0.05715
947.014,0.05412
923.869,0.05157
900.724,0.04963
877.579,0.04757
854.434,0.05040
831.289,0.04962
808.144,0.04749
784.999,0.04578
761.854,0.04435
738.709,0.04768
715.565,0.04564
692.42,0.04683
669.275,0.04827
646.13,0.04713
622.985,0.04530
599.84,0.04478