File: 01_Data/PLA_3D_Printer_Filament/FTIR/IS/PLA_3D_Printer_Filament_IS_S_221108_R7.dpt
7497.03,0.04998
7473.89,0.05160
7450.74,0.05934
7427.6,0.05054
7404.45,0.04785
7381.31,0.04968
7358.16,0.05370
7335.02,0.05189
7311.87,0.05233
7288.73,0.04967
7265.58,0.05703
7242.44,0.05518
7219.29,0.05240
7196.15,0.05240
7173,0.05391
7149.86,0.04754
7126.71,0.05858
7103.57,0.05279
7080.42,0.05297
7057.28,0.05423
7034.13,0.04585
7010.99,0.05540
6987.84,0.05003
6964.7,0.04959
6941.55,0.04753
6918.41,0.04937
6895.26,0.04695
6872.12,0.05040
6848.97,0.05324
6825.83,0.05275
6802.68,0.05005
6779.54,0.05082
6756.39,0.05091
6733.25,0.05204
6710.1,0.04845
6686.96,0.04947
6663.82,0.04468
6640.67,0.05254
6617.53,0.04617
6594.38,0.05202
6571.24,0.04724
6548.09,0.04859
6524.95,0.04917
6501.8,0.04796
6478.66,0.04673
6455.51,0.04608
6432.37,0.04868
6409.22,0.05076
6386.08,0.04849
6362.93,0.04864
6339.79,0.04850
6316.64,0.05008
6293.5,0.05054
6270.35,0.04779
6247.21,0.04837
6224.06,0.04730
6200.92,0.04947
6177.77,0.04534
6154.63,0.04987
6131.48,0.04978
6108.34,0.04964
6085.19,0.04861
6062.05,0.05088
6038.9,0.04684
6015.76,0.04883
5992.61,0.05219
5969.47,0.04784
5946.32,0.04949
5923.18,0.05006
5900.03,0.05017
5876.89,0.04937
5853.74,0.05007
5830.6,0.04836
5807.45,0.04803
5784.31,0.04786
5761.16,0.04821
5738.02,0.05030
5714.87,0.04911
5691.73,0.05029
5668.58,0.05035
5645.44,0.05014
5622.29,0.04858
5599.15,0.04815
5576,0.04798
5552.86,0.05039
5529.71,0.04888
5506.57,0.04983
5483.42,0.04924
5460.28,0.04914
5437.13,0.05020
5413.99,0.04983
5390.84,0.05031
5367.7,0.05069
5344.55,0.04961
5321.41,0.04953
5298.26,0.04797
5275.12,0.04931
5251.97,0.04976
5228.83,0.04863
5205.68,0.04935
5182.54,0.04692
5159.39,0.04971
5136.25,0.04811
5113.1,0.04898
5089.96,0.04827
5066.81,0.04919
5043.67,0.04941
5020.52,0.04961
4997.38,0.04860
4974.23,0.05005
4951.09,0.04890
4927.94,0.04966
4904.8,0.04927
4881.65,0.04827
4858.51,0.04875
4835.36,0.04860
4812.22,0.04752
4789.07,0.04723
4765.93,0.04695
4742.78,0.04776
4719.64,0.04686
4696.49,0.04749
4673.35,0.04769
4650.2,0.04852
4627.06,0.04865
4603.92,0.04835
4580.77,0.04846
4557.63,0.04821
4534.48,0.04755
4511.34,0.04882
4488.19,0.04847
4465.05,0.04861
4441.9,0.04579
4418.76,0.04754
4395.61,0.04662
4372.47,0.04620
4349.32,0.04542
4326.18,0.04707
4303.03,0.04600
4279.89,0.04583
4256.74,0.04677
4233.6,0.04595
4210.45,0.04587
4187.31,0.04619
4164.16,0.04642
4141.02,0.04569
4117.87,0.04565
4094.73,0.04617
4071.58,0.04484
4048.44,0.04501
4025.29,0.04562
4002.15,0.04501
3979,0.04523
3955.86,0.04538
3932.71,0.04636
3909.57,0.04591
3886.42,0.04630
3863.28,0.04637
3840.13,0.04738
3816.99,0.04693
3793.84,0.04707
3770.7,0.04674
3747.55,0.04677
3724.41,0.04607
3701.26,0.04531
3678.12,0.04460
3654.97,0.04345
3631.83,0.04249
3608.68,0.04182
3585.54,0.04100
3562.39,0.04066
3539.25,0.04055
3516.1,0.03945
3492.96,0.03855
3469.81,0.03964
3446.67,0.04063
3423.52,0.04039
3400.38,0.04021
3377.23,0.03988
3354.09,0.03998
3330.94,0.03960
3307.8,0.03930
3284.65,0.03958
3261.51,0.03974
3238.36,0.04035
3215.22,0.03952
3192.07,0.04033
3168.93,0.04016
3145.78,0.04005
3122.64,0.04008
3099.49,0.04029
3076.35,0.04018
3053.2,0.03979
3030.06,0.03900
3006.91,0.03770
2983.77,0.03856
2960.62,0.03842
2937.48,0.04071
2914.33,0.04208
2891.19,0.04091
2868.04,0.03993
2844.9,0.04198
2821.75,0.04124
2798.61,0.04184
2775.46,0.04178
2752.32,0.04187
2729.17,0.04186
2706.03,0.04207
2682.88,0.04170
2659.74,0.04157
2636.59,0.04168
2613.45,0.04175
2590.3,0.04142
2567.16,0.04176
2544.02,0.04150
2520.87,0.04133
2497.73,0.04120
2474.58,0.04157
2451.44,0.04158
2428.29,0.04151
2405.15,0.04168
2382,0.04141
2358.86,0.04195
2335.71,0.04209
2312.57,0.04192
2289.42,0.04170
2266.28,0.04159
2243.13,0.04132
2219.99,0.04133
2196.84,0.04154
2173.7,0.04109
2150.55,0.04046
2127.41,0.04012
2104.26,0.04021
2081.12,0.03991
2057.97,0.04007
2034.83,0.04019
2011.68,0.03997
1988.54,0.03952
1965.39,0.03951
1942.25,0.03935
1919.1,0.03879
1895.96,0.03802
1872.81,0.03714
1849.67,0.03593
1826.52,0.03333
1803.38,0.02893
1780.23,0.02308
1757.09,0.07485
1733.94,0.06127
1710.8,0.04964
1687.65,0.04437
1664.51,0.04201
1641.36,0.04176
1618.22,0.04071
1595.07,0.04029
1571.93,0.03910
1548.78,0.03824
1525.64,0.03769
1502.49,0.03604
1479.35,0.03322
1456.2,0.03425
1433.06,0.03770
1409.91,0.03385
1386.77,0.03046
1363.62,0.03477
1340.48,0.03598
1317.33,0.03308
1294.19,0.03097
1271.04,0.02963
1247.9,0.02898
1224.75,0.02671
1201.61,0.03896
1178.46,0.07110
1155.32,0.03741
1132.17,0.04473
1109.03,0.04258
1085.88,0.09392
1062.74,0.06818
1039.59,0.06751
1016.45,0.07047
993.304,0.06415
970.159,0.05656
947.014,0.05464
923.869,0.05197
900.724,0.04933
877.579,0.04654
854.434,0.04997
831.289,0.04929
808.144,0.04751
784.999,0.04486
761.854,0.04410
738.709,0.04619
715.565,0.04503
692.42,0.04613
669.275,0.04700
646.13,0.04351
622.985,0.04444
599.84,0.04286