File: 01_Data/PLA_3D_Printer_Filament/FTIR/IS/PLA_3D_Printer_Filament_IS_S_221108_R4.dpt
7497.03,0.05201
7473.89,0.04566
7450.74,0.04753
7427.6,0.04768
7404.45,0.04522
7381.31,0.05371
7358.16,0.05213
7335.02,0.05555
7311.87,0.05622
7288.73,0.04818
7265.58,0.05065
7242.44,0.04972
7219.29,0.03683
7196.15,0.05276
7173,0.05532
7149.86,0.05960
7126.71,0.04658
7103.57,0.04772
7080.42,0.04584
7057.28,0.04704
7034.13,0.04591
7010.99,0.05094
6987.84,0.04971
6964.7,0.04949
6941.55,0.05224
6918.41,0.05631
6895.26,0.04706
6872.12,0.05037
6848.97,0.04841
6825.83,0.05249
6802.68,0.04982
6779.54,0.05107
6756.39,0.05309
6733.25,0.04940
6710.1,0.05015
6686.96,0.04920
6663.82,0.04800
6640.67,0.04884
6617.53,0.04511
6594.38,0.04851
6571.24,0.04798
6548.09,0.05169
6524.95,0.04707
6501.8,0.04320
6478.66,0.04735
6455.51,0.04820
6432.37,0.04885
6409.22,0.05306
6386.08,0.05167
6362.93,0.05114
6339.79,0.04884
6316.64,0.04843
6293.5,0.04955
6270.35,0.04814
6247.21,0.05049
6224.06,0.04926
6200.92,0.04776
6177.77,0.04829
6154.63,0.05210
6131.48,0.04993
6108.34,0.04734
6085.19,0.05044
6062.05,0.04752
6038.9,0.04873
6015.76,0.04917
5992.61,0.04738
5969.47,0.04875
5946.32,0.04823
5923.18,0.04814
5900.03,0.05019
5876.89,0.05109
5853.74,0.04876
5830.6,0.04724
5807.45,0.04845
5784.31,0.04499
5761.16,0.04871
5738.02,0.04729
5714.87,0.04847
5691.73,0.04817
5668.58,0.04897
5645.44,0.05003
5622.29,0.04886
5599.15,0.04651
5576,0.04890
5552.86,0.05063
5529.71,0.04809
5506.57,0.04856
5483.42,0.04983
5460.28,0.05102
5437.13,0.04815
5413.99,0.04903
5390.84,0.04928
5367.7,0.04980
5344.55,0.05142
5321.41,0.04930
5298.26,0.04887
5275.12,0.04837
5251.97,0.04845
5228.83,0.04885
5205.68,0.04874
5182.54,0.04875
5159.39,0.04851
5136.25,0.04857
5113.1,0.04730
5089.96,0.04811
5066.81,0.04904
5043.67,0.04769
5020.52,0.04883
4997.38,0.04950
4974.23,0.04782
4951.09,0.04952
4927.94,0.04895
4904.8,0.04807
4881.65,0.04756
4858.51,0.04762
4835.36,0.04799
4812.22,0.04600
4789.07,0.04778
4765.93,0.04682
4742.78,0.04726
4719.64,0.04685
4696.49,0.04654
4673.35,0.04702
4650.2,0.04740
4627.06,0.04760
4603.92,0.04722
4580.77,0.04697
4557.63,0.04777
4534.48,0.04763
4511.34,0.04799
4488.19,0.04767
4465.05,0.04649
4441.9,0.04563
4418.76,0.04490
4395.61,0.04624
4372.47,0.04503
4349.32,0.04522
4326.18,0.04580
4303.03,0.04480
4279.89,0.04503
4256.74,0.04523
4233.6,0.04558
4210.45,0.04561
4187.31,0.04509
4164.16,0.04518
4141.02,0.04557
4117.87,0.04495
4094.73,0.04476
4071.58,0.04465
4048.44,0.04430
4025.29,0.04470
4002.15,0.04432
3979,0.04500
3955.86,0.04479
3932.71,0.04589
3909.57,0.04529
3886.42,0.04573
3863.28,0.04604
3840.13,0.04641
3816.99,0.04618
3793.84,0.04574
3770.7,0.04643
3747.55,0.04592
3724.41,0.04524
3701.26,0.04501
3678.12,0.04416
3654.97,0.04155
3631.83,0.04117
3608.68,0.04163
3585.54,0.04055
3562.39,0.03985
3539.25,0.03976
3516.1,0.03893
3492.96,0.03878
3469.81,0.03914
3446.67,0.04000
3423.52,0.03932
3400.38,0.03940
3377.23,0.03931
3354.09,0.03948
3330.94,0.03959
3307.8,0.03859
3284.65,0.03879
3261.51,0.03912
3238.36,0.03963
3215.22,0.03924
3192.07,0.03981
3168.93,0.03925
3145.78,0.03934
3122.64,0.03901
3099.49,0.04002
3076.35,0.03949
3053.2,0.03918
3030.06,0.03857
3006.91,0.03740
2983.77,0.03872
2960.62,0.03776
2937.48,0.04024
2914.33,0.04184
2891.19,0.03955
2868.04,0.03988
2844.9,0.04151
2821.75,0.04054
2798.61,0.04052
2775.46,0.04101
2752.32,0.04108
2729.17,0.04108
2706.03,0.04055
2682.88,0.04070
2659.74,0.04075
2636.59,0.04070
2613.45,0.04075
2590.3,0.04101
2567.16,0.04089
2544.02,0.04041
2520.87,0.04045
2497.73,0.04071
2474.58,0.04098
2451.44,0.04150
2428.29,0.04086
2405.15,0.04046
2382,0.04051
2358.86,0.04124
2335.71,0.04133
2312.57,0.04089
2289.42,0.04083
2266.28,0.04070
2243.13,0.04079
2219.99,0.04090
2196.84,0.04081
2173.7,0.04009
2150.55,0.03975
2127.41,0.03935
2104.26,0.03905
2081.12,0.03896
2057.97,0.03892
2034.83,0.03960
2011.68,0.03927
1988.54,0.03876
1965.39,0.03819
1942.25,0.03842
1919.1,0.03795
1895.96,0.03737
1872.81,0.03654
1849.67,0.03504
1826.52,0.03272
1803.38,0.02891
1780.23,0.02289
1757.09,0.07396
1733.94,0.06043
1710.8,0.04916
1687.65,0.04366
1664.51,0.04128
1641.36,0.04115
1618.22,0.04047
1595.07,0.03901
1571.93,0.03818
1548.78,0.03826
1525.64,0.03690
1502.49,0.03535
1479.35,0.03301
1456.2,0.03424
1433.06,0.03681
1409.91,0.03322
1386.77,0.03031
1363.62,0.03406
1340.48,0.03480
1317.33,0.03240
1294.19,0.03073
1271.04,0.02933
1247.9,0.02933
1224.75,0.02624
1201.61,0.03873
1178.46,0.07013
1155.32,0.03747
1132.17,0.04425
1109.03,0.04206
1085.88,0.09317
1062.74,0.06794
1039.59,0.06712
1016.45,0.06999
993.304,0.06398
970.159,0.05665
947.014,0.05370
923.869,0.05192
900.724,0.04919
877.579,0.04683
854.434,0.05027
831.289,0.04876
808.144,0.04731
784.999,0.04488
761.854,0.04432
738.709,0.04642
715.565,0.04447
692.42,0.04675
669.275,0.04923
646.13,0.04494
622.985,0.04335
599.84,0.04237