File: 01_Data/PLA_3D_Printer_Filament/FTIR/IS/PLA_3D_Printer_Filament_IS_S_221108_R1.dpt
7497.03,0.04882
7473.89,0.04384
7450.74,0.05769
7427.6,0.05412
7404.45,0.05807
7381.31,0.04800
7358.16,0.06136
7335.02,0.05230
7311.87,0.04509
7288.73,0.04093
7265.58,0.05043
7242.44,0.05962
7219.29,0.04475
7196.15,0.04875
7173,0.05349
7149.86,0.04912
7126.71,0.04696
7103.57,0.05062
7080.42,0.04984
7057.28,0.04925
7034.13,0.04565
7010.99,0.04830
6987.84,0.04895
6964.7,0.05131
6941.55,0.04575
6918.41,0.04939
6895.26,0.04985
6872.12,0.05127
6848.97,0.04477
6825.83,0.05204
6802.68,0.05189
6779.54,0.05181
6756.39,0.04472
6733.25,0.04909
6710.1,0.05254
6686.96,0.04911
6663.82,0.04876
6640.67,0.04930
6617.53,0.04791
6594.38,0.04778
6571.24,0.04602
6548.09,0.04984
6524.95,0.04845
6501.8,0.04897
6478.66,0.04438
6455.51,0.04755
6432.37,0.05271
6409.22,0.05067
6386.08,0.04799
6362.93,0.05129
6339.79,0.04963
6316.64,0.04737
6293.5,0.04856
6270.35,0.04507
6247.21,0.04563
6224.06,0.04670
6200.92,0.04629
6177.77,0.04888
6154.63,0.04572
6131.48,0.05272
6108.34,0.05059
6085.19,0.04900
6062.05,0.04828
6038.9,0.04842
6015.76,0.04774
5992.61,0.04699
5969.47,0.04976
5946.32,0.04703
5923.18,0.04972
5900.03,0.04765
5876.89,0.04861
5853.74,0.04964
5830.6,0.04780
5807.45,0.04916
5784.31,0.04925
5761.16,0.04859
5738.02,0.04917
5714.87,0.04758
5691.73,0.04869
5668.58,0.04961
5645.44,0.04930
5622.29,0.05064
5599.15,0.04709
5576,0.04758
5552.86,0.04903
5529.71,0.04903
5506.57,0.04982
5483.42,0.04969
5460.28,0.04990
5437.13,0.04858
5413.99,0.04923
5390.84,0.04945
5367.7,0.04868
5344.55,0.04785
5321.41,0.04918
5298.26,0.04980
5275.12,0.05018
5251.97,0.04807
5228.83,0.04771
5205.68,0.04717
5182.54,0.04841
5159.39,0.04846
5136.25,0.04810
5113.1,0.04659
5089.96,0.04849
5066.81,0.04820
5043.67,0.04698
5020.52,0.04838
4997.38,0.05024
4974.23,0.04940
4951.09,0.04946
4927.94,0.04773
4904.8,0.04856
4881.65,0.04724
4858.51,0.04767
4835.36,0.04728
4812.22,0.04773
4789.07,0.04751
4765.93,0.04737
4742.78,0.04633
4719.64,0.04742
4696.49,0.04753
4673.35,0.04711
4650.2,0.04757
4627.06,0.04778
4603.92,0.04770
4580.77,0.04675
4557.63,0.04765
4534.48,0.04733
4511.34,0.04747
4488.19,0.04796
4465.05,0.04696
4441.9,0.04556
4418.76,0.04580
4395.61,0.04577
4372.47,0.04422
4349.32,0.04481
4326.18,0.04511
4303.03,0.04459
4279.89,0.04510
4256.74,0.04582
4233.6,0.04513
4210.45,0.04586
4187.31,0.04568
4164.16,0.04559
4141.02,0.04501
4117.87,0.04465
4094.73,0.04531
4071.58,0.04497
4048.44,0.04378
4025.29,0.04409
4002.15,0.04485
3979,0.04487
3955.86,0.04499
3932.71,0.04550
3909.57,0.04538
3886.42,0.04594
3863.28,0.04621
3840.13,0.04678
3816.99,0.04556
3793.84,0.04587
3770.7,0.04611
3747.55,0.04582
3724.41,0.04484
3701.26,0.04460
3678.12,0.04263
3654.97,0.04198
3631.83,0.04082
3608.68,0.04122
3585.54,0.04070
3562.39,0.03987
3539.25,0.03911
3516.1,0.03884
3492.96,0.03913
3469.81,0.03939
3446.67,0.03924
3423.52,0.03975
3400.38,0.03974
3377.23,0.03950
3354.09,0.03985
3330.94,0.03979
3307.8,0.03910
3284.65,0.03945
3261.51,0.03985
3238.36,0.04009
3215.22,0.03972
3192.07,0.04028
3168.93,0.03996
3145.78,0.03919
3122.64,0.03988
3099.49,0.03968
3076.35,0.03930
3053.2,0.03933
3030.06,0.03843
3006.91,0.03722
2983.77,0.03882
2960.62,0.03856
2937.48,0.03960
2914.33,0.04227
2891.19,0.04010
2868.04,0.04021
2844.9,0.04146
2821.75,0.04112
2798.61,0.04112
2775.46,0.04153
2752.32,0.04096
2729.17,0.04146
2706.03,0.04089
2682.88,0.04089
2659.74,0.04082
2636.59,0.04101
2613.45,0.04104
2590.3,0.04077
2567.16,0.04125
2544.02,0.04120
2520.87,0.04116
2497.73,0.04065
2474.58,0.04141
2451.44,0.04071
2428.29,0.04111
2405.15,0.04084
2382,0.04084
2358.86,0.04138
2335.71,0.04118
2312.57,0.04104
2289.42,0.04077
2266.28,0.04116
2243.13,0.04051
2219.99,0.04053
2196.84,0.04069
2173.7,0.04057
2150.55,0.03988
2127.41,0.03954
2104.26,0.03940
2081.12,0.03953
2057.97,0.03935
2034.83,0.03977
2011.68,0.03958
1988.54,0.03939
1965.39,0.03867
1942.25,0.03883
1919.1,0.03812
1895.96,0.03757
1872.81,0.03651
1849.67,0.03527
1826.52,0.03291
1803.38,0.02872
1780.23,0.02263
1757.09,0.07442
1733.94,0.06072
1710.8,0.04930
1687.65,0.04379
1664.51,0.04153
1641.36,0.04116
1618.22,0.04063
1595.07,0.03956
1571.93,0.03876
1548.78,0.03753
1525.64,0.03702
1502.49,0.03549
1479.35,0.03317
1456.2,0.03426
1433.06,0.03709
1409.91,0.03327
1386.77,0.03082
1363.62,0.03451
1340.48,0.03536
1317.33,0.03276
1294.19,0.03100
1271.04,0.02955
1247.9,0.02908
1224.75,0.02652
1201.61,0.03884
1178.46,0.07113
1155.32,0.03740
1132.17,0.04483
1109.03,0.04257
1085.88,0.09361
1062.74,0.06817
1039.59,0.06741
1016.45,0.07053
993.304,0.06409
970.159,0.05723
947.014,0.05429
923.869,0.05161
900.724,0.04870
877.579,0.04707
854.434,0.05132
831.289,0.04884
808.144,0.04653
784.999,0.04525
761.854,0.04309
738.709,0.04769
715.565,0.04563
692.42,0.04560
669.275,0.04598
646.13,0.04684
622.985,0.04293
599.84,0.04463