File: 01_Data/PLA_3D_Printer_Filament/FTIR/IS/PLA_3D_Printer_Filament_IS_S_221108_R3.dpt
7497.03,0.04822
7473.89,0.05309
7450.74,0.06142
7427.6,0.05287
7404.45,0.05960
7381.31,0.04693
7358.16,0.04787
7335.02,0.05104
7311.87,0.05667
7288.73,0.04971
7265.58,0.05382
7242.44,0.03849
7219.29,0.05265
7196.15,0.04573
7173,0.05408
7149.86,0.05526
7126.71,0.04836
7103.57,0.05371
7080.42,0.05288
7057.28,0.04825
7034.13,0.04414
7010.99,0.04072
6987.84,0.04193
6964.7,0.04834
6941.55,0.04365
6918.41,0.04496
6895.26,0.05201
6872.12,0.04594
6848.97,0.04451
6825.83,0.05381
6802.68,0.05046
6779.54,0.04593
6756.39,0.04794
6733.25,0.05139
6710.1,0.04838
6686.96,0.05009
6663.82,0.04827
6640.67,0.05212
6617.53,0.04720
6594.38,0.04554
6571.24,0.04717
6548.09,0.04833
6524.95,0.04983
6501.8,0.04578
6478.66,0.04921
6455.51,0.04982
6432.37,0.04937
6409.22,0.04800
6386.08,0.04564
6362.93,0.04719
6339.79,0.04762
6316.64,0.04994
6293.5,0.05044
6270.35,0.04559
6247.21,0.04967
6224.06,0.04694
6200.92,0.05011
6177.77,0.05059
6154.63,0.05048
6131.48,0.04915
6108.34,0.04784
6085.19,0.04972
6062.05,0.04844
6038.9,0.04823
6015.76,0.04633
5992.61,0.05046
5969.47,0.04912
5946.32,0.04820
5923.18,0.04972
5900.03,0.04710
5876.89,0.05014
5853.74,0.04958
5830.6,0.04678
5807.45,0.04843
5784.31,0.04685
5761.16,0.04616
5738.02,0.04683
5714.87,0.04827
5691.73,0.04645
5668.58,0.04986
5645.44,0.05090
5622.29,0.05052
5599.15,0.04944
5576,0.04891
5552.86,0.04925
5529.71,0.04866
5506.57,0.05128
5483.42,0.04763
5460.28,0.04664
5437.13,0.04962
5413.99,0.04861
5390.84,0.04902
5367.7,0.04938
5344.55,0.04936
5321.41,0.04993
5298.26,0.04924
5275.12,0.04928
5251.97,0.04769
5228.83,0.04747
5205.68,0.04802
5182.54,0.04796
5159.39,0.04936
5136.25,0.04873
5113.1,0.04862
5089.96,0.04881
5066.81,0.04948
5043.67,0.04872
5020.52,0.04931
4997.38,0.04825
4974.23,0.04945
4951.09,0.04928
4927.94,0.04842
4904.8,0.04831
4881.65,0.04731
4858.51,0.04766
4835.36,0.04806
4812.22,0.04744
4789.07,0.04734
4765.93,0.04638
4742.78,0.04676
4719.64,0.04680
4696.49,0.04719
4673.35,0.04763
4650.2,0.04739
4627.06,0.04690
4603.92,0.04720
4580.77,0.04819
4557.63,0.04752
4534.48,0.04757
4511.34,0.04857
4488.19,0.04699
4465.05,0.04759
4441.9,0.04563
4418.76,0.04744
4395.61,0.04589
4372.47,0.04532
4349.32,0.04557
4326.18,0.04578
4303.03,0.04617
4279.89,0.04536
4256.74,0.04521
4233.6,0.04571
4210.45,0.04558
4187.31,0.04706
4164.16,0.04622
4141.02,0.04503
4117.87,0.04602
4094.73,0.04590
4071.58,0.04510
4048.44,0.04398
4025.29,0.04508
4002.15,0.04559
3979,0.04511
3955.86,0.04593
3932.71,0.04558
3909.57,0.04584
3886.42,0.04679
3863.28,0.04580
3840.13,0.04718
3816.99,0.04570
3793.84,0.04650
3770.7,0.04612
3747.55,0.04690
3724.41,0.04612
3701.26,0.04584
3678.12,0.04385
3654.97,0.04244
3631.83,0.04205
3608.68,0.04170
3585.54,0.04060
3562.39,0.04008
3539.25,0.03982
3516.1,0.03995
3492.96,0.03878
3469.81,0.03995
3446.67,0.04008
3423.52,0.04071
3400.38,0.03945
3377.23,0.04018
3354.09,0.04000
3330.94,0.03985
3307.8,0.03920
3284.65,0.03977
3261.51,0.03989
3238.36,0.04042
3215.22,0.03925
3192.07,0.04032
3168.93,0.04037
3145.78,0.03974
3122.64,0.04019
3099.49,0.04034
3076.35,0.04010
3053.2,0.03930
3030.06,0.03874
3006.91,0.03785
2983.77,0.03911
2960.62,0.03802
2937.48,0.03967
2914.33,0.04209
2891.19,0.04114
2868.04,0.04008
2844.9,0.04213
2821.75,0.04154
2798.61,0.04163
2775.46,0.04177
2752.32,0.04122
2729.17,0.04145
2706.03,0.04150
2682.88,0.04108
2659.74,0.04126
2636.59,0.04108
2613.45,0.04131
2590.3,0.04152
2567.16,0.04138
2544.02,0.04157
2520.87,0.04109
2497.73,0.04165
2474.58,0.04119
2451.44,0.04156
2428.29,0.04144
2405.15,0.04140
2382,0.04141
2358.86,0.04152
2335.71,0.04200
2312.57,0.04152
2289.42,0.04140
2266.28,0.04123
2243.13,0.04114
2219.99,0.04126
2196.84,0.04130
2173.7,0.04114
2150.55,0.04054
2127.41,0.03980
2104.26,0.04006
2081.12,0.03982
2057.97,0.03996
2034.83,0.03984
2011.68,0.03981
1988.54,0.03931
1965.39,0.03931
1942.25,0.03910
1919.1,0.03869
1895.96,0.03781
1872.81,0.03679
1849.67,0.03531
1826.52,0.03292
1803.38,0.02917
1780.23,0.02329
1757.09,0.07519
1733.94,0.06140
1710.8,0.04956
1687.65,0.04431
1664.51,0.04231
1641.36,0.04137
1618.22,0.04105
1595.07,0.03964
1571.93,0.03891
1548.78,0.03831
1525.64,0.03717
1502.49,0.03572
1479.35,0.03362
1456.2,0.03475
1433.06,0.03752
1409.91,0.03376
1386.77,0.03091
1363.62,0.03454
1340.48,0.03600
1317.33,0.03298
1294.19,0.03109
1271.04,0.02986
1247.9,0.02968
1224.75,0.02648
1201.61,0.03925
1178.46,0.07161
1155.32,0.03742
1132.17,0.04530
1109.03,0.04268
1085.88,0.09458
1062.74,0.06852
1039.59,0.06844
1016.45,0.07100
993.304,0.06408
970.159,0.05734
947.014,0.05479
923.869,0.05203
900.724,0.05021
877.579,0.04725
854.434,0.05127
831.289,0.04892
808.144,0.04732
784.999,0.04493
761.854,0.04405
738.709,0.04747
715.565,0.04614
692.42,0.04637
669.275,0.04821
646.13,0.04599
622.985,0.04517
599.84,0.04471