File: 01_Data/Nylon/Cone/Nylon_HRRPUA_50.csv
Time after Ignition,Nylon_R1,Nylon_R2,Nylon_R3,Mean,Std. Dev.
0.0,21.2,22.4,25.3,23.0,2.1
0.75,28.9,33.8,37.4,33.4,4.3
1.5,39.5,45.3,51.3,45.4,5.9
2.25,49.3,57.1,67.7,58.0,9.2
3.0,62.3,67.6,92.6,74.2,16.2
3.75,80.4,78.5,115.3,91.4,20.7
4.5,101.6,91.1,140.2,110.9,25.9
5.25,121.8,102.1,158.2,127.3,28.5
6.0,142.6,114.9,181.3,146.3,33.4
6.75,153.7,129.3,193.7,158.9,32.5
7.5,170.7,148.8,209.6,176.4,30.8
8.25,185.9,164.3,226.7,192.3,31.7
9.0,197.4,181.3,239.4,206.0,30.0
9.75,206.4,195.8,258.6,220.3,33.6
10.5,225.0,208.6,279.1,237.5,36.9
11.25,237.7,218.5,295.7,250.6,40.2
12.0,248.8,230.3,321.0,266.7,47.9
12.75,266.1,240.2,343.2,283.1,53.6
13.5,283.9,253.3,355.8,297.7,52.6
14.25,300.7,259.7,382.0,314.1,62.2
15.0,309.3,276.0,381.2,322.2,53.7
15.75,334.0,279.3,406.5,339.9,63.8
16.5,344.9,295.6,421.1,353.9,63.3
17.25,347.4,307.5,435.1,363.4,65.3
18.0,375.1,323.9,446.2,381.7,61.4
18.75,377.5,333.2,455.4,388.7,61.9
19.5,382.0,359.1,471.4,404.2,59.4
20.25,406.8,352.3,495.6,418.2,72.3
21.0,415.4,384.6,502.9,434.3,61.4
21.75,415.5,390.7,502.7,436.3,58.9
22.5,432.4,415.4,509.0,452.3,49.8
23.25,440.7,422.1,550.5,471.1,69.4
24.0,459.3,443.9,568.8,490.7,68.1
24.75,473.7,451.2,593.8,506.2,76.6
25.5,483.1,461.6,580.3,508.3,63.2
26.25,490.8,478.2,582.1,517.0,56.7
27.0,507.0,498.8,597.7,534.5,54.9
27.75,511.4,502.9,609.2,541.2,59.1
28.5,526.8,511.3,629.1,555.7,64.0
29.25,532.4,535.9,633.6,567.3,57.5
30.0,535.8,520.9,630.7,562.5,59.6
30.75,536.2,541.2,629.3,568.9,52.4
31.5,563.3,544.2,655.0,587.5,59.2
32.25,547.8,550.1,679.1,592.3,75.1
33.0,546.8,558.2,676.6,593.9,71.9
33.75,538.9,581.9,679.6,600.1,72.1
34.5,558.8,583.1,691.9,611.3,70.9
35.25,548.3,582.9,707.0,612.7,83.5
36.0,552.9,589.9,720.6,621.1,88.1
36.75,553.9,584.5,696.5,611.6,75.1
37.5,579.2,592.2,731.5,634.3,84.4
38.25,561.9,588.1,721.9,624.0,85.8
39.0,583.0,603.5,734.7,640.4,82.3
39.75,576.3,621.7,719.0,639.0,72.9
40.5,575.7,606.8,723.0,635.2,77.6
41.25,601.6,606.6,742.4,650.2,79.9
42.0,592.0,589.7,759.6,647.1,97.4
42.75,590.7,604.3,739.0,644.6,82.0
43.5,612.2,618.6,766.2,665.7,87.1
44.25,615.9,637.4,744.0,665.8,68.6
45.0,608.0,626.9,762.9,665.9,84.5
45.75,620.5,619.3,729.7,656.5,63.4
46.5,627.8,638.0,759.0,674.9,73.0
47.25,619.0,636.3,734.7,663.3,62.4
48.0,635.3,620.9,758.7,671.6,75.7
48.75,641.2,640.9,754.5,678.8,65.5
49.5,608.4,629.2,752.3,663.3,77.8
50.25,633.8,639.8,743.2,672.3,61.5
51.0,625.4,640.0,760.1,675.2,73.9
51.75,642.9,644.1,738.4,675.1,54.8
52.5,617.8,656.5,773.8,682.7,81.2
53.25,653.5,646.0,791.4,697.0,81.9
54.0,677.3,656.0,816.3,716.5,87.0
54.75,659.6,674.5,764.8,699.6,56.9
55.5,668.0,657.6,771.8,699.1,63.1
56.25,694.0,652.7,784.6,710.4,67.5
57.0,676.3,649.6,787.6,704.5,73.2
57.75,693.7,653.8,771.9,706.5,60.1
58.5,695.3,637.3,790.6,707.7,77.4
59.25,681.6,651.8,772.0,701.8,62.6
60.0,688.3,661.7,767.3,705.8,54.9
60.75,682.6,652.5,820.9,718.7,89.8
61.5,710.1,650.3,802.0,720.8,76.4
62.25,722.5,639.2,821.5,727.7,91.2
63.0,724.4,670.1,827.2,740.6,79.8
63.75,710.0,643.3,812.6,722.0,85.3
64.5,712.9,674.4,835.8,741.0,84.3
65.25,698.2,633.9,778.1,703.4,72.3
66.0,732.8,667.6,865.5,755.3,100.8
66.75,723.8,688.1,868.1,760.0,95.3
67.5,740.7,667.0,849.5,752.4,91.8
68.25,707.5,676.2,828.2,737.3,80.3
69.0,745.5,688.9,877.7,770.7,96.9
69.75,731.5,671.9,858.3,753.9,95.2
70.5,754.3,654.8,904.5,771.2,125.7
71.25,749.8,674.6,823.2,749.2,74.3
72.0,796.2,665.4,900.5,787.4,117.8
72.75,811.9,687.0,904.0,800.9,108.9
73.5,763.3,668.0,869.0,766.8,100.5
74.25,791.9,676.6,877.6,782.1,100.9
75.0,790.6,679.0,897.0,788.9,109.0
75.75,819.0,709.4,959.4,829.3,125.3
76.5,844.8,677.1,930.1,817.3,128.7
77.25,819.2,707.6,945.5,824.1,119.0
78.0,816.1,720.9,965.5,834.2,123.3
78.75,835.5,718.0,916.4,823.3,99.7
79.5,861.1,705.1,926.3,830.8,113.7
80.25,877.6,715.1,996.8,863.2,141.4
81.0,885.8,730.1,960.7,858.9,117.6
81.75,895.5,750.9,1015.8,887.4,132.6
82.5,889.9,727.9,984.0,867.2,129.6
83.25,910.1,757.8,960.6,876.2,105.6
84.0,926.5,768.8,1026.7,907.4,130.0
84.75,942.0,773.9,1040.0,918.6,134.6
85.5,943.2,770.3,1078.5,930.7,154.5
86.25,952.7,809.8,974.1,912.2,89.3
87.0,986.1,813.2,1048.8,949.4,122.0
87.75,962.2,780.0,1148.7,963.6,184.4
88.5,1005.2,799.5,1047.4,950.7,132.7
89.25,985.1,814.3,1117.0,972.1,151.8
90.0,1027.7,806.9,1088.1,974.2,148.0
90.75,1016.6,794.9,1110.1,973.9,161.9
91.5,1027.9,833.6,1181.0,1014.2,174.1
92.25,1095.9,848.0,1140.6,1028.2,157.6
93.0,1089.9,855.9,1170.9,1038.9,163.6
93.75,1086.2,869.0,1149.0,1034.7,146.9
94.5,1087.8,839.3,1213.0,1046.7,190.2
95.25,1103.6,923.0,1147.2,1057.9,118.9
96.0,1125.5,885.4,1189.7,1066.9,160.4
96.75,1079.7,891.8,1159.5,1043.7,137.4
97.5,1091.0,957.4,1154.6,1067.7,100.6
98.25,1056.8,920.5,1156.3,1044.5,118.4
99.0,1130.6,921.6,1261.0,1104.4,171.2
99.75,1101.7,953.2,1141.2,1065.4,99.1
100.5,1139.9,945.6,1306.4,1130.6,180.6
101.25,1130.2,935.4,1269.0,1111.6,167.6
102.0,1230.0,992.2,1220.9,1147.7,134.7
102.75,1171.9,1017.5,1279.7,1156.4,131.8
103.5,1123.2,948.7,1227.7,1099.9,140.9
104.25,1188.0,993.3,1240.9,1140.7,130.4
105.0,1120.0,1043.1,1278.3,1147.1,119.9
105.75,1181.2,1004.1,1356.3,1180.5,176.1
106.5,1170.0,1021.4,1290.0,1160.5,134.6
107.25,1267.4,1006.0,1248.7,1174.0,145.9
108.0,1202.2,1034.6,1343.9,1193.5,154.8
108.75,1203.6,1033.8,1294.8,1177.4,132.4
109.5,1208.5,1057.2,1280.6,1182.1,114.0
110.25,1173.2,1043.7,1324.3,1180.4,140.4
111.0,1195.9,1035.0,1243.3,1158.1,109.2
111.75,1200.2,1030.1,1351.7,1194.0,160.9
112.5,1211.6,1052.2,1342.1,1202.0,145.2
113.25,1237.9,1067.2,1285.9,1197.0,115.0
114.0,1217.8,1115.8,1278.7,1204.1,82.3
114.75,1195.6,1127.3,1388.1,1237.0,135.3
115.5,1187.8,1129.3,1269.0,1195.4,70.2
116.25,1242.5,1117.6,1220.7,1193.6,66.7
117.0,1243.2,1144.7,1389.4,1259.1,123.1
117.75,1218.6,1145.1,1314.1,1225.9,84.7
118.5,1206.5,1154.0,1260.9,1207.1,53.4
119.25,1213.6,1161.7,1253.2,1209.5,45.9
120.0,1242.2,1167.2,1209.7,1206.4,37.6
120.75,1219.7,1161.6,1175.2,1185.5,30.4
121.5,1201.0,1161.5,1174.6,1179.1,20.1
122.25,1209.4,1155.8,1205.7,1190.3,29.9
123.0,1172.3,1170.7,1237.8,1193.6,38.3
123.75,1214.2,1149.7,1153.3,1172.4,36.2
124.5,1206.9,1169.1,1179.7,1185.2,19.5
125.25,1203.1,1137.4,1169.5,1170.0,32.8
126.0,1197.2,1129.8,1195.2,1174.1,38.4
126.75,1179.9,1138.6,1197.0,1171.8,30.0
127.5,1145.3,1127.0,1182.2,1151.5,28.1
128.25,1202.7,1125.2,1116.3,1148.1,47.5
129.0,1171.1,1143.8,1090.5,1135.1,41.0
129.75,1167.0,1147.2,1107.9,1140.7,30.1
130.5,1151.2,1094.5,1042.1,1095.9,54.6
131.25,1160.0,1087.6,1044.1,1097.2,58.6
132.0,1066.5,1083.9,1005.1,1051.8,41.4
132.75,1082.0,1074.7,998.7,1051.8,46.1
133.5,1074.0,1053.8,950.7,1026.2,66.1
134.25,1064.8,1030.1,965.6,1020.2,50.4
135.0,1044.9,1030.1,941.5,1005.5,55.9
135.75,1023.1,1042.0,891.4,985.5,82.1
136.5,981.9,1047.7,871.5,967.0,89.0
137.25,980.4,1036.1,848.8,955.1,96.2
138.0,993.7,1010.4,821.6,941.9,104.5
138.75,960.5,996.2,814.5,923.7,96.3
139.5,950.0,1046.3,763.2,919.9,143.9
140.25,911.7,1019.4,739.5,890.2,141.2
141.0,897.8,982.1,718.4,866.1,134.7
141.75,886.5,980.2,707.1,858.0,138.8
142.5,895.7,1017.1,698.5,870.4,160.8
143.25,871.8,967.1,655.0,831.3,160.0
144.0,860.3,974.7,624.2,819.7,178.8
144.75,804.7,975.8,599.3,793.3,188.5
145.5,833.6,959.1,555.6,782.8,206.5
146.25,783.0,923.3,541.1,749.2,193.3
147.0,787.9,917.7,515.2,740.2,205.4
147.75,763.6,888.0,475.3,709.0,211.7
148.5,769.5,888.7,440.7,699.6,232.1
149.25,752.3,893.5,405.5,683.8,251.1
150.0,724.6,837.6,357.7,640.0,250.9
150.75,718.3,882.9,324.2,641.8,287.1
151.5,703.8,835.7,284.4,608.0,287.8
152.25,664.0,825.8,262.2,584.0,290.2
153.0,648.5,795.1,241.8,561.8,286.6
153.75,628.5,799.1,223.6,550.4,295.6
154.5,591.3,808.9,203.4,534.5,306.7
155.25,592.5,765.4,192.0,516.6,294.1
156.0,575.9,746.3,177.3,499.8,292.0
156.75,558.7,734.8,167.2,486.9,290.6
157.5,543.6,711.0,152.9,469.2,286.4
158.25,529.4,702.1,143.5,458.3,286.0
159.0,511.7,679.3,132.7,441.3,280.0
159.75,496.6,659.7,124.6,426.9,274.3
160.5,485.9,649.1,115.1,416.7,273.6
161.25,454.6,647.2,107.5,403.1,273.5
162.0,443.3,632.2,101.2,392.2,269.2
162.75,425.5,618.1,93.3,379.0,265.4
163.5,404.5,610.0,87.9,367.5,263.0
164.25,388.4,600.2,80.5,356.3,261.3
165.0,369.5,578.7,75.6,341.3,252.8
165.75,352.1,554.7,71.3,326.0,242.8
166.5,342.1,552.0,65.4,319.8,244.1
167.25,329.9,531.3,60.9,307.4,236.0
168.0,317.2,521.0,55.6,297.9,233.3
168.75,310.7,517.3,51.8,293.3,233.2
169.5,302.2,490.8,49.3,280.8,221.5
170.25,282.1,484.3,46.1,270.8,219.3
171.0,277.3,476.5,42.9,265.5,217.0
171.75,263.8,460.7,41.1,255.2,209.9
172.5,248.0,451.7,37.9,245.9,206.9
173.25,230.6,435.9,36.7,234.4,199.6
174.0,221.1,429.1,35.2,228.5,197.0
174.75,205.1,412.0,32.0,216.4,190.2
175.5,189.8,398.7,29.8,206.1,184.9
176.25,170.1,382.4,26.7,193.1,179.0
177.0,156.4,371.8,24.4,184.2,175.4
177.75,140.4,361.1,21.7,174.4,172.2
178.5,125.6,340.8,19.1,161.8,163.9
179.25,113.5,321.7,16.5,150.6,156.0
180.0,103.8,303.9,,203.9,141.5
180.75,96.2,283.9,,190.0,132.7
181.5,87.4,268.4,,177.9,128.0
182.25,80.6,253.6,,167.1,122.3
183.0,75.5,233.6,,154.6,111.8
183.75,67.2,223.8,,145.5,110.7
184.5,61.9,214.3,,138.1,107.8
185.25,55.4,206.7,,131.0,106.9
186.0,49.9,195.1,,122.5,102.7
186.75,45.3,184.2,,114.7,98.2
187.5,41.4,174.9,,108.1,94.4
188.25,37.8,167.4,,102.6,91.7
189.0,33.7,156.4,,95.1,86.8
189.75,31.1,148.6,,89.9,83.1
190.5,28.2,141.1,,84.6,79.8
191.25,25.3,136.5,,80.9,78.6
192.0,23.3,128.3,,75.8,74.2
192.75,21.6,122.0,,71.8,71.0