File: 01_Data/Nylon/Cone/Nylon_HRRPUA_25.csv
Time after Ignition,Nylon_R4,Nylon_R2,Nylon_R3,Mean,Std. Dev.
0.0,9.8,-24.3,17.6,1.0,22.3
2.75,11.0,-20.1,19.0,3.3,20.7
5.5,9.5,-15.4,21.3,5.1,18.7
8.25,7.0,-7.0,24.8,8.3,16.0
11.0,4.7,0.4,29.0,11.3,15.4
13.75,3.8,8.2,33.2,15.0,15.9
16.5,3.5,15.0,38.9,19.1,18.1
19.25,3.4,21.4,42.6,22.5,19.6
22.0,4.2,27.4,48.4,26.7,22.1
24.75,4.5,32.7,54.9,30.7,25.2
27.5,5.1,40.0,67.9,37.7,31.5
30.25,7.5,45.9,81.3,44.9,36.9
33.0,9.7,48.7,93.2,50.5,41.8
35.75,11.1,51.1,108.3,56.8,48.8
38.5,11.7,52.8,119.8,61.4,54.5
41.25,11.7,55.2,127.0,64.6,58.2
44.0,11.7,57.8,135.1,68.2,62.4
46.75,11.5,61.1,144.1,72.2,67.0
49.5,10.7,69.0,156.7,78.8,73.5
52.25,10.3,74.5,167.4,84.1,79.0
55.0,10.7,80.2,174.1,88.3,82.0
57.75,11.4,88.3,181.6,93.8,85.2
60.5,11.5,100.5,190.0,100.7,89.2
63.25,11.1,113.0,205.0,109.7,97.0
66.0,11.1,125.7,219.0,118.6,104.1
68.75,11.0,136.2,238.7,128.6,114.0
71.5,10.1,147.1,261.0,139.4,125.6
74.25,10.2,161.5,285.3,152.3,137.8
77.0,11.2,176.1,294.8,160.7,142.4
79.75,14.3,189.6,304.4,169.4,146.1
82.5,15.9,191.8,318.2,175.3,151.8
85.25,19.0,197.4,331.0,182.5,156.5
88.0,22.2,203.1,344.0,189.8,161.3
90.75,26.5,220.8,350.2,199.2,163.0
93.5,30.5,237.4,362.1,210.0,167.5
96.25,35.3,251.0,376.5,220.9,172.5
99.0,39.3,260.7,382.1,227.4,173.8
101.75,44.0,267.8,416.6,242.8,187.6
104.5,48.9,273.8,423.4,248.7,188.5
107.25,54.1,283.6,436.7,258.1,192.6
110.0,56.9,307.9,451.8,272.2,199.9
112.75,63.9,320.5,475.1,286.5,207.7
115.5,70.2,349.5,474.2,298.0,206.9
118.25,76.3,372.2,491.5,313.3,213.8
121.0,84.0,371.8,493.5,316.4,210.3
123.75,90.8,403.2,500.4,331.5,214.0
126.5,106.1,417.8,512.1,345.4,212.5
129.25,137.0,434.4,521.4,364.2,201.6
132.0,158.7,448.9,539.2,382.3,198.8
134.75,179.9,485.6,540.7,402.1,194.3
137.5,192.2,499.4,560.0,417.2,197.2
140.25,205.7,506.5,575.6,429.2,196.7
143.0,221.0,518.0,588.5,442.5,195.0
145.75,227.2,566.0,597.0,463.4,205.2
148.5,241.0,558.6,595.2,465.0,194.8
151.25,253.3,571.9,613.2,479.5,197.0
154.0,266.7,561.1,623.8,483.9,190.7
156.75,278.1,579.6,633.7,497.1,191.6
159.5,293.5,582.3,637.4,504.4,184.7
162.25,302.6,613.6,671.9,529.4,198.5
165.0,319.4,617.1,676.0,537.5,191.2
167.75,319.6,615.5,687.5,540.9,194.9
170.5,331.6,624.2,695.8,550.5,192.9
173.25,326.1,609.3,711.8,549.1,199.8
176.0,330.8,622.6,755.7,569.7,217.4
178.75,349.5,619.2,731.7,566.8,196.4
181.5,368.5,599.9,750.4,572.9,192.3
184.25,382.0,596.3,767.7,582.0,193.3
187.0,397.8,662.6,752.8,604.4,184.5
189.75,407.2,644.8,748.2,600.1,174.9
192.5,413.8,636.5,791.5,613.9,189.9
195.25,426.2,642.7,780.3,616.4,178.5
198.0,428.0,640.0,791.1,619.7,182.4
200.75,440.3,656.3,801.4,632.6,181.7
203.5,456.0,662.0,801.2,639.7,173.7
206.25,469.3,686.0,794.9,650.1,165.8
209.0,482.9,698.4,790.0,657.1,157.7
211.75,496.7,700.4,809.2,668.8,158.6
214.5,483.2,674.2,799.1,652.2,159.1
217.25,506.2,691.3,780.4,659.3,139.9
220.0,507.3,696.0,785.0,662.8,141.8
222.75,509.6,682.8,859.9,684.1,175.2
225.5,514.1,674.0,793.7,660.6,140.3
228.25,534.0,627.6,816.2,659.2,143.7
231.0,536.5,613.9,813.3,654.6,142.8
233.75,527.9,621.0,788.5,645.8,132.1
236.5,532.5,606.4,775.6,638.2,124.6
239.25,538.9,600.9,827.0,655.6,151.6
242.0,559.6,579.2,734.0,624.3,95.5
244.75,534.1,555.8,708.0,599.3,94.7
247.5,581.3,554.6,676.0,604.0,63.8
250.25,570.4,565.3,620.7,585.4,30.6
253.0,572.2,556.8,596.6,575.2,20.1
255.75,575.0,534.8,516.8,542.2,29.8
258.5,594.7,540.9,453.1,529.6,71.5
261.25,572.9,491.3,398.6,487.6,87.2
264.0,586.1,469.7,331.3,462.4,127.6
266.75,585.8,451.3,267.6,434.9,159.7
269.5,581.5,407.0,223.6,404.0,179.0
272.25,592.4,386.7,185.7,388.2,203.4
275.0,584.1,358.6,161.9,368.2,211.2
277.75,586.8,329.4,136.5,350.9,225.9
280.5,597.1,294.8,104.0,332.0,248.6
283.25,586.7,265.1,64.4,305.4,263.4
286.0,564.1,234.9,44.4,281.1,262.9
288.75,591.2,197.8,31.2,273.4,287.6
291.5,574.1,160.8,23.3,252.7,286.6
294.25,571.6,134.7,17.2,241.1,292.2
297.0,548.4,112.2,,330.3,308.5
299.75,535.1,97.3,,316.2,309.5
302.5,519.0,78.5,,298.8,311.5
305.25,522.0,57.3,,289.6,328.6
308.0,501.5,33.2,,267.3,331.2
310.75,481.3,6.9,,244.1,335.5
313.5,476.3,-14.7,,230.8,347.2
316.25,471.4,,,471.4,
319.0,457.8,,,457.8,
321.75,454.0,,,454.0,
324.5,446.2,,,446.2,
327.25,446.4,,,446.4,
330.0,437.8,,,437.8,
332.75,423.6,,,423.6,
335.5,405.4,,,405.4,
338.25,393.7,,,393.7,
341.0,373.0,,,373.0,
343.75,366.5,,,366.5,
346.5,345.1,,,345.1,
349.25,325.2,,,325.2,
352.0,310.6,,,310.6,
354.75,301.1,,,301.1,
357.5,288.0,,,288.0,
360.25,274.4,,,274.4,
363.0,268.3,,,268.3,
365.75,266.6,,,266.6,
368.5,255.2,,,255.2,
371.25,247.1,,,247.1,
374.0,239.2,,,239.2,
376.75,239.6,,,239.6,
379.5,233.3,,,233.3,
382.25,226.4,,,226.4,
385.0,215.2,,,215.2,
387.75,215.0,,,215.0,
390.5,204.3,,,204.3,
393.25,197.7,,,197.7,
396.0,190.1,,,190.1,
398.75,188.1,,,188.1,
401.5,182.6,,,182.6,
404.25,179.9,,,179.9,
407.0,173.1,,,173.1,
409.75,166.2,,,166.2,
412.5,159.5,,,159.5,
415.25,155.7,,,155.7,
418.0,152.9,,,152.9,
420.75,148.3,,,148.3,
423.5,144.6,,,144.6,
426.25,143.2,,,143.2,
429.0,139.8,,,139.8,
431.75,136.9,,,136.9,
434.5,134.2,,,134.2,
437.25,131.9,,,131.9,
440.0,128.4,,,128.4,
442.75,126.6,,,126.6,
445.5,122.5,,,122.5,
448.25,119.2,,,119.2,
451.0,116.6,,,116.6,
453.75,114.1,,,114.1,
456.5,109.7,,,109.7,
459.25,106.1,,,106.1,
462.0,103.2,,,103.2,
464.75,98.1,,,98.1,
467.5,96.6,,,96.6,
470.25,93.0,,,93.0,
473.0,89.0,,,89.0,
475.75,86.6,,,86.6,
478.5,81.1,,,81.1,
481.25,77.5,,,77.5,
484.0,75.2,,,75.2,
486.75,71.5,,,71.5,
489.5,68.3,,,68.3,
492.25,66.0,,,66.0,
495.0,64.2,,,64.2,
497.75,61.8,,,61.8,
500.5,57.6,,,57.6,
503.25,55.1,,,55.1,
506.0,54.4,,,54.4,
508.75,53.4,,,53.4,
511.5,52.7,,,52.7,
514.25,52.8,,,52.8,
517.0,52.7,,,52.7,
519.75,50.9,,,50.9,
522.5,50.4,,,50.4,
525.25,49.5,,,49.5,
528.0,47.2,,,47.2,
530.75,46.5,,,46.5,
533.5,43.7,,,43.7,
536.25,42.9,,,42.9,
539.0,40.9,,,40.9,
541.75,39.1,,,39.1,
544.5,38.1,,,38.1,
547.25,36.6,,,36.6,
550.0,35.1,,,35.1,
552.75,33.0,,,33.0,
555.5,31.8,,,31.8,
558.25,30.9,,,30.9,
561.0,30.7,,,30.7,
563.75,30.0,,,30.0,
566.5,29.8,,,29.8,
569.25,28.5,,,28.5,
572.0,28.5,,,28.5,
574.75,29.1,,,29.1,
577.5,29.9,,,29.9,
580.25,29.2,,,29.2,
583.0,29.1,,,29.1,
585.75,28.8,,,28.8,
588.5,27.5,,,27.5,
591.25,26.6,,,26.6,
594.0,25.2,,,25.2,
596.75,24.5,,,24.5,
599.5,23.8,,,23.8,
602.25,22.1,,,22.1,
605.0,21.3,,,21.3,
607.75,21.7,,,21.7,
610.5,22.4,,,22.4,
613.25,22.3,,,22.3,
616.0,21.5,,,21.5,
618.75,20.4,,,20.4,
621.5,20.6,,,20.6,
624.25,21.2,,,21.2,
627.0,21.3,,,21.3,
629.75,20.9,,,20.9,
632.5,20.4,,,20.4,
635.25,19.8,,,19.8,
638.0,18.5,,,18.5,
640.75,18.2,,,18.2,
643.5,16.5,,,16.5,
646.25,15.7,,,15.7,
649.0,14.9,,,14.9,
651.75,13.7,,,13.7,
654.5,12.0,,,12.0,
657.25,10.7,,,10.7,
660.0,9.8,,,9.8,
662.75,9.1,,,9.1,
665.5,8.7,,,8.7,
668.25,9.5,,,9.5,
671.0,9.9,,,9.9,
673.75,10.2,,,10.2,
676.5,11.8,,,11.8,
679.25,14.6,,,14.6,
682.0,15.6,,,15.6,
684.75,15.2,,,15.2,
687.5,13.2,,,13.2,
690.25,11.7,,,11.7,
693.0,11.2,,,11.2,
695.75,10.6,,,10.6,
698.5,10.0,,,10.0,
701.25,9.9,,,9.9,
704.0,10.1,,,10.1,
706.75,10.7,,,10.7,
709.5,11.1,,,11.1,
712.25,12.0,,,12.0,
715.0,12.0,,,12.0,
717.75,12.3,,,12.3,
720.5,12.4,,,12.4,
723.25,12.2,,,12.2,
726.0,9.5,,,9.5,
728.75,8.5,,,8.5,
731.5,8.2,,,8.2,
734.25,7.6,,,7.6,
737.0,7.2,,,7.2,
739.75,6.4,,,6.4,
742.5,5.8,,,5.8,
745.25,5.5,,,5.5,
748.0,6.4,,,6.4,
750.75,5.9,,,5.9,
753.5,5.5,,,5.5,
756.25,4.3,,,4.3,
759.0,3.9,,,3.9,
761.75,4.5,,,4.5,
764.5,4.3,,,4.3,
767.25,3.9,,,3.9,
770.0,3.8,,,3.8,
772.75,3.3,,,3.3,
775.5,2.6,,,2.6,
778.25,2.4,,,2.4,
781.0,2.4,,,2.4,
783.75,3.2,,,3.2,
786.5,3.5,,,3.5,
789.25,2.9,,,2.9,
792.0,2.4,,,2.4,
794.75,3.8,,,3.8,
797.5,3.4,,,3.4,
800.25,2.7,,,2.7,
803.0,3.3,,,3.3,
805.75,3.5,,,3.5,
808.5,3.5,,,3.5,
811.25,2.5,,,2.5,
814.0,2.5,,,2.5,
816.75,3.2,,,3.2,
819.5,3.7,,,3.7,
822.25,3.8,,,3.8,
822.5,3.8,,,3.8,