File: 01_Data/Overstuffed_Chair_Polyurethane_Foam/Cone/Overstuffed_Chair_Polyurethane_Foam_HRRPUA_25.csv
Time after Ignition,Overstuffed_Chair_Polyurethane_Foam_R1,Overstuffed_Chair_Polyurethane_Foam_R2,Overstuffed_Chair_Polyurethane_Foam_R3,Mean,Std. Dev.
0.0,22.8,19.9,14.1,18.9,4.4
0.5,30.7,28.9,25.9,28.5,2.4
1.0,42.1,37.5,34.8,38.1,3.7
1.5,55.3,43.8,46.5,48.6,6.0
2.0,67.5,52.6,62.3,60.8,7.6
2.5,80.9,64.0,71.7,72.2,8.5
3.0,91.4,73.0,82.4,82.2,9.2
3.5,102.9,84.5,92.9,93.4,9.2
4.0,111.0,91.1,103.0,101.7,10.0
4.5,120.0,100.3,112.3,110.9,9.9
5.0,129.2,112.6,118.3,120.0,8.4
5.5,131.5,126.6,129.9,129.3,2.5
6.0,140.7,134.5,138.9,138.0,3.2
6.5,143.7,142.2,145.7,143.9,1.7
7.0,150.1,154.4,153.0,152.5,2.2
7.5,154.4,159.7,160.3,158.1,3.2
8.0,157.6,168.7,167.3,164.5,6.1
8.5,166.7,171.0,173.6,170.4,3.5
9.0,169.8,176.6,177.7,174.7,4.3
9.5,174.7,181.4,185.4,180.5,5.4
10.0,180.3,186.4,188.6,185.1,4.3
10.5,181.3,190.0,190.1,187.1,5.0
11.0,186.9,193.8,196.9,192.5,5.2
11.5,190.9,196.5,199.1,195.5,4.2
12.0,189.5,203.6,199.1,197.4,7.2
12.5,197.0,208.3,207.5,204.3,6.3
13.0,199.7,209.6,210.4,206.6,6.0
13.5,207.9,215.4,211.7,211.7,3.7
14.0,207.4,225.6,215.1,216.0,9.1
14.5,210.2,227.7,216.8,218.2,8.8
15.0,210.2,233.2,216.6,220.0,11.8
15.5,219.9,240.2,221.3,227.1,11.4
16.0,227.1,246.3,222.3,231.9,12.7
16.5,235.5,242.5,226.0,234.7,8.3
17.0,233.7,249.7,226.8,236.7,11.7
17.5,237.8,249.5,228.0,238.5,10.8
18.0,245.6,255.3,232.7,244.5,11.3
18.5,246.7,262.0,237.1,248.6,12.6
19.0,250.2,258.8,231.8,246.9,13.8
19.5,243.0,261.6,237.6,247.4,12.6
20.0,253.7,263.5,240.4,252.5,11.6
20.5,255.9,273.5,241.3,256.9,16.1
21.0,260.9,272.7,244.3,259.3,14.3
21.5,260.5,278.2,243.3,260.7,17.5
22.0,267.2,277.2,247.9,264.1,14.9
22.5,275.1,284.6,254.8,271.5,15.2
23.0,282.0,283.1,258.0,274.3,14.1
23.5,293.8,281.9,263.9,279.8,15.1
24.0,312.1,294.0,257.6,287.9,27.8
24.5,303.7,301.1,276.4,293.8,15.1
25.0,303.1,299.8,272.2,291.7,17.0
25.5,304.8,291.5,279.7,292.0,12.6
26.0,320.2,297.6,287.4,301.8,16.8
26.5,310.3,304.4,291.1,301.9,9.8
27.0,326.7,322.8,295.4,315.0,17.1
27.5,323.9,315.4,301.1,313.5,11.5
28.0,323.5,323.9,313.0,320.1,6.2
28.5,333.2,327.7,324.8,328.6,4.3
29.0,344.7,345.5,328.3,339.5,9.7
29.5,344.6,345.9,331.0,340.5,8.3
30.0,356.5,349.7,328.0,344.7,14.8
30.5,344.6,364.2,339.7,349.5,12.9
31.0,354.8,360.0,350.2,355.0,4.9
31.5,362.4,373.1,358.0,364.5,7.8
32.0,371.2,388.3,371.0,376.9,9.9
32.5,381.0,394.3,372.3,382.5,11.1
33.0,372.7,398.9,371.9,381.2,15.3
33.5,385.6,385.3,396.0,389.0,6.1
34.0,396.1,399.0,396.2,397.1,1.6
34.5,392.7,396.6,407.0,398.8,7.4
35.0,396.5,410.6,396.7,401.2,8.1
35.5,406.2,396.8,403.5,402.2,4.8
36.0,438.0,400.8,401.4,413.4,21.3
36.5,429.3,403.8,424.3,419.1,13.5
37.0,430.9,415.9,426.2,424.3,7.7
37.5,446.6,410.6,421.8,426.4,18.4
38.0,466.4,408.6,435.2,436.7,28.9
38.5,447.3,419.5,438.5,435.1,14.2
39.0,464.4,416.4,418.5,433.1,27.1
39.5,442.0,421.4,426.4,430.0,10.8
40.0,450.5,406.1,428.8,428.4,22.2
40.5,466.7,399.8,431.0,432.5,33.5
41.0,454.8,423.0,440.8,439.5,15.9
41.5,463.2,423.5,431.0,439.2,21.1
42.0,452.4,426.7,431.0,436.7,13.8
42.5,462.6,436.1,434.3,444.3,15.9
43.0,462.2,444.9,450.9,452.7,8.8
43.5,456.5,420.2,437.6,438.1,18.1
44.0,468.2,423.8,439.9,444.0,22.5
44.5,471.4,420.4,432.6,441.5,26.6
45.0,473.5,424.9,428.1,442.2,27.2
45.5,475.8,434.3,415.2,441.8,31.0
46.0,469.7,414.6,434.0,439.5,28.0
46.5,459.6,420.4,432.7,437.5,20.1
47.0,461.1,420.8,417.5,433.1,24.3
47.5,452.0,412.7,422.6,429.1,20.4
48.0,465.2,421.9,415.2,434.1,27.2
48.5,449.6,398.1,419.0,422.2,25.9
49.0,442.5,411.3,408.0,420.6,19.0
49.5,446.1,412.9,418.1,425.7,17.9
50.0,445.1,394.3,405.4,414.9,26.7
50.5,439.6,398.3,402.6,413.5,22.7
51.0,423.8,406.0,404.4,411.4,10.8
51.5,429.6,408.3,398.8,412.2,15.8
52.0,431.2,397.4,398.1,408.9,19.3
52.5,441.7,392.6,388.1,407.4,29.7
53.0,425.7,380.4,392.7,399.6,23.4
53.5,410.3,393.2,398.9,400.8,8.7
54.0,424.1,387.9,412.6,408.2,18.5
54.5,406.1,390.8,408.8,401.9,9.7
55.0,401.5,396.3,409.4,402.4,6.6
55.5,404.5,391.3,398.6,398.1,6.6
56.0,404.3,381.7,398.4,394.8,11.7
56.5,402.0,372.5,392.7,389.1,15.1
57.0,407.2,393.8,384.7,395.2,11.3
57.5,394.4,390.3,392.3,392.3,2.1
58.0,388.4,375.0,396.2,386.6,10.7
58.5,380.8,376.0,391.2,382.7,7.8
59.0,385.2,372.8,388.9,382.3,8.4
59.5,373.3,376.6,393.2,381.1,10.7
60.0,371.4,372.1,377.9,373.8,3.6
60.5,352.9,372.0,373.4,366.1,11.4
61.0,354.5,368.7,380.2,367.8,12.9
61.5,341.1,365.0,360.4,355.5,12.6
62.0,327.7,362.4,359.0,349.7,19.1
62.5,322.1,350.5,355.7,342.8,18.0
63.0,306.2,340.7,346.6,331.2,21.8
63.5,295.1,332.5,341.8,323.1,24.7
64.0,284.2,318.1,344.4,315.6,30.2
64.5,277.0,306.6,329.1,304.3,26.1
65.0,259.1,302.0,314.7,291.9,29.1
65.5,252.2,290.9,316.2,286.4,32.2
66.0,244.1,288.0,306.3,279.5,31.9
66.5,239.9,271.2,297.2,269.4,28.7
67.0,223.2,260.8,286.9,257.0,32.0
67.5,218.4,256.1,278.8,251.1,30.5
68.0,210.9,240.6,278.2,243.3,33.7
68.5,210.4,236.7,274.1,240.4,32.0
69.0,197.4,227.2,267.5,230.7,35.1
69.5,191.8,222.6,261.8,225.4,35.1
70.0,182.4,212.1,241.5,212.0,29.5
70.5,175.7,211.5,231.3,206.2,28.2
71.0,164.6,202.7,215.5,194.3,26.5
71.5,159.0,197.9,205.2,187.4,24.8
72.0,147.5,194.3,187.3,176.4,25.3
72.5,141.4,181.0,176.9,166.4,21.8
73.0,135.5,175.7,164.5,158.6,20.7
73.5,127.3,164.4,155.1,148.9,19.3
74.0,118.7,152.5,146.2,139.1,18.0
74.5,114.2,142.6,134.6,130.5,14.7
75.0,108.4,130.5,128.6,122.5,12.3
75.5,100.9,120.1,121.2,114.1,11.4
76.0,96.2,109.1,114.4,106.6,9.4
76.5,90.3,99.6,109.1,99.7,9.4
77.0,84.5,90.8,103.8,93.0,9.8
77.5,79.2,85.0,98.9,87.7,10.1
78.0,73.2,77.6,93.4,81.4,10.6
78.5,67.7,72.7,88.9,76.4,11.1
79.0,60.7,67.9,83.4,70.7,11.6
79.5,58.0,65.3,78.4,67.2,10.4
80.0,53.3,61.1,75.3,63.2,11.1
80.5,49.3,56.8,70.2,58.7,10.6
81.0,46.0,52.5,66.5,55.0,10.5
81.5,41.7,50.3,62.0,51.3,10.2
82.0,38.7,46.0,59.6,48.1,10.6
82.5,36.5,43.7,56.3,45.5,10.0
83.0,34.5,39.7,52.7,42.3,9.4
83.5,31.6,37.9,51.9,40.4,10.4