File: 01_Data/Pressure_Treated_Deck/Cone/Pressure_Treated_Deck_Cone_HF50Scan_230612_R2.csv
Names,Time,Stack TC,Smoke TC,Exh Press,Smoke Comp,Smoke Meas,CO Meter,CO2 Meter,O2 Meter,Sample Mass,Ext Coeff,Start Test,Flame Verif
Chan Gain,,500,500,1,1,1,1,1,1,1,1,1.0,1.0
Offset,,0,0,0.245636,0,0,0,0,0,0,0,0.0,0.0
Gain,,1,1,25.011,13.2729,15.6672,1,1,1,1.00098,1.01809,1.0,1.0
Units,sec,C,C,Pa,%,%,%,%,%,g,/m,,
Baseline,,32.2225,34.6656,155.947,99.6897,99.7446,0.000584466,0.0525263,20.9479,-444.895,-0.00490909,,
46,11.25,30.8665,32.6249,156.793,99.6941,99.3405,0.000826133,0.0668084,20.9307,203.5,0.031735,0.0,0.0
92,22.75,31.6253,33.4916,156.67,99.7443,97.536,0.00102034,0.0634235,20.9355,202.92,0.199941,0.0,0.0
138,34.25,32.9317,37.2436,143.284,99.8687,99.2286,0.0010059,0.0695366,20.9293,202.159,0.0574233,0.0,1.0
184,45.75,40.1921,53.4687,137.633,99.9792,99.8783,0.0023208,0.302495,20.8031,200.317,0.00901697,0.0,0.0
230,57.25,48.5206,64.2922,133.401,99.9914,98.2666,0.00334681,0.513435,20.4437,198.225,0.155394,0.0,0.0
276,68.75,53.9884,68.7374,139.011,99.9148,97.4265,0.00401264,0.527482,20.3975,196.433,0.225228,0.0,0.0
322,80.25,55.9255,68.9354,140.133,99.752,97.9587,0.00460481,0.485772,20.4269,194.731,0.162015,0.0,0.0
368,91.75,56.9196,68.0149,143.191,99.5539,97.9888,0.00465232,0.438043,20.4844,193.01,0.141518,0.0,0.0
414,103.25,57.8071,67.6323,140.208,99.398,97.361,0.00376386,0.405605,20.5308,191.588,0.184917,0.0,0.0
460,114.75,57.535,67.0509,141.643,99.2919,97.0751,0.00366007,0.381616,20.5589,190.167,0.201642,0.0,0.0
506,126.25,57.4614,66.4966,145.177,99.4579,97.8248,0.00364862,0.369726,20.5764,188.595,0.147861,0.0,0.0
552,137.75,57.5598,65.9428,138.479,99.7706,97.9314,0.00361019,0.362491,20.5893,187.304,0.166168,0.0,0.0
598,149.25,57.8932,65.8635,139.304,99.9841,99.0813,0.00324197,0.362038,20.5925,185.853,0.081004,0.0,0.0
644,160.75,58.1245,65.8935,139.667,100.049,99.0703,0.00329012,0.361556,20.5912,184.371,0.0877819,0.0,0.0
690,172.25,58.5959,66.1968,142.697,99.9505,98.8494,0.00294366,0.351146,20.6042,183.07,0.0989263,0.0,0.0
736,183.75,58.3917,66.3924,147.779,99.6354,98.5329,0.00318616,0.343042,20.61,181.659,0.0993674,0.0,0.0
782,195.25,58.5817,65.1042,142.069,99.8581,99.3127,0.00288729,0.33592,20.6202,180.057,0.0489114,0.0,0.0
828,206.75,58.0329,65.2947,140.587,100.138,99.7975,0.00291588,0.321689,20.638,179.106,0.0304534,0.0,0.0
874,218.25,58.0457,65.1629,141.737,100.326,100.445,0.0027827,0.317006,20.6398,177.725,-0.0106248,0.0,0.0
920,229.75,57.6745,65.2099,138.647,100.423,100.084,0.00248383,0.309863,20.6511,176.484,0.0301415,0.0,0.0
966,241.25,57.3537,64.4942,142.272,100.473,100.861,0.00223269,0.305037,20.6571,175.232,-0.0343753,0.0,0.0
1012,252.75,57.508,63.6529,137.922,100.476,101.864,0.00219646,0.300344,20.6645,173.941,-0.122581,0.0,0.0
1058,264.25,57.5281,64.4699,137.999,100.452,101.219,0.0022386,0.296231,20.6679,172.76,-0.0680139,0.0,0.0
1104,275.75,57.6814,64.3357,142.144,100.411,101.099,0.00276567,0.293306,20.6702,171.549,-0.0609436,0.0,0.0
1150,287.25,57.9456,64.0816,140.831,100.323,101.998,0.00231235,0.291269,20.6743,170.197,-0.147888,0.0,0.0
1196,298.75,57.485,63.8169,141.561,100.212,101.08,0.0022266,0.290987,20.6763,168.986,-0.0770382,0.0,0.0
1242,310.25,57.8314,63.936,142.588,100.095,101.208,0.00224576,0.288339,20.6794,167.845,-0.098826,0.0,0.0
1288,321.75,57.6791,63.1877,137.338,99.9059,100.834,0.00242359,0.286374,20.6833,166.504,-0.0825873,0.0,0.0
1334,333.25,57.5288,63.4393,141.624,99.7747,100.034,0.00247049,0.285113,20.6829,165.293,-0.0231566,0.0,0.0
1380,344.75,57.6274,64.0156,139.824,99.6649,100.644,0.00233638,0.283261,20.6838,164.041,-0.0872879,0.0,0.0
1426,356.25,57.7648,63.5873,143.437,99.6021,100.41,0.00184962,0.279145,20.6896,162.77,-0.072145,0.0,0.0
1472,367.75,56.9851,62.9798,137.519,99.6641,100.594,0.00231347,0.284991,20.6825,161.599,-0.0829468,0.0,0.0
1518,379.25,57.6711,63.0929,141.845,99.8059,100.651,0.00198513,0.286991,20.6806,160.408,-0.0753025,0.0,0.0
1564,390.75,56.9254,63.6766,140.891,100.046,101.052,0.00237314,0.286303,20.6826,159.157,-0.0893512,0.0,0.0
1610,402.25,57.568,63.1998,136.84,100.309,101.484,0.00233969,0.284771,20.6857,158.015,-0.104039,0.0,0.0
1656,413.75,57.7519,63.5107,140.291,100.474,101.273,0.00231542,0.289155,20.6826,156.804,-0.0707145,0.0,0.0
1702,425.25,58.1768,63.6991,145.009,100.503,101.53,0.00209576,0.286475,20.6822,155.563,-0.0908202,0.0,0.0
1748,436.75,58.0712,64.4042,137.97,100.388,101.217,0.00206641,0.286986,20.6805,154.462,-0.0734228,0.0,0.0
1794,448.25,58.1434,64.2578,139.927,100.174,101.144,0.00194959,0.289442,20.6824,153.221,-0.0860485,0.0,0.0
1840,459.75,58.0795,64.0668,145.164,99.8719,100.956,0.00185396,0.291682,20.6773,151.969,-0.0964221,0.0,0.0
1886,471.25,57.8633,64.1698,139.552,99.5685,100.83,0.00205281,0.294127,20.675,150.878,-0.112419,0.0,0.0
1932,482.75,58.7075,64.4015,144.389,99.2348,100.213,0.00171734,0.295971,20.673,149.677,-0.0876088,0.0,0.0
1978,494.25,58.5106,64.127,142.763,98.9241,99.4796,0.00196568,0.296933,20.6708,148.456,-0.050011,0.0,0.0
2024,505.75,58.8624,64.4509,135.993,98.7835,99.5958,0.00213941,0.300135,20.6665,147.365,-0.0731324,0.0,0.0
2070,517.25,59.5182,65.4996,143.588,98.8803,99.0761,0.00191984,0.303617,20.6632,146.114,-0.0176597,0.0,0.0
2116,528.75,59.27,65.8861,138.597,99.2708,99.7019,0.00226278,0.306174,20.6606,144.882,-0.0387004,0.0,0.0
2162,540.25,60.0016,65.8094,141.981,99.7391,99.7373,0.00207361,0.310317,20.6566,143.821,0.000156497,0.0,0.0
2208,551.75,60.2698,66.6522,144.182,99.9975,100.335,0.00201162,0.312992,20.6533,142.55,-0.0301319,0.0,0.0
2254,563.25,60.1726,66.4866,138.406,99.8723,100.327,0.00226614,0.319915,20.6444,141.329,-0.0405931,0.0,0.0
2300,574.75,60.7634,67.1101,139.71,99.4985,99.4103,0.00222777,0.325545,20.6377,140.138,0.00791826,0.0,0.0
2346,586.25,60.7516,67.9417,137.525,99.3109,99.3926,0.00206098,0.333252,20.6293,138.897,-0.00734138,0.0,0.0
2392,597.75,61.6428,68.417,140.889,99.7358,99.9032,0.00219455,0.341183,20.617,137.645,-0.0149773,0.0,0.0
2438,609.25,62.5389,69.1223,139.049,99.9922,99.5924,0.00258659,0.35022,20.6078,136.354,0.0357769,0.0,0.0
2484,620.75,62.9683,70.1006,143.113,99.9375,99.5202,0.00232047,0.360004,20.5954,135.043,0.0373684,0.0,0.0
2530,632.25,63.3839,71.0137,140.867,99.8193,98.7538,0.00252512,0.370514,20.5836,133.711,0.0958366,0.0,0.0
2576,643.75,64.0331,71.3546,136.026,99.6475,98.1299,0.00252327,0.378827,20.5742,132.37,0.137061,0.0,0.0
2622,655.25,64.552,72.1676,141.454,99.5876,97.8501,0.00271601,0.384424,20.5659,130.939,0.157179,0.0,0.0
2668,666.75,64.9925,72.2074,135.353,99.6961,96.4588,0.00296012,0.390256,20.558,129.607,0.294806,0.0,0.0
2714,678.25,65.4306,72.9046,137.157,99.7314,97.4519,0.00308696,0.395751,20.5524,128.226,0.206489,0.0,0.0
2760,689.75,65.2308,73.4802,138.949,99.688,97.0206,0.00332284,0.40091,20.5469,126.815,0.242217,0.0,0.0
2806,701.25,66.1002,73.9675,139.026,99.6422,96.3608,0.00353096,0.407938,20.5365,125.433,0.299058,0.0,0.0
2852,712.75,66.5068,74.5918,132.904,99.5568,96.9814,0.00355758,0.408101,20.5334,123.912,0.234062,0.0,0.0
2898,724.25,67.6298,74.8807,141.979,99.5782,96.1824,0.00345845,0.41297,20.53,122.53,0.309863,0.0,0.0
2944,735.75,67.077,74.1819,134.592,99.5827,96.5764,0.00416075,0.411471,20.5294,121.089,0.273758,0.0,0.0
2990,747.25,67.4985,75.1734,136.54,99.7309,96.4483,0.00385821,0.420814,20.521,119.588,0.298899,0.0,0.0
3036,758.75,67.8216,75.5429,136.379,100.033,96.3259,0.00405103,0.426143,20.5114,118.076,0.337259,0.0,0.0
3082,770.25,67.736,75.6611,134.787,100.354,95.2621,0.00415877,0.429974,20.5029,116.645,0.464996,0.0,0.0
3128,781.75,68.5396,76.1536,131.785,100.495,95.3405,0.00467632,0.43583,20.4992,115.153,0.470219,0.0,0.0
3174,793.25,69.1015,76.3221,135.371,100.348,95.8822,0.00437579,0.433392,20.4999,113.622,0.406543,0.0,0.0
3220,804.75,69.5758,76.7502,137.88,99.9683,95.0283,0.00405931,0.433538,20.4995,112.23,0.452595,0.0,0.0
3266,816.25,69.2983,76.7605,136.035,99.4608,95.3692,0.00423595,0.430378,20.4986,110.769,0.375158,0.0,0.0
3312,827.75,69.3768,76.6409,133.813,99.0039,94.0242,0.00391311,0.424751,20.5038,109.348,0.460881,0.0,0.0
3358,839.25,68.8551,76.0128,133.32,98.8005,94.9704,0.00344068,0.414335,20.5145,108.106,0.353096,0.0,0.0
3404,850.75,68.8771,75.451,138.88,98.901,94.9781,0.00318533,0.398084,20.5299,106.855,0.361452,0.0,0.0
3450,862.25,68.403,74.4863,133.425,99.2072,96.4234,0.00304132,0.379418,20.5482,105.714,0.254179,0.0,0.0
3496,873.75,67.2892,72.4449,138.637,99.6625,97.7827,0.00287915,0.350584,20.5794,104.843,0.170052,0.0,0.0
3542,885.25,65.632,69.8375,143.604,99.9477,98.6395,0.00259837,0.312879,20.6146,103.982,0.117656,0.0,0.0
3588,896.75,63.7614,66.9573,146.295,99.974,99.5403,0.00227851,0.26734,20.6686,103.312,0.0388228,0.0,0.0
3634,908.25,61.7593,63.7216,136.642,99.6576,99.6249,0.00195586,0.222568,20.7193,102.921,0.0029304,0.0,0.0
3680,919.75,58.7206,60.1786,148.936,99.2688,100.33,0.00193823,0.179219,20.7719,102.521,-0.0949382,0.0,0.0
3726,931.25,56.6714,56.5946,147.185,99.7589,100.722,0.00197584,0.146968,20.8103,102.321,-0.085784,0.0,0.0
3772,942.75,54.4711,54.8412,145.204,99.9703,100.719,0.00222516,0.133472,20.8375,102.19,-0.066664,0.0,0.0
3818,954.25,52.7918,53.1935,146.647,99.7058,100.384,0.00221808,0.127409,20.8447,101.9,-0.0605127,0.0,0.0
3864,965.75,51.7687,52.3264,147.321,100.263,100.9,0.0023771,0.12528,20.8497,101.74,-0.0565873,0.0,0.0
3910,977.25,49.287,49.7858,151.083,100.495,101.243,0.00225948,0.123257,20.852,101.64,-0.066235,0.0,0.0
3956,988.75,48.4436,49.3703,147.282,100.266,100.99,0.0026509,0.123152,20.8543,101.42,-0.0642869,0.0,0.0
4002,1000.25,47.956,49.4311,146.359,99.9262,100.7,0.00240423,0.119978,20.8571,101.34,-0.068913,0.0,0.0
4048,1011.75,47.2593,48.3103,149.982,99.5381,100.353,0.00253133,0.119397,20.861,101.24,-0.0728228,0.0,0.0
4094,1023.25,46.5395,47.9465,147.681,99.2943,100.118,0.00254379,0.119171,20.8602,100.899,-0.0738119,0.0,0.0
4140,1034.75,46.3676,48.09,148.976,99.2291,99.7163,0.0024984,0.119027,20.8605,100.869,-0.043739,0.0,0.0
4186,1046.25,46.0791,47.2161,150.153,99.2048,100.09,0.00299194,0.11906,20.8605,100.779,-0.0793505,0.0,0.0
4232,1057.75,45.2001,46.9452,151.361,99.2817,100.072,0.00263622,0.118291,20.8645,100.549,-0.0708465,0.0,0.0
4278,1069.25,45.2075,47.5014,149.984,99.3988,100.119,0.00306421,0.117644,20.8651,100.479,-0.0644601,0.0,0.0
4324,1080.75,44.6905,46.6313,153.192,99.5547,100.082,0.00300126,0.116937,20.8645,100.349,-0.0471332,0.0,0.0
4354,1088.25,43.9445,46.2164,147.348,99.6568,100.125,0.00262841,0.115887,20.8639,100.179,-0.0418621,0.0,0.0