File: 01_Data/Pressure_Treated_Deck/Cone/Pressure_Treated_Deck_HRRPUA_50.csv
Time after Ignition,Pressure_Treated_Deck_R1,Pressure_Treated_Deck_R2,Pressure_Treated_Deck_R3,Mean,Std. Dev.
0.0,4.2,9.1,0.0,4.4,4.5
3.5,2.1,9.3,-0.3,3.7,5.0
7.0,1.3,8.5,-0.4,3.1,4.7
10.5,2.7,8.3,1.1,4.1,3.8
14.0,28.8,50.4,27.9,35.7,12.8
17.5,117.9,131.8,96.6,115.4,17.8
21.0,171.8,185.6,142.0,166.5,22.3
24.5,212.2,227.6,183.4,207.7,22.4
28.0,225.6,246.2,204.6,225.5,20.8
31.5,236.0,254.2,214.8,235.0,19.8
35.0,247.5,253.2,218.6,239.8,18.5
38.5,246.7,260.6,221.3,242.9,19.9
42.0,237.1,260.5,221.5,239.7,19.6
45.5,239.4,253.0,229.3,240.5,11.9
49.0,236.0,250.6,223.0,236.5,13.8
52.5,239.3,233.9,219.1,230.8,10.5
56.0,231.8,230.6,221.0,227.8,5.9
59.5,220.2,223.0,215.3,219.5,3.9
63.0,220.1,214.7,215.8,216.9,2.9
66.5,219.7,203.8,213.7,212.4,8.0
70.0,215.8,197.4,210.2,207.8,9.4
73.5,211.1,196.6,213.2,207.0,9.0
77.0,205.9,191.9,207.4,201.7,8.5
80.5,205.6,188.2,203.1,199.0,9.4
84.0,201.6,181.6,202.2,195.1,11.7
87.5,197.9,183.8,201.1,194.3,9.2
91.0,189.6,177.8,195.4,187.6,9.0
94.5,190.9,174.9,188.9,184.9,8.7
98.0,188.6,172.3,187.4,182.8,9.1
101.5,188.7,169.9,184.7,181.1,9.9
105.0,181.1,170.0,177.5,176.2,5.7
108.5,182.5,168.4,178.1,176.3,7.2
112.0,178.0,166.8,174.0,172.9,5.7
115.5,174.4,167.2,170.6,170.7,3.6
119.0,173.6,166.0,168.4,169.3,3.9
122.5,174.2,170.4,166.8,170.5,3.7
126.0,172.1,166.7,164.6,167.8,3.9
129.5,169.1,168.8,162.2,166.7,3.9
133.0,166.5,166.3,163.1,165.3,1.9
136.5,166.1,164.8,157.9,162.9,4.4
140.0,163.5,164.1,154.3,160.6,5.5
143.5,162.1,160.7,154.5,159.1,4.0
147.0,158.4,159.9,150.8,156.4,4.9
150.5,158.9,160.2,147.7,155.6,6.9
154.0,157.0,157.9,147.7,154.2,5.7
157.5,155.8,156.1,148.7,153.5,4.2
161.0,154.0,157.8,146.0,152.6,6.0
164.5,155.1,154.7,146.6,152.2,4.8
168.0,153.4,155.1,145.1,151.2,5.4
171.5,149.2,153.0,145.0,149.1,4.0
175.0,147.6,147.5,142.6,145.9,2.8
178.5,145.5,147.5,142.8,145.3,2.4
182.0,145.2,148.0,140.5,144.6,3.8
185.5,148.2,148.1,139.3,145.2,5.1
189.0,144.3,144.4,137.2,142.0,4.1
192.5,145.2,143.2,131.5,140.0,7.4
196.0,144.0,143.2,133.1,140.1,6.1
199.5,143.4,142.9,133.8,140.0,5.4
203.0,144.8,141.2,130.3,138.8,7.6
206.5,141.5,138.3,129.9,136.6,6.0
210.0,139.7,137.8,132.7,136.7,3.6
213.5,140.5,136.1,130.1,135.6,5.2
217.0,137.3,140.2,126.4,134.6,7.3
220.5,139.2,132.2,127.5,133.0,5.9
224.0,138.1,134.2,125.0,132.4,6.7
227.5,134.9,134.4,126.4,131.9,4.8
231.0,138.5,133.0,125.8,132.4,6.4
234.5,138.5,132.9,123.4,131.6,7.6
238.0,137.2,132.9,123.3,131.2,7.1
241.5,133.8,132.9,124.3,130.3,5.2
245.0,136.4,130.5,128.7,131.9,4.0
248.5,137.0,131.6,125.1,131.2,5.9
252.0,134.1,131.0,124.8,130.0,4.7
255.5,134.9,129.2,123.4,129.1,5.8
259.0,137.8,128.6,121.0,129.1,8.4
262.5,136.4,131.0,120.6,129.4,8.0
266.0,136.0,130.6,121.9,129.5,7.1
269.5,133.5,129.6,122.1,128.4,5.8
273.0,132.1,128.4,117.9,126.1,7.4
276.5,134.5,128.5,116.5,126.5,9.2
280.0,132.8,130.2,118.0,127.0,7.9
283.5,129.9,129.3,116.5,125.2,7.6
287.0,131.8,126.8,115.8,124.8,8.2
290.5,132.6,127.2,116.7,125.5,8.1
294.0,128.7,127.5,115.0,123.7,7.5
297.5,130.5,128.6,117.2,125.4,7.2
301.0,126.6,127.6,116.4,123.6,6.2
304.5,129.3,125.2,117.8,124.1,5.8
308.0,127.7,126.0,120.5,124.7,3.8
311.5,129.5,129.5,118.8,126.0,6.2
315.0,127.8,126.1,117.0,123.7,5.8
318.5,126.5,124.8,117.8,123.0,4.7
322.0,130.9,125.5,120.0,125.5,5.5
325.5,127.4,123.2,119.7,123.4,3.8
329.0,125.0,122.5,120.0,122.5,2.5
332.5,126.4,125.8,121.2,124.5,2.8
336.0,129.1,126.4,121.3,125.6,3.9
339.5,128.5,125.8,123.6,125.9,2.4
343.0,131.3,124.5,122.3,126.0,4.7
346.5,131.2,126.3,121.4,126.3,4.9
350.0,131.1,127.5,124.0,127.5,3.5
353.5,130.8,127.3,119.9,126.0,5.6
357.0,128.6,126.5,120.7,125.2,4.1
360.5,128.1,126.2,122.8,125.7,2.7
364.0,129.1,129.0,120.5,126.2,5.0
367.5,129.7,127.0,123.7,126.8,3.0
371.0,131.5,125.4,122.2,126.3,4.7
374.5,130.9,124.2,119.9,125.0,5.5
378.0,128.3,124.4,118.4,123.7,5.0
381.5,130.9,126.3,120.8,126.0,5.1
385.0,131.3,124.4,119.1,125.0,6.1
388.5,129.6,127.1,118.7,125.1,5.7
392.0,128.9,125.2,119.3,124.5,4.9
395.5,129.6,127.2,121.4,126.1,4.2
399.0,129.4,125.9,121.9,125.7,3.8
402.5,133.7,127.1,122.1,127.6,5.8
406.0,132.1,127.0,123.8,127.6,4.2
409.5,131.2,125.5,123.5,126.7,4.0
413.0,130.7,127.8,122.5,127.0,4.2
416.5,130.0,125.2,122.3,125.8,3.9
420.0,130.2,125.9,121.8,126.0,4.2
423.5,132.0,128.2,121.9,127.4,5.1
427.0,132.9,127.7,120.3,127.0,6.3
430.5,133.3,128.9,124.2,128.8,4.5
434.0,133.0,129.3,122.5,128.3,5.3
437.5,133.4,129.9,124.8,129.4,4.4
441.0,136.4,129.8,123.8,130.0,6.3
444.5,135.4,129.3,124.4,129.7,5.5
448.0,136.5,129.1,126.3,130.6,5.3
451.5,137.3,130.6,125.3,131.0,6.0
455.0,136.2,131.2,125.8,131.1,5.2
458.5,135.8,132.0,125.7,131.1,5.1
462.0,136.9,130.3,124.7,130.6,6.1
465.5,139.9,131.5,125.6,132.3,7.2
469.0,137.8,134.9,125.1,132.6,6.6
472.5,141.0,131.7,127.0,133.2,7.1
476.0,137.2,133.8,128.4,133.1,4.4
479.5,139.0,134.8,128.6,134.2,5.2
483.0,141.2,134.0,130.9,135.4,5.2
486.5,143.0,133.2,129.5,135.2,7.0
490.0,143.7,133.7,132.3,136.6,6.2
493.5,141.0,135.7,133.6,136.8,3.8
497.0,141.4,133.2,134.5,136.3,4.4
500.5,145.8,135.0,134.4,138.4,6.4
504.0,145.7,138.9,135.2,139.9,5.3
507.5,145.6,136.2,136.5,139.4,5.3
511.0,147.4,138.2,138.3,141.3,5.3
514.5,145.2,137.3,140.2,140.9,4.0
518.0,145.4,140.0,138.8,141.4,3.5
521.5,147.1,140.6,142.8,143.5,3.3
525.0,147.1,139.9,142.3,143.1,3.6
528.5,149.2,142.3,142.3,144.6,4.0
532.0,151.3,145.7,141.2,146.1,5.1
535.5,152.6,146.2,143.2,147.3,4.8
539.0,148.7,146.7,144.8,146.8,2.0
542.5,151.1,145.1,146.3,147.5,3.1
546.0,152.1,148.7,144.7,148.5,3.7
549.5,150.1,146.4,147.0,147.9,2.0
553.0,150.3,146.1,147.6,148.0,2.1
556.5,153.6,149.5,146.3,149.8,3.7
560.0,152.9,153.2,149.8,152.0,1.9
563.5,154.6,156.1,153.3,154.7,1.4
567.0,156.6,155.5,150.6,154.2,3.2
570.5,156.5,153.5,153.4,154.4,1.8
574.0,157.1,155.6,154.5,155.7,1.3
577.5,157.1,158.5,155.1,156.9,1.7
581.0,158.4,159.5,157.1,158.3,1.2
584.5,160.4,161.6,155.9,159.3,3.0
588.0,165.4,161.8,160.2,162.5,2.6
591.5,164.3,168.8,160.2,164.4,4.3
595.0,160.9,166.9,160.7,162.8,3.5
598.5,163.8,167.6,163.7,165.0,2.3
602.0,172.0,170.0,165.6,169.2,3.3
605.5,171.3,169.7,166.4,169.1,2.5
609.0,169.0,169.1,172.0,170.0,1.7
612.5,171.8,173.6,170.7,172.0,1.4
616.0,173.6,176.2,172.5,174.1,1.9
619.5,176.8,176.4,172.8,175.4,2.2
623.0,177.4,177.3,176.0,176.9,0.8
626.5,180.7,177.9,179.5,179.4,1.4
630.0,179.7,180.4,179.5,179.9,0.5
633.5,179.1,178.5,178.5,178.7,0.4
637.0,181.0,181.4,182.7,181.7,0.9
640.5,181.5,181.3,183.4,182.1,1.1
644.0,186.6,182.5,183.5,184.2,2.1
647.5,189.2,183.5,187.4,186.7,2.9
651.0,187.4,189.0,189.2,188.5,1.0
654.5,185.6,186.0,190.2,187.2,2.6
658.0,186.7,185.4,190.9,187.7,2.9
661.5,188.2,186.9,191.7,188.9,2.5
665.0,187.9,188.8,186.6,187.8,1.1
668.5,189.1,186.1,187.6,187.6,1.5
672.0,187.2,189.5,193.5,190.1,3.2
675.5,190.6,187.5,189.6,189.2,1.6
679.0,192.0,192.8,191.3,192.0,0.8
682.5,194.5,190.0,195.5,193.3,2.9
686.0,193.8,191.5,198.2,194.5,3.4
689.5,196.6,191.2,193.4,193.7,2.7
693.0,194.1,193.7,195.0,194.3,0.7
696.5,196.1,192.0,196.3,194.8,2.4
700.0,200.7,192.7,194.1,195.9,4.3
703.5,201.1,193.4,197.4,197.3,3.9
707.0,199.5,192.2,197.8,196.5,3.8
710.5,199.0,194.7,201.4,198.4,3.4
714.0,199.4,196.2,198.9,198.1,1.7
717.5,203.0,196.9,199.8,199.9,3.1
721.0,204.8,196.2,199.1,200.0,4.4
724.5,206.4,198.3,202.7,202.5,4.0
728.0,205.8,198.9,204.7,203.1,3.7
731.5,209.0,201.5,204.6,205.0,3.8
735.0,205.1,204.5,208.1,205.9,2.0
738.5,212.4,205.6,205.3,207.8,4.0
742.0,206.2,203.9,201.1,203.8,2.5
745.5,209.1,203.4,202.4,205.0,3.6
749.0,209.3,206.6,204.2,206.7,2.5
752.5,211.3,204.2,206.0,207.2,3.7
756.0,210.6,207.0,202.5,206.7,4.1
759.5,212.7,204.9,205.0,207.5,4.5
763.0,206.8,203.7,204.9,205.2,1.6
766.5,213.1,203.4,203.3,206.6,5.7
770.0,210.0,203.0,204.4,205.8,3.7
773.5,216.2,205.3,203.6,208.4,6.8
777.0,210.3,208.9,204.0,207.7,3.3
780.5,207.5,206.7,203.9,206.0,1.9
784.0,209.4,206.3,199.8,205.2,4.9
787.5,212.5,204.9,199.3,205.6,6.6
791.0,208.0,205.0,202.6,205.2,2.7
794.5,210.3,207.7,195.9,204.7,7.7
798.0,204.7,197.9,194.4,199.0,5.2
801.5,206.1,204.0,196.7,202.2,4.9
805.0,206.8,199.2,194.6,200.2,6.1
808.5,198.3,203.4,191.4,197.7,6.0
812.0,194.8,194.7,188.0,192.5,3.9
815.5,197.7,194.0,187.3,193.0,5.3
819.0,192.4,192.0,179.5,188.0,7.3
822.5,186.7,190.5,178.1,185.1,6.3
826.0,187.2,191.3,179.2,185.9,6.2
829.5,185.2,189.5,175.7,183.5,7.1
833.0,182.1,185.9,168.5,178.8,9.1
836.5,178.1,179.7,168.5,175.4,6.0
840.0,177.8,177.3,166.5,173.9,6.4
843.5,172.1,171.2,159.7,167.7,6.9
847.0,167.9,168.5,153.4,163.2,8.5
850.5,166.2,163.0,148.7,159.3,9.3
854.0,159.6,158.1,145.6,154.4,7.7
857.5,154.5,147.7,140.4,147.5,7.1
861.0,149.2,143.6,135.9,142.9,6.7
864.5,142.3,136.4,130.8,136.5,5.7
868.0,137.1,128.4,127.4,130.9,5.3
871.5,130.7,119.5,121.1,123.8,6.1
875.0,123.8,113.8,115.6,117.7,5.4
878.5,116.5,106.7,107.4,110.2,5.5
882.0,112.2,100.0,103.4,105.2,6.3
885.5,104.6,91.5,101.2,99.1,6.8
889.0,98.6,85.7,95.5,93.3,6.7
892.5,92.1,78.5,91.9,87.5,7.8
896.0,87.5,72.8,87.2,82.5,8.4
899.5,80.0,68.2,83.6,77.3,8.0
903.0,75.4,62.1,81.5,73.0,9.9
906.5,70.3,55.8,76.9,67.7,10.8
910.0,66.0,55.0,72.1,64.4,8.7
913.5,62.6,53.4,68.6,61.5,7.7
917.0,60.5,52.2,62.7,58.4,5.6
920.5,56.7,51.2,57.7,55.2,3.5
924.0,53.9,51.2,53.4,52.9,1.4
927.5,50.0,49.7,51.1,50.3,0.7
931.0,49.5,48.4,48.1,48.7,0.8
934.5,48.3,47.8,46.3,47.5,1.1
938.0,47.6,,44.6,46.1,2.1
941.5,47.1,,44.0,45.5,2.2
945.0,47.2,,43.9,45.6,2.4
948.5,46.4,,45.5,45.9,0.6
952.0,45.9,,45.9,45.9,0.0
955.5,45.7,,45.4,45.5,0.2
959.0,46.1,,44.5,45.3,1.2
962.5,44.6,,44.0,44.3,0.4
966.0,45.7,,44.1,44.9,1.1
969.5,46.1,,45.5,45.8,0.4
973.0,45.9,,45.6,45.7,0.2
976.5,44.5,,,44.5,
980.0,43.9,,,43.9,
983.5,42.8,,,42.8,
986.75,43.4,,,43.4,