File: 01_Data/Pressure_Treated_Deck/Cone/Pressure_Treated_Deck_Cone_HF25Scan_230612_R2.csv
Names,Time,Stack TC,Smoke TC,Exh Press,Smoke Comp,Smoke Meas,CO Meter,CO2 Meter,O2 Meter,Sample Mass,Ext Coeff,Start Test,Flame Verif
Chan Gain,,500,500,1,1,1,1,1,1,1,1,1.0,1.0
Offset,,0,0,0.13972,0,0,0,0,0,0,0,0.0,0.0
Gain,,1,1,25.011,13.3025,15.4883,1,1,1,1.0009,1.01862,1.0,1.0
Units,sec,C,C,Pa,%,%,%,%,%,g,/m,,
Baseline,,26.0099,27.5868,159.286,100.095,99.157,0.000656969,0.0439777,20.9646,-443.757,0.084122,,
60,14.75,24.1767,24.9813,157.993,100.509,99.6518,0.000474511,0.045432,20.9623,194.536,0.0765262,0.0,0.0
120,29.75,24.0543,26.151,160.542,100.564,99.6059,0.000525585,0.0446338,20.9653,194.216,0.08551,0.0,0.0
180,44.75,24.1138,25.87,156.868,100.644,99.4022,0.00065697,0.0447814,20.9666,194.055,0.110906,0.0,0.0
240,59.75,24.7555,26.4212,158.97,100.577,99.8158,0.00070595,0.0480767,20.9611,193.765,0.0678938,0.0,0.0
300,74.75,25.1488,26.6182,161.269,100.183,99.2231,0.000654311,0.0466254,20.9637,193.555,0.0860585,0.0,0.0
360,89.75,24.7465,27.1063,164.537,99.7181,98.4743,0.000648611,0.0493177,20.9626,193.345,0.112146,0.0,0.0
420,104.75,24.8387,26.383,164.203,100.137,98.4559,0.000793347,0.0480394,20.9623,193.115,0.151245,0.0,0.0
480,119.75,25.0041,26.6316,158.9,99.6747,97.65,0.000884315,0.0522274,20.9581,192.924,0.183366,0.0,0.0
540,134.75,24.9973,27.0168,158.543,99.6925,96.9855,0.00139085,0.0498893,20.9593,192.654,0.245985,0.0,0.0
600,149.75,25.4919,26.7849,161.552,100.114,97.2979,0.00153846,0.0504133,20.9592,192.284,0.254899,0.0,0.0
660,164.75,25.4328,27.3712,162.541,99.7733,97.4945,0.00158175,0.0508611,20.9585,191.853,0.206446,0.0,0.0
720,179.75,25.169,27.95,161.303,99.1343,96.2278,0.00190923,0.0516782,20.9577,191.613,0.265893,0.0,0.0
780,194.75,26.2673,31.0578,147.753,98.9106,97.7989,0.0021574,0.0521123,20.9591,190.802,0.100999,0.0,0.0
840,209.75,33.352,43.0644,149.525,99.0669,97.7048,0.00247864,0.290365,20.7311,189.181,0.123704,0.0,0.0
900,224.75,37.9129,47.852,146.359,99.2411,97.8788,0.00299245,0.349386,20.6127,187.459,0.123505,0.0,0.0
960,239.75,40.5144,49.5801,150.325,99.3491,97.65,0.00286581,0.339075,20.62,185.738,0.154131,0.0,0.0
1020,254.75,42.2538,50.2295,144.685,99.4303,97.9369,0.00299348,0.336306,20.6291,184.257,0.135216,0.0,0.0
1080,269.75,42.8904,49.3013,148.358,99.5257,97.8764,0.00276236,0.310077,20.6514,182.755,0.149307,0.0,0.0
1140,284.75,43.0908,49.2331,148.903,99.602,98.229,0.00259579,0.293379,20.6776,181.354,0.124024,0.0,0.0
1200,299.75,43.0218,48.5591,149.675,99.4481,98.5226,0.00267734,0.275174,20.6972,179.953,0.0835506,0.0,0.0
1260,314.75,42.5932,47.939,150.15,99.1627,98.0376,0.00257619,0.267213,20.7105,178.661,0.101963,0.0,0.0
1320,329.75,42.0025,46.513,152.676,98.9387,98.3151,0.00223253,0.249563,20.7287,177.48,0.0564952,0.0,0.0
1380,344.75,41.7817,46.7846,151.328,98.9496,97.7091,0.00240358,0.239946,20.7399,176.269,0.112728,0.0,0.0
1440,359.75,41.2336,45.85,155.612,99.2561,98.7338,0.00263166,0.229285,20.7546,175.018,0.04714,0.0,0.0
1500,374.75,41.1209,44.8252,150.125,99.6682,99.25,0.00225992,0.221642,20.7633,173.807,0.037567,0.0,0.0
1560,389.75,40.4829,44.8219,149.27,100.028,99.4944,0.00236424,0.212155,20.7744,172.596,0.0478191,0.0,0.0
1620,404.75,39.7728,44.5744,151.275,100.15,99.7477,0.00271719,0.200687,20.7865,171.525,0.0360034,0.0,0.0
1680,419.75,40.5773,43.7988,147.999,99.9507,99.785,0.00313602,0.19677,20.7918,170.414,0.0148222,0.0,0.0
1740,434.75,40.0474,43.7749,151.704,99.5074,98.8927,0.00322766,0.195708,20.7919,169.303,0.0553711,0.0,0.0
1800,449.75,39.0226,43.4393,153.919,99.6905,99.5326,0.00319379,0.194528,20.7962,168.122,0.0141587,0.0,0.0
1860,464.75,39.6883,43.1288,152.134,100.141,99.5894,0.00320258,0.193458,20.7968,166.971,0.0493658,0.0,0.0
1920,479.75,39.7981,42.9754,153.41,99.9097,99.1129,0.00246542,0.193447,20.7966,165.9,0.0715443,0.0,0.0
1980,494.75,39.2427,43.1056,148.09,100.165,99.8588,0.00298507,0.191684,20.7996,164.879,0.0273987,0.0,0.0
2040,509.75,39.298,42.2779,155.037,100.641,99.9916,0.00280984,0.190263,20.8019,163.808,0.0578288,0.0,0.0
2100,524.75,39.1741,42.5849,151.049,100.458,99.8309,0.00305536,0.18768,20.8048,162.707,0.05593,0.0,0.0
2160,539.75,38.7023,42.0248,150.429,99.5545,98.6852,0.00269114,0.18651,20.8078,161.586,0.0783678,0.0,0.0
2220,554.75,38.7235,41.3521,152.723,98.9695,98.4436,0.00281883,0.184126,20.8102,160.705,0.047604,0.0,0.0
2280,569.75,38.793,41.6232,154.571,99.2265,99.0028,0.00297492,0.182098,20.811,159.744,0.0201653,0.0,0.0
2340,584.75,37.9643,40.9298,153.348,99.5675,99.37,0.00301938,0.17983,20.8137,158.754,0.0177355,0.0,0.0
2400,599.75,38.3883,40.7841,153.522,99.6178,99.3266,0.00306216,0.183587,20.8118,157.673,0.0261626,0.0,0.0
2460,614.75,38.3117,41.2988,149.418,99.4895,98.818,0.00293483,0.180664,20.8127,156.722,0.0605185,0.0,0.0
2520,629.75,37.9422,41.2413,150.092,99.2833,99.1843,0.00301677,0.178859,20.8155,155.801,0.00891524,0.0,0.0
2580,644.75,38.1608,41.0089,156.476,99.0365,98.299,0.00326636,0.178948,20.8168,154.8,0.066788,0.0,0.0
2640,659.75,37.8479,41.0816,153.704,98.9354,98.4035,0.00332974,0.176025,20.8214,153.869,0.0481719,0.0,0.0
2700,674.75,37.5282,39.9497,151.293,99.3016,98.3188,0.00334861,0.17598,20.8199,152.838,0.0888685,0.0,0.0
2760,689.75,37.399,39.7132,145.867,100.082,99.2335,0.00314831,0.175937,20.8216,151.957,0.0761027,0.0,0.0
2820,704.75,37.9863,40.6437,153.07,100.621,100.113,0.00337765,0.175778,20.8203,151.077,0.0452495,0.0,0.0
2880,719.75,37.3846,40.7923,152.359,100.396,99.8276,0.00354854,0.176456,20.819,150.096,0.0507364,0.0,0.0
2940,734.75,37.8773,40.7285,155.264,99.8338,99.6796,0.00306834,0.176001,20.8196,149.145,0.0138066,0.0,0.0
3000,749.75,37.5646,40.4435,154.285,100.086,99.4107,0.00319962,0.176728,20.8186,148.144,0.0605196,0.0,0.0
3060,764.75,37.6073,40.1834,152.898,100.139,99.5204,0.00254359,0.180113,20.817,147.243,0.0553785,0.0,0.0
3120,779.75,37.7137,40.6611,155.008,100.069,99.4665,0.00325004,0.180317,20.814,146.372,0.0539853,0.0,0.0
3180,794.75,37.6395,40.1109,153.576,100.059,99.3091,0.0028289,0.18104,20.8173,145.431,0.0672299,0.0,0.0
3240,809.75,37.3515,40.8585,148.817,100.101,99.7992,0.00253367,0.185377,20.8114,144.541,0.0270058,0.0,0.0
3300,824.75,38,40.9346,145.253,100.102,99.821,0.00271749,0.192591,20.8043,143.47,0.0251323,0.0,0.0
3360,839.75,38.3021,41.3047,150.379,100.134,99.4915,0.00242395,0.197821,20.7978,142.539,0.0575335,0.0,0.0
3420,854.75,38.5841,42.4277,148.608,100.164,99.5468,0.00186036,0.203823,20.7916,141.588,0.0552112,0.0,0.0
3480,869.75,38.8335,43.0138,149.651,100.182,99.6589,0.00189857,0.20915,20.78,140.577,0.0467914,0.0,0.0
3540,884.75,39.8712,44.2608,148.864,100.096,100.131,0.00202184,0.220629,20.7709,139.526,-0.00308738,0.0,0.0
3600,899.75,40.893,45.4681,150.463,99.8277,99.4291,0.00185706,0.231578,20.7606,138.315,0.0357456,0.0,0.0
3660,914.75,41.9933,47.088,149.629,99.9422,99.3521,0.00175859,0.241725,20.7462,137.234,0.0529138,0.0,0.0
3720,929.75,43.4277,48.4176,150.208,100.271,99.9027,0.00190755,0.255498,20.7315,136.063,0.0328404,0.0,0.0
3780,944.75,44.1425,49.8242,149.451,100.58,100.056,0.00223355,0.266341,20.7168,134.802,0.046642,0.0,0.0
3840,959.75,45.6065,50.7265,143.028,100.671,100.172,0.00206812,0.27976,20.7017,133.491,0.0444536,0.0,0.0
3900,974.75,46.3145,52.2311,146.002,100.385,99.2689,0.00214542,0.294455,20.6864,131.999,0.0999447,0.0,0.0
3960,989.75,46.9282,53.2962,149.611,99.7879,98.8128,0.00256068,0.307691,20.6665,130.498,0.0877463,0.0,0.0
4020,1004.75,48.6264,54.4595,146.671,99.1567,97.7871,0.00222063,0.322558,20.6539,129.097,0.124275,0.0,0.0
4080,1019.75,49.7491,56.3221,141.917,99.0032,97.5853,0.00224526,0.337819,20.6332,127.435,0.128897,0.0,0.0
4140,1034.75,50.7163,57.5496,148.629,99.3548,97.2903,0.00280176,0.349502,20.6195,125.684,0.187617,0.0,0.0
4200,1049.75,51.8296,59.0424,138.626,99.9491,97.0578,0.00294227,0.36774,20.6013,124.012,0.262291,0.0,0.0
4260,1064.75,52.7544,60.3348,143.154,100.168,97.2052,0.00319208,0.381187,20.5811,122.08,0.2683,0.0,0.0
4320,1079.75,54.46,61.2962,145.633,99.7843,96.4929,0.00294959,0.393367,20.568,120.309,0.299695,0.0,0.0
4380,1094.75,54.6076,62.4505,138.899,99.4473,95.4526,0.00303983,0.399029,20.5579,118.467,0.366331,0.0,0.0
4440,1109.75,55.4756,62.6521,142.485,99.4047,95.8076,0.00338555,0.408751,20.5493,116.605,0.329332,0.0,0.0
4500,1124.75,55.8808,62.982,143.441,99.4014,95.7953,0.00331563,0.413491,20.5387,114.544,0.330186,0.0,0.0
4560,1139.75,57.2206,63.6603,139.636,99.496,95.2985,0.0034191,0.420626,20.5294,112.642,0.385141,0.0,0.0
4620,1154.75,57.8531,65.4071,140.865,99.7798,94.8216,0.00477468,0.436852,20.5121,110.64,0.455418,0.0,0.0
4680,1169.75,58.6896,66.1981,142.739,100.059,94.6349,0.00471738,0.437215,20.5029,108.668,0.498005,0.0,0.0
4740,1184.75,59.1023,67.1519,143.679,100.152,95.1553,0.00545754,0.436783,20.5009,106.666,0.457266,0.0,0.0
4800,1199.75,59.7694,66.9346,138.538,99.8403,92.7782,0.00527487,0.433141,20.4999,104.625,0.655487,0.0,0.0
4860,1214.75,58.6492,64.8182,146.642,99.2878,94.0143,0.00493799,0.40264,20.5246,103.113,0.48765,0.0,0.0
4920,1229.75,57.2608,62.1208,148.071,98.9399,92.9148,0.00434655,0.357501,20.5705,101.712,0.561392,0.0,0.0
4980,1244.75,54.6116,57.6434,150.179,99.3556,94.4179,0.00315031,0.303358,20.629,100.691,0.455467,0.0,0.0
5040,1259.75,51.2283,53.2173,152.669,100.102,97.0304,0.00277317,0.241585,20.6973,99.8102,0.278486,0.0,0.0
5100,1274.75,48.2649,47.7815,148.714,100.594,99.959,0.00277904,0.189206,20.763,99.2097,0.0565608,0.0,0.0
5160,1289.75,44.6676,43.4812,159.575,100.612,99.7832,0.00397465,0.137189,20.8319,98.9595,0.0739511,0.0,0.0
5220,1304.75,41.5871,41.1548,155.067,100.545,99.4098,0.00627947,0.127237,20.8611,98.7292,0.101499,0.0,0.0
5280,1319.75,39.4313,38.0578,158.263,100.579,99.6541,0.00713561,0.114541,20.8679,98.469,0.0825206,0.0,0.0
5340,1334.75,36.0126,34.5766,154.342,100.648,99.7416,0.00791577,0.106563,20.882,98.2688,0.0808487,0.0,0.0
5400,1349.75,34.5773,34.1894,157.102,100.679,99.5166,0.00890388,0.101659,20.8911,97.9385,0.103765,0.0,0.0
5460,1364.75,33.4753,32.852,152.95,100.674,99.6622,0.00845299,0.0984659,20.8976,97.8184,0.0902352,0.0,0.0
5520,1379.75,32.9239,32.4329,156.664,100.562,99.7397,0.00822544,0.0965877,20.8997,97.6883,0.0734102,0.0,0.0
5580,1394.75,31.9388,31.8333,153.929,100.36,99.6981,0.00817482,0.0964177,20.8998,97.4981,0.0591198,0.0,0.0
5640,1409.75,31.8956,31.8489,159.288,100.038,99.3838,0.00732839,0.0989306,20.8961,97.308,0.0586637,0.0,0.0
5700,1424.75,30.7415,31.3223,155.583,99.6024,98.7003,0.00741979,0.0952669,20.9011,97.0577,0.0812963,0.0,0.0
5760,1439.75,30.6513,30.529,153.51,99.1737,98.4408,0.00679109,0.0951822,20.9026,96.9677,0.0662784,0.0,0.0
5762,1440.25,30.6918,30.9272,155.87,99.1709,97.78,0.00679883,0.0950576,20.9028,96.9677,0.126203,0.0,0.0