File: 01_Data/Pressure_Treated_Deck/Cone/Pressure_Treated_Deck_Cone_HF50Scan_230612_R1.csv
Names,Time,Stack TC,Smoke TC,Exh Press,Smoke Comp,Smoke Meas,CO Meter,CO2 Meter,O2 Meter,Sample Mass,Ext Coeff,Start Test,Flame Verif
Chan Gain,,500,500,1,1,1,1,1,1,1,1,1.0,1.0
Offset,,0,0,0.13972,0,0,0,0,0,0,0,0.0,0.0
Gain,,1,1,25.011,13.4433,15.8108,1,1,1,1.0009,1.01862,1.0,1.0
Units,sec,C,C,Pa,%,%,%,%,%,g,/m,,
Baseline,,34.3413,37.096,154.732,101.404,101.449,0.000614397,0.0464676,20.9655,-444.374,-0.00400759,,
48,11.75,31.7225,34.7774,154.708,100.583,100.06,0.0011554,0.0513208,20.9599,203.204,0.046571,0.0,0.0
96,23.75,33.0948,35.1428,155.747,100.935,98.4945,0.00071018,0.0579805,20.956,202.693,0.218703,0.0,0.0
144,35.75,33.8598,40.3234,142.965,101.207,101.851,0.00111071,0.0523552,20.9626,201.882,-0.0566628,0.0,0.0
192,47.75,43.7452,57.8303,136.972,101.222,100.453,0.00236843,0.362732,20.7439,199.921,0.0681613,0.0,0.0
240,59.75,50.997,66.7573,137.082,100.952,98.6586,0.00323819,0.481915,20.4742,197.969,0.205322,0.0,0.0
288,71.75,54.7665,69.9967,137.521,100.617,97.8137,0.00408373,0.477154,20.4456,196.177,0.25249,0.0,0.0
336,83.75,57.8169,70.4881,135.083,100.576,97.9184,0.00423698,0.463093,20.4637,194.236,0.239322,0.0,0.0
384,95.75,59.3669,71.5901,139.794,100.775,97.0615,0.0044335,0.444367,20.4911,192.574,0.33545,0.0,0.0
432,107.75,59.9051,70.7829,136.359,100.763,97.9097,0.00454941,0.415431,20.5201,190.822,0.256646,0.0,0.0
480,119.75,60.4117,70.6003,134.906,100.652,98.2412,0.00422179,0.395519,20.5507,189.251,0.216583,0.0,0.0
528,131.75,60.6272,69.7356,142.046,100.47,97.6979,0.00425949,0.382052,20.563,187.67,0.250022,0.0,0.0
576,143.75,59.9787,68.9911,138.066,100.524,97.9874,0.00382915,0.360659,20.5898,186.268,0.228362,0.0,0.0
624,155.75,60.1184,67.6949,139.794,100.646,99.0209,0.00345932,0.355371,20.5992,184.767,0.145471,0.0,0.0
672,167.75,59.8076,68.1953,146.221,100.859,99.4634,0.00329385,0.343856,20.6162,183.326,0.124481,0.0,0.0
720,179.75,59.7747,67.103,140.618,101.065,99.7987,0.0030543,0.334949,20.6252,181.924,0.112632,0.0,0.0
768,191.75,59.3658,67.5289,139.097,101.166,99.8272,0.00300499,0.327387,20.6365,180.463,0.119039,0.0,0.0
816,203.75,59.3523,66.1234,142.658,101.162,100.769,0.0031074,0.317083,20.6474,179.142,0.034848,0.0,0.0
864,215.75,59.3274,66.5148,140.59,100.98,100.988,0.0028204,0.314248,20.6517,177.761,-0.000694514,0.0,0.0
912,227.75,59.5443,66.49,141.042,100.632,100.449,0.00271389,0.307183,20.6619,176.54,0.0163194,0.0,0.0
960,239.75,58.9955,66.4535,139.613,100.195,100.42,0.0026684,0.300403,20.6706,175.248,-0.0200641,0.0,0.0
1008,251.75,58.5314,66.2632,142.958,99.9677,99.6627,0.00248532,0.297389,20.6709,173.927,0.0273042,0.0,0.0
1056,263.75,59.1086,65.7118,143.196,100.165,100.041,0.00261888,0.296412,20.6739,172.516,0.0110666,0.0,0.0
1104,275.75,58.5153,65.8473,144.62,100.503,100.445,0.00234891,0.291402,20.6805,171.145,0.00513794,0.0,0.0
1152,287.75,58.7866,65.6044,142.366,100.762,100.851,0.00255281,0.294839,20.6791,169.904,-0.00793793,0.0,0.0
1200,299.75,59.2293,65.0704,145.419,100.826,100.151,0.00232686,0.291278,20.6811,168.642,0.0600107,0.0,0.0
1248,311.75,58.5475,64.9571,145.158,100.743,101.12,0.00253496,0.287641,20.686,167.291,-0.0333186,0.0,0.0
1296,323.75,58.3513,64.9618,140.978,100.545,100.822,0.00251253,0.282152,20.6905,166.02,-0.0246387,0.0,0.0
1344,335.75,58.3569,64.5964,139.224,100.267,100.251,0.00228022,0.281336,20.6936,164.699,0.0014549,0.0,0.0
1392,347.75,58.3693,63.6948,140.845,100.045,100.424,0.00239863,0.279229,20.6951,163.438,-0.0337297,0.0,0.0
1440,359.75,58.3759,65.0995,136.362,99.9779,99.8923,0.00226284,0.280431,20.6966,162.147,0.00765312,0.0,0.0
1488,371.75,58.8427,64.8248,142.839,100.175,100.694,0.00210966,0.280924,20.6917,160.915,-0.0461731,0.0,0.0
1536,383.75,58.958,64.7958,143.553,100.573,101.52,0.00184237,0.279555,20.6917,159.734,-0.083786,0.0,0.0
1584,395.75,58.9571,65.0524,146.276,100.969,101.716,0.00200888,0.287506,20.6907,158.503,-0.0659077,0.0,0.0
1632,407.75,59.0762,65.3753,139.331,101.205,101.359,0.00232488,0.28537,20.6907,157.212,-0.0135624,0.0,0.0
1680,419.75,58.3217,65.1148,139.522,101.075,101.491,0.00224364,0.28489,20.6901,155.941,-0.0366929,0.0,0.0
1728,431.75,58.9905,66.0412,142.139,100.652,100.511,0.00220199,0.285103,20.6872,154.61,0.0124537,0.0,0.0
1776,443.75,59.0445,66.0186,141.048,100.728,100.771,0.00201815,0.286693,20.6886,153.479,-0.00374377,0.0,0.0
1824,455.75,59.3584,65.9125,139.039,101.232,101.339,0.00241764,0.289417,20.6865,152.238,-0.00942208,0.0,0.0
1872,467.75,59.754,66.2213,137.679,101.034,101.143,0.0022468,0.293178,20.6811,150.936,-0.00956124,0.0,0.0
1920,479.75,59.9197,65.9528,143.419,101.042,100.723,0.00208085,0.296297,20.6744,149.765,0.0282896,0.0,0.0
1968,491.75,60.0524,67.2555,139.925,101.457,101.118,0.00215869,0.299443,20.6729,148.424,0.0299055,0.0,0.0
2016,503.75,59.9566,66.8055,139.226,101.714,100.672,0.00216977,0.302545,20.669,147.113,0.0919791,0.0,0.0
2064,515.75,60.2467,67.0715,141.381,101.688,101.832,0.00224345,0.306608,20.6632,145.902,-0.012613,0.0,0.0
2112,527.75,61.1992,68.2236,138.518,101.293,101.336,0.00164348,0.310883,20.6623,144.641,-0.0038157,0.0,0.0
2160,539.75,61.3969,68.4075,139.111,100.635,100.233,0.00216334,0.317585,20.6509,143.43,0.0357371,0.0,0.0
2208,551.75,61.7999,68.5949,136.427,100.098,99.4866,0.00248177,0.320744,20.6483,142.169,0.0547603,0.0,0.0
2256,563.75,61.8511,68.8867,138.96,100.069,99.2656,0.00231578,0.323396,20.642,140.787,0.0720293,0.0,0.0
2304,575.75,62.0241,69.1019,137.841,100.535,100.299,0.00248886,0.323523,20.6416,139.556,0.0209974,0.0,0.0
2352,587.75,62.5548,69.6294,141.604,101.042,99.9609,0.00237005,0.331086,20.6351,138.215,0.096134,0.0,0.0
2400,599.75,62.4465,69.6856,137.643,101.242,99.5763,0.0024865,0.336686,20.629,136.864,0.148262,0.0,0.0
2448,611.75,63.0263,70.1905,135.567,101.05,99.7553,0.0030732,0.343807,20.6209,135.352,0.115216,0.0,0.0
2496,623.75,63.2854,70.2757,137.545,100.754,98.5177,0.00272659,0.346703,20.6127,134.121,0.200535,0.0,0.0
2544,635.75,64.1181,71.4204,136.686,100.558,98.4226,0.00320871,0.364379,20.592,132.77,0.191752,0.0,0.0
2592,647.75,64.9033,72.8612,140.198,100.521,97.667,0.0030325,0.373693,20.5888,131.449,0.257334,0.0,0.0
2640,659.75,65.7616,73.6707,133.371,100.655,98.0965,0.00364768,0.381592,20.5732,129.957,0.230086,0.0,0.0
2688,671.75,66.1642,74.3863,136.454,100.861,96.8709,0.00385118,0.386685,20.5684,128.636,0.360685,0.0,0.0
2736,683.75,66.5323,74.0112,133.317,101.038,97.0079,0.00385805,0.388141,20.5595,127.205,0.363704,0.0,0.0
2784,695.75,66.987,74.5604,134.461,101.193,97.2723,0.0046886,0.395552,20.5519,125.614,0.353086,0.0,0.0
2832,707.75,67.7041,75.1444,131.784,101.204,97.3042,0.00454749,0.404713,20.5451,124.172,0.351104,0.0,0.0
2880,719.75,67.8709,76.4361,136.119,101.108,97.3915,0.00434556,0.408892,20.5359,122.681,0.334643,0.0,0.0
2928,731.75,68.688,76.8645,139.7,100.782,96.3208,0.00482243,0.417388,20.5272,121.14,0.404584,0.0,0.0
2976,743.75,69.5206,77.6341,132.733,100.334,96.3001,0.00521176,0.423421,20.5225,119.628,0.366665,0.0,0.0
3024,755.75,69.2719,78.1307,138.905,100.007,94.6803,0.00542588,0.427863,20.5091,118.037,0.489033,0.0,0.0
3072,767.75,70.6754,78.5264,137.351,100.097,93.1831,0.00524971,0.432632,20.5067,116.535,0.639555,0.0,0.0
3120,779.75,70.927,78.8744,134.3,100.658,94.9148,0.00467644,0.433204,20.5014,114.924,0.524912,0.0,0.0
3168,791.75,71.0531,80.2806,136.015,101.312,95.0132,0.00499483,0.433725,20.502,113.393,0.57355,0.0,0.0
3216,803.75,71.2882,79.8468,134.897,101.674,95.4243,0.0049008,0.433056,20.4962,111.841,0.566794,0.0,0.0
3264,815.75,71.4022,79.8169,136.651,101.533,96.4,0.00454992,0.432409,20.501,110.43,0.463563,0.0,0.0
3312,827.75,70.9612,78.9879,137.595,101.107,96.4168,0.00467001,0.420268,20.5083,108.979,0.42437,0.0,0.0
3360,839.75,70.9667,78.0696,137.44,100.821,95.6062,0.00427941,0.405069,20.5282,107.617,0.47454,0.0,0.0
3408,851.75,69.9834,77.4174,137.492,100.936,95.7611,0.00343788,0.387225,20.5438,106.326,0.470251,0.0,0.0
3456,863.75,69.4987,75.031,135.577,100.973,96.6822,0.00320634,0.367277,20.565,105.155,0.38802,0.0,0.0
3504,875.75,67.7286,73.805,140.787,100.893,97.5652,0.00323367,0.340256,20.5958,104.144,0.299703,0.0,0.0
3552,887.75,66.2169,71.0363,140.965,100.821,97.8837,0.00295292,0.305666,20.6317,103.233,0.264226,0.0,0.0
3600,899.75,64.1854,67.9622,139.428,100.965,99.613,0.00223914,0.262335,20.6801,102.603,0.120426,0.0,0.0
3648,911.75,62.2544,65.2973,141.746,101.232,100.437,0.00230594,0.222085,20.7298,102.072,0.0704474,0.0,0.0
3696,923.75,59.8571,61.7929,145.165,101.543,101.538,0.00171566,0.184525,20.7759,101.722,0.000395167,0.0,0.0
3744,935.75,57.4096,58.2811,146.523,101.724,102.084,0.00194247,0.153668,20.8155,101.392,-0.0315926,0.0,0.0
3792,947.75,55.4888,55.9059,147.205,101.654,101.698,0.00192974,0.133356,20.8411,101.081,-0.00387058,0.0,0.0
3840,959.75,53.1956,53.9658,145.781,101.384,101.588,0.00198344,0.121556,20.8637,100.911,-0.0179661,0.0,0.0
3888,971.75,51.8028,53.2303,148.886,100.948,100.969,0.00203167,0.118442,20.8681,100.771,-0.00190418,0.0,0.0
3936,983.75,50.5846,51.9763,144.53,100.433,100.676,0.002238,0.116343,20.8713,100.601,-0.0215951,0.0,0.0
3984,995.75,49.9791,51.143,145.16,100.081,100.256,0.00235665,0.114199,20.872,100.511,-0.0155948,0.0,0.0
4032,1007.75,49.2316,50.6634,145.753,100.039,100.188,0.00206873,0.111168,20.8744,100.211,-0.0132237,0.0,0.0
4080,1019.75,46.8633,48.3599,147.525,100.448,100.539,0.0024544,0.111313,20.8778,100.04,-0.00811118,0.0,0.0
4128,1031.75,45.4104,47.4466,148.045,100.948,101.236,0.00258686,0.110373,20.8775,99.9103,-0.0254489,0.0,0.0
4176,1043.75,45.9181,47.1288,147.282,101.242,101.093,0.00272992,0.108736,20.8802,99.8803,0.0132068,0.0,0.0
4224,1055.75,45.4848,46.6796,148.433,101.118,101.371,0.00274205,0.109462,20.8815,99.7402,-0.0223442,0.0,0.0
4272,1067.75,44.9317,47.1397,148.92,100.699,100.623,0.00277313,0.106697,20.8839,99.4799,0.00673675,0.0,0.0
4320,1079.75,44.8968,46.2633,149.029,100.627,100.705,0.00279978,0.106219,20.8863,99.4199,-0.00699608,0.0,0.0
4368,1091.75,44.22,45.8701,147.248,101.134,100.826,0.00277107,0.105336,20.8861,99.1796,0.0272639,0.0,0.0
4416,1103.75,43.7301,45.3124,145.757,101.098,100.863,0.00272942,0.103691,20.8879,99.0395,0.0208189,0.0,0.0
4464,1115.75,43.5242,45.3628,151.502,100.874,100.763,0.00291702,0.104875,20.8908,99.0495,0.00988671,0.0,0.0
4512,1127.75,43.3002,45.7109,148.309,101.224,101.086,0.00300108,0.104139,20.8897,98.9094,0.0122538,0.0,0.0
4550,1137.25,43.4713,45.6571,149.073,101.491,101.332,0.00287043,0.104801,20.8906,98.7092,0.0140002,0.0,0.0