File: 01_Data/Pressure_Treated_Deck/Cone/Pressure_Treated_Deck_Cone_HF50Scan_230613_R3.csv
Names,Time,Stack TC,Smoke TC,Exh Press,Smoke Comp,Smoke Meas,CO Meter,CO2 Meter,O2 Meter,Sample Mass,Ext Coeff,Start Test,Flame Verif
Chan Gain,,500,500,1,1,1,1,1,1,1,1,1.0,1.0
Offset,,0,0,0.245636,0,0,0,0,0,0,0,0.0,0.0
Gain,,1,1,25.011,13.3733,15.7861,1,1,1,1.00098,1.01809,1.0,1.0
Units,sec,C,C,Pa,%,%,%,%,%,g,/m,,
Baseline,,36.3079,38.7078,154.18,100.676,100.659,0.000532934,0.0536614,20.9444,-446.328,0.00152346,,
47,11.5,34.9056,37.924,149.811,100.241,100.024,0.000627859,0.0615065,20.9305,195.182,0.0194059,0.0,0.0
94,23.25,35.7594,38.6943,156.611,100.474,98.7239,0.000563521,0.0560902,20.939,194.721,0.156918,0.0,0.0
141,35,37.0064,41.8715,143.342,100.667,101.839,0.000850834,0.0553164,20.9451,193.991,-0.103377,0.0,1.0
188,46.75,43.9838,55.3433,137.886,100.614,100.315,0.00213939,0.268383,20.8321,192.299,0.0266362,0.0,0.0
235,58.5,50.7844,64.41,140.66,100.303,99.3121,0.00338401,0.443431,20.5208,190.407,0.0886896,0.0,0.0
282,70.25,55.5762,69.208,131.821,100.59,98.446,0.00382729,0.46816,20.4684,188.716,0.192431,0.0,0.0
329,82,58.9199,71.5411,131.576,100.856,99.6026,0.00409352,0.462251,20.4666,186.914,0.111635,0.0,0.0
376,93.75,61.216,73.1868,137.075,100.984,99.3459,0.00426966,0.451212,20.4794,185.302,0.1461,0.0,0.0
423,105.5,62.416,73.3921,135.919,100.993,98.7215,0.00422393,0.441183,20.4909,183.631,0.203196,0.0,0.0
470,117.25,63.4323,72.8574,140.824,101.003,98.3771,0.00446504,0.418382,20.5147,182.059,0.235241,0.0,0.0
517,129,62.4706,72.0518,133.361,100.892,99.2274,0.00390597,0.395905,20.5439,180.558,0.148599,0.0,0.0
564,140.75,62.4287,70.7601,140.637,100.712,99.0062,0.00395296,0.37592,20.5691,179.126,0.152577,0.0,0.0
611,152.5,62.3404,70.8475,140.824,100.542,99.2028,0.00367103,0.360915,20.5849,177.635,0.119725,0.0,0.0
658,164.25,62.2917,69.2823,141.597,100.392,99.6884,0.00329925,0.344634,20.6028,176.263,0.0628375,0.0,0.0
705,176,61.9432,69.385,141.884,100.262,99.7708,0.00296768,0.33461,20.6185,174.892,0.0438712,0.0,0.0
752,187.75,61.3151,69.1881,138.219,100.539,100.264,0.00326139,0.326169,20.6305,173.601,0.024478,0.0,0.0
799,199.5,61.4695,68.4144,138.976,100.617,100.525,0.00303023,0.319866,20.6351,172.279,0.00813099,0.0,0.0
846,211.25,61.1806,67.9488,141.333,100.387,100.133,0.00270312,0.311038,20.6446,171.058,0.0226188,0.0,0.0
893,223,61.0497,67.4301,141.049,100.002,100.025,0.00273608,0.300683,20.66,169.857,-0.00205494,0.0,0.0
940,234.75,60.3523,67.1734,139.969,100.178,100.916,0.00276072,0.294383,20.6684,168.616,-0.0655443,0.0,0.0
987,246.5,60.8304,66.6598,142.628,100.504,101.399,0.00246076,0.290039,20.6727,167.365,-0.079133,0.0,0.0
1034,258.25,60.2955,65.4674,143.807,100.712,101.738,0.00245941,0.285927,20.6775,166.063,-0.0905562,0.0,0.0
1081,270,58.6289,66.1631,141.8,100.74,101.796,0.00256809,0.286054,20.6801,164.852,-0.0930538,0.0,0.0
1128,281.75,60.0026,65.4874,132.807,100.731,102.536,0.00217986,0.281406,20.6809,163.571,-0.158606,0.0,0.0
1175,293.5,59.676,65.4623,143.053,100.734,101.606,0.00219731,0.278018,20.6905,162.28,-0.0769287,0.0,0.0
1222,305.25,58.9506,65.3311,141.875,100.738,102.471,0.00226873,0.273281,20.6946,161.038,-0.15233,0.0,0.0
1269,317,59.4167,64.7439,145.127,100.739,101.793,0.0025118,0.271746,20.6984,159.857,-0.0929505,0.0,0.0
1316,328.75,58.9087,64.6483,141.639,100.712,101.305,0.00229799,0.270814,20.6993,158.616,-0.0524153,0.0,0.0
1363,340.5,59.2248,64.5687,142.771,100.691,101.409,0.00219945,0.272283,20.6958,157.495,-0.0634656,0.0,0.0
1410,352.25,59.3297,64.395,145.398,100.638,102.353,0.00253824,0.272905,20.6956,156.254,-0.150984,0.0,0.0
1457,364,59.0995,65.0508,143.119,100.577,101.834,0.00244944,0.275324,20.6909,155.052,-0.110955,0.0,0.0
1504,375.75,59.2033,65.4131,140.43,100.54,101.807,0.00233686,0.276701,20.6857,153.841,-0.11185,0.0,0.0
1551,387.5,59.4311,65.3368,141.002,100.51,102.141,0.00204768,0.27607,20.6886,152.64,-0.143729,0.0,0.0
1598,399.25,59.8786,65.4297,142.684,100.498,101.302,0.0020761,0.276943,20.686,151.459,-0.0711078,0.0,0.0
1645,411,59.658,65.3877,144.102,100.399,101.46,0.00224799,0.27742,20.6902,150.228,-0.0938439,0.0,0.0
1692,422.75,59.8769,65.4999,135.92,100.258,101.085,0.00200393,0.276534,20.6918,149.017,-0.0732838,0.0,0.0
1739,434.5,59.9622,65.3919,146.389,100.08,101.085,0.00226403,0.278761,20.6863,147.835,-0.089263,0.0,0.0
1786,446.25,59.7751,65.1642,138.733,100.023,101.389,0.00230139,0.277789,20.6861,146.684,-0.121064,0.0,0.0
1833,458,59.9966,65.5545,136.856,100.342,101.748,0.0024693,0.280591,20.6872,145.493,-0.124329,0.0,0.0
1880,469.75,60.2048,65.8149,139.954,100.64,101.553,0.00210905,0.281869,20.6845,144.412,-0.0807104,0.0,0.0
1927,481.5,60.2593,66.1593,144.444,100.619,101.877,0.00189771,0.283763,20.6824,143.241,-0.111024,0.0,0.0
1974,493.25,60.8598,66.2104,138.37,100.352,101.484,0.00195417,0.287538,20.6799,142.04,-0.100182,0.0,0.0
2021,505,60.9757,66.8368,137.39,100.742,101.644,0.00184812,0.294123,20.6704,140.859,-0.0796287,0.0,0.0
2068,516.75,61.1752,67.096,142.688,101.131,101.712,0.00208128,0.300028,20.6655,139.697,-0.0512176,0.0,0.0
2115,528.5,61.4259,68.14,142.011,101.178,102.311,0.00220848,0.307312,20.661,138.436,-0.0993842,0.0,0.0
2162,540.25,62.3604,68.6705,138.605,100.731,101.14,0.00201961,0.314262,20.6493,137.175,-0.0362137,0.0,0.0
2209,552,62.7565,68.9742,141.869,100.303,100.659,0.00186386,0.317937,20.6431,135.984,-0.0316601,0.0,0.0
2256,563.75,63.1831,69.676,137.619,99.9613,100.371,0.0023968,0.322751,20.6383,134.702,-0.0364879,0.0,0.0
2303,575.5,63.3377,69.5536,135.971,99.7756,100.666,0.00194267,0.326006,20.6344,133.451,-0.07933,0.0,0.0
2350,587.25,64.0518,69.8648,139.634,99.6769,99.2871,0.00238675,0.335418,20.6262,132.25,0.034989,0.0,0.0
2397,599,63.862,71.1845,144.059,99.6638,99.8724,0.00259785,0.340031,20.6189,130.969,-0.0186747,0.0,0.0
2444,610.75,64.7752,71.8486,141.214,99.6875,100.307,0.0024633,0.345852,20.612,129.678,-0.0553275,0.0,0.0
2491,622.5,65.057,72.2923,140.907,99.7336,99.1522,0.00256062,0.355526,20.6016,128.376,0.0522121,0.0,0.0
2538,634.25,66.116,73.3487,133.916,99.8401,98.815,0.00264532,0.36974,20.5892,126.955,0.0921716,0.0,0.0
2585,646,66.539,74.3003,140.052,100.042,98.7682,0.00288471,0.379513,20.5746,125.664,0.11441,0.0,0.0
2632,657.75,67.4445,74.5463,138.882,100.308,99.2052,0.00353188,0.389169,20.5612,124.122,0.0987484,0.0,0.0
2679,669.5,68.2752,76.1897,137.187,100.725,99.1002,0.00310025,0.400039,20.5478,122.681,0.145229,0.0,0.0
2726,681.25,68.7159,76.8242,138.019,101.024,98.986,0.00339662,0.409249,20.5345,121.229,0.181973,0.0,0.0
2773,693,69.2622,76.8622,138.312,101.15,98.9576,0.00365217,0.410309,20.5291,119.808,0.195715,0.0,0.0
2820,704.75,69.8045,77.7101,139.483,101.127,98.3954,0.00358107,0.414591,20.5271,118.346,0.244579,0.0,0.0
2867,716.5,70.2632,77.7453,136.129,100.959,97.6723,0.00383655,0.420031,20.5183,116.925,0.29559,0.0,0.0
2914,728.25,70.5679,78.5968,136.822,100.716,98.5563,0.00389506,0.422224,20.5139,115.454,0.193619,0.0,0.0
2961,740,71.2753,78.7618,138.771,100.546,97.6116,0.00423729,0.429908,20.5063,113.872,0.264498,0.0,0.0
3008,751.75,71.1022,78.3985,135.81,100.522,96.8258,0.00455305,0.429991,20.5034,112.33,0.334537,0.0,0.0
3055,763.5,71.5978,79.2791,132.876,100.578,97.1847,0.00449797,0.441685,20.4938,110.779,0.306462,0.0,0.0
3102,775.25,71.7309,79.8741,138.228,100.711,96.755,0.00510538,0.43676,20.4987,109.287,0.357845,0.0,0.0
3149,787,71.4623,79.3095,134.506,100.893,95.9678,0.00504337,0.43972,20.4922,107.796,0.446998,0.0,0.0
3196,798.75,71.9086,79.585,139.397,101.083,97.2387,0.00502172,0.4348,20.4935,106.275,0.346291,0.0,0.0
3243,810.5,72.0194,79.0474,138.778,101.178,97.9305,0.00436292,0.426973,20.4996,104.833,0.291377,0.0,0.0
3290,822.25,72.005,79.1107,138.05,101.176,97.2738,0.00456599,0.421239,20.5072,103.422,0.35128,0.0,0.0
3337,834,71.4648,78.2369,131.725,101.11,97.4964,0.00440013,0.408479,20.5193,102.1,0.324995,0.0,0.0
3384,845.75,70.7165,77.1993,136.642,100.971,98.695,0.00353559,0.392379,20.5357,100.909,0.203609,0.0,0.0
3431,857.5,70.0159,76.3101,141.432,100.81,99.198,0.00366124,0.371841,20.5603,99.7981,0.143943,0.0,0.0
3478,869.25,68.7869,74.4404,140.659,100.638,98.8121,0.00327884,0.343802,20.5887,98.7871,0.163518,0.0,0.0
3525,881,67.7755,72.1065,139.149,100.386,99.7568,0.0027912,0.311861,20.6206,97.8863,0.0561295,0.0,0.0
3572,892.75,65.8746,69.6089,143.293,100.064,99.2317,0.00225094,0.281031,20.6565,97.1555,0.0746085,0.0,0.0
3619,904.5,64.4558,67.1408,138.661,99.7638,100.061,0.00214763,0.248885,20.6951,96.5449,-0.0265483,0.0,0.0
3666,916.25,62.0425,64.5629,145.115,99.576,100.132,0.00188519,0.217637,20.7313,95.9944,-0.049731,0.0,0.0
3713,928,60.1485,63.0442,147.578,99.5952,100.167,0.00134884,0.191693,20.764,95.554,-0.0511464,0.0,0.0
3760,939.75,57.7058,59.6566,147.858,99.8091,100.793,0.00180907,0.16606,20.7896,95.2737,-0.0876115,0.0,0.0
3807,951.5,56.7974,57.0253,148.388,100.191,100.795,0.00178548,0.13876,20.8245,95.0735,-0.0536314,0.0,0.0
3854,963.25,55.0508,55.7662,145.363,100.632,101.62,0.00216087,0.124436,20.8485,94.9734,-0.0872847,0.0,0.0
3901,975,53.3967,54.3428,147.697,100.782,102.116,0.00228135,0.122776,20.8543,94.8132,-0.117426,0.0,0.0
3948,986.75,51.883,53.2842,145.366,100.543,101.445,0.00254586,0.122904,20.8521,94.6531,-0.0797661,0.0,0.0
3995,998.5,51.2774,52.5173,145.5,100.078,100.783,0.00246642,0.122211,20.853,94.5129,-0.0626888,0.0,0.0
4042,1010.25,49.1561,49.9898,146.721,100.275,101.178,0.0022889,0.118735,20.8542,94.3928,-0.0800035,0.0,0.0
4089,1022,48.5738,49.7156,146.157,100.503,101.339,0.00242488,0.116415,20.8583,94.2226,-0.0739847,0.0,0.0
4136,1033.75,48.0237,49.5821,147.445,100.625,101.282,0.00258967,0.115766,20.8597,94.0725,-0.0580944,0.0,0.0
4183,1045.5,47.5157,48.6867,148.562,100.64,101.29,0.00239734,0.112785,20.8647,93.8423,-0.057512,0.0,0.0
4230,1057.25,47.0021,48.7448,150.632,100.616,101.291,0.0024304,0.113381,20.864,93.7021,-0.0597345,0.0,0.0
4277,1069,46.8048,48.582,146.84,100.635,101.381,0.00239039,0.111445,20.8658,93.582,-0.0659658,0.0,0.0
4324,1080.75,46.6767,47.4511,149.832,100.626,101.349,0.00285663,0.112297,20.8661,93.4919,-0.0639609,0.0,0.0
4371,1092.5,45.5093,47.0949,149.19,100.626,101.336,0.00234163,0.111027,20.8669,93.4319,-0.0627724,0.0,0.0
4418,1104.25,45.636,47.3051,147.808,100.651,101.33,0.00267313,0.111041,20.8672,93.3018,-0.0600534,0.0,0.0
4465,1116,45.424,46.7285,145.973,100.649,101.835,0.0024575,0.109714,20.868,93.2417,-0.104663,0.0,0.0
4508,1126.75,45.4319,47.0076,145.814,100.65,101.457,0.0026524,0.110194,20.8713,93.1116,-0.0713701,0.0,0.0