File: 01_Data/Pressure_Treated_Deck/Cone/Pressure_Treated_Deck_Cone_HF75Scan_230613_R1.csv
Names,Time,Stack TC,Smoke TC,Exh Press,Smoke Comp,Smoke Meas,CO Meter,CO2 Meter,O2 Meter,Sample Mass,Ext Coeff,Start Test,Flame Verif
Chan Gain,,500,500,1,1,1,1,1,1,1,1,1.0,1.0
Offset,,0,0,0.245636,0,0,0,0,0,0,0,0.0,0.0
Gain,,1,1,25.011,13.7521,15.0883,1,1,1,1.00089,1.02456,1.0,1.0
Units,sec,C,C,Pa,%,%,%,%,%,g,/m,,
Baseline,,41.4249,44.8411,150.547,98.874,98.9784,0.000893484,0.0472929,20.9682,-443.144,-0.0094821,,
45,11,39.295,43.3502,150.219,99.5943,95.5694,0.00261178,0.0898226,20.9161,210.036,0.37075,0.0,0.0
90,22.25,44.5371,56.6377,131.934,99.779,97.9016,0.00249763,0.0936348,20.9504,208.104,0.170709,0.0,0.0
135,33.5,55.4091,74.1727,132.636,99.8843,96.2951,0.00420802,0.536797,20.5005,205.772,0.328896,0.0,0.0
180,44.75,63.4352,83.4313,128.64,99.9481,94.2557,0.00546755,0.64316,20.3085,203.42,0.527014,0.0,0.0
225,56,69.2608,88.7574,132.002,99.9586,95.2849,0.00669089,0.643258,20.2923,201.108,0.430362,0.0,0.0
270,67.25,71.8613,89.6982,131.556,99.9695,93.9523,0.00687829,0.609227,20.3128,199.076,0.557919,0.0,0.0
315,78.5,73.6612,88.9987,132.386,99.9746,94.9736,0.00677175,0.565954,20.3666,196.904,0.461204,0.0,0.0
360,89.75,75.0284,89.6943,131.612,99.9855,94.951,0.00638311,0.53295,20.4057,194.983,0.46432,0.0,0.0
405,101,75.638,89.0919,129.844,99.9762,95.988,0.00589779,0.512519,20.4368,193.201,0.365872,0.0,0.0
450,112.25,75.868,88.7525,132.872,99.9817,95.8904,0.00616725,0.49238,20.4554,191.319,0.375506,0.0,0.0
495,123.5,76.3799,88.5486,130.351,99.9947,95.9337,0.00611688,0.48417,20.4699,189.568,0.37262,0.0,0.0
540,134.75,75.8258,87.0978,137.56,99.98,95.9949,0.00567102,0.462796,20.488,187.806,0.365564,0.0,0.0
585,146,76.25,86.9353,135.786,99.9779,97.3555,0.00520311,0.444168,20.5118,186.105,0.238882,0.0,0.0
630,157.25,76.4141,86.7634,130.001,99.9767,97.5807,0.00500021,0.435757,20.5261,184.443,0.218007,0.0,0.0
675,168.5,76.597,86.6955,129.464,99.9028,97.1064,0.00452311,0.429442,20.5338,182.682,0.255152,0.0,0.0
720,179.75,75.7626,85.578,130.457,99.7866,97.3523,0.00461032,0.421996,20.5421,181.14,0.22196,0.0,0.0
765,191,76.2262,87.0068,132.547,99.5037,96.7197,0.00462215,0.420954,20.5447,179.429,0.255044,0.0,0.0
810,202.25,75.9728,86.0844,128.663,99.3459,97.0387,0.00421678,0.419544,20.5451,177.827,0.211178,0.0,0.0
855,213.5,75.7417,85.9487,130.748,99.408,97.7999,0.00388582,0.41136,20.553,176.266,0.146576,0.0,0.0
900,224.75,75.8339,86.0497,134.021,99.7656,97.8602,0.0041498,0.406902,20.5582,174.615,0.173304,0.0,0.0
945,236,75.7178,85.8339,131.694,99.9809,98.8401,0.00408987,0.402366,20.5645,173.043,0.103137,0.0,0.0
990,247.25,76.4924,86.3738,130.623,100.035,99.306,0.00365636,0.398042,20.5708,171.392,0.0656939,0.0,0.0
1035,258.5,76.2847,86.2555,134.905,99.9859,99.4221,0.00370062,0.399228,20.5689,169.79,0.0508235,0.0,0.0
1080,269.75,76.1231,85.6509,130.151,99.659,97.5462,0.0040927,0.393975,20.5773,168.149,0.192583,0.0,0.0
1125,281,76.5502,85.509,131.059,99.8231,99.825,0.00370485,0.397133,20.5762,166.557,-0.000172493,0.0,0.0
1170,292.25,76.7252,85.5813,132.389,100.167,99.0404,0.00346883,0.395181,20.5757,164.976,0.101678,0.0,0.0
1215,303.5,76.4448,85.9374,134.816,100.379,98.8345,0.00368579,0.396925,20.5743,163.285,0.139369,0.0,0.0
1260,314.75,76.9341,86.9783,136.012,100.523,99.6003,0.00367459,0.39717,20.5728,161.713,0.0828489,0.0,0.0
1305,326,77.4353,86.2841,133.042,100.52,100.194,0.00376089,0.402324,20.5682,160.072,0.0291882,0.0,0.0
1350,337.25,77.2456,87.2503,126.562,100.424,99.7435,0.00368303,0.402009,20.5686,158.47,0.0611513,0.0,0.0
1395,348.5,77.7946,87.4562,132.559,100.213,99.9654,0.00329156,0.401641,20.5686,156.959,0.0221886,0.0,0.0
1440,359.75,77.6854,87.2281,134.877,99.9658,99.1177,0.00347739,0.402614,20.5667,155.267,0.0765677,0.0,0.0
1485,371,78.244,87.3747,130.827,99.8038,98.5408,0.00338282,0.401373,20.5661,153.726,0.114459,0.0,0.0
1530,382.25,78.3716,87.7664,132.976,99.6384,99.5478,0.00379831,0.406197,20.5583,152.215,0.0081773,0.0,0.0
1575,393.5,78.238,87.7502,129.998,99.4542,98.5136,0.00357832,0.409493,20.5542,150.553,0.0854015,0.0,0.0
1620,404.75,77.7794,88.0705,132.062,99.3232,98.4827,0.00371051,0.411939,20.5533,148.992,0.0763754,0.0,0.0
1665,416,78.888,88.2407,132.839,99.1193,97.9587,0.00328762,0.413223,20.5573,147.471,0.105848,0.0,0.0
1710,427.25,79.6814,88.0499,131.418,98.8897,96.9384,0.00323396,0.415977,20.553,145.929,0.179115,0.0,0.0
1755,438.5,79.0348,88.3948,133.366,98.7776,97.5821,0.00352538,0.415758,20.5514,144.378,0.109443,0.0,0.0
1800,449.75,78.6987,88.1892,131.637,98.76,97.2805,0.0039369,0.418381,20.5439,142.786,0.135658,0.0,0.0
1845,461,79.4938,89.3561,139.825,98.7957,97.9491,0.00373479,0.423694,20.543,141.285,0.0773484,0.0,0.0
1890,472.25,79.3245,89.1661,130.922,98.8393,97.8929,0.00354738,0.431176,20.5332,139.664,0.0864733,0.0,0.0
1935,483.5,79.8493,89.0778,132.008,99.0127,98.0228,0.0035696,0.437395,20.5264,138.042,0.0903063,0.0,0.0
1980,494.75,80.2356,90.0516,131.905,99.2431,95.9687,0.00414414,0.440436,20.5187,136.571,0.30153,0.0,0.0
2025,506,80.7548,90.5359,130.606,99.3501,95.7453,0.00445964,0.441848,20.5184,134.949,0.332155,0.0,0.0
2070,517.25,81.0153,90.5295,126.019,99.4651,96.2647,0.00476258,0.439259,20.5211,133.448,0.293928,0.0,0.0
2115,528.5,81.426,90.9392,127.42,99.7077,95.2186,0.00493997,0.444556,20.515,131.867,0.414026,0.0,0.0
2160,539.75,81.3983,90.9348,129.692,99.8936,96.6391,0.0050035,0.445208,20.5159,130.325,0.297681,0.0,0.0
2205,551,82.1237,91.1621,132.831,99.9712,95.9884,0.00492326,0.447703,20.5118,128.804,0.365375,0.0,0.0
2250,562.25,82.2271,91.6971,132.839,99.9544,95.2886,0.00515853,0.45378,20.5045,127.223,0.429638,0.0,0.0
2295,573.5,82.3947,92.4464,131.443,99.8252,94.6605,0.00538375,0.462218,20.4935,125.631,0.477441,0.0,0.0
2340,584.75,83.1548,93.5307,124.991,99.5776,95.103,0.00518201,0.469209,20.4853,124.01,0.413205,0.0,0.0
2385,596,84.1479,94.3153,125.695,99.3404,93.6645,0.00511918,0.477429,20.475,122.538,0.528756,0.0,0.0
2430,607.25,84.2731,94.3114,128.403,99.3639,94.0771,0.00564659,0.482979,20.4664,120.927,0.491381,0.0,0.0
2475,618.5,84.3613,95.0246,133.095,99.8352,94.9027,0.00587746,0.489054,20.4586,119.316,0.455382,0.0,0.0
2520,629.75,85.0869,95.1432,128.126,100.018,93.135,0.00628936,0.494691,20.448,117.774,0.640782,0.0,0.0
2565,641,85.0425,94.7267,128.78,99.8474,94.7821,0.00641181,0.48754,20.4546,116.193,0.467909,0.0,0.0
2610,652.25,84.3348,94.7673,132.808,99.6917,94.0739,0.00606793,0.48025,20.4605,114.752,0.521287,0.0,0.0
2655,663.5,84.9135,94.3566,129.276,100.106,95.1721,0.00607924,0.474162,20.4682,113.11,0.454206,0.0,0.0
2700,674.75,84.5006,94.2071,128.906,100.392,95.179,0.00597311,0.46191,20.48,111.769,0.479215,0.0,0.0
2745,686,84.2633,92.9719,134.632,100.515,96.2518,0.00522764,0.447247,20.4938,110.458,0.389513,0.0,0.0
2790,697.25,84.148,91.726,131.661,100.244,95.8089,0.00527597,0.432871,20.5087,109.097,0.406658,0.0,0.0
2835,708.5,83.0776,90.967,134.516,99.6791,96.2702,0.00500442,0.416793,20.5248,107.865,0.312732,0.0,0.0
2880,719.75,82.2386,88.9591,130.321,99.1067,96.7818,0.00428914,0.384836,20.5527,106.895,0.213338,0.0,0.0
2925,731,80.088,87.1316,135.42,98.8108,98.654,0.00344963,0.344719,20.5967,105.984,0.014269,0.0,0.0
2970,742.25,78.2366,83.6682,139.322,98.9384,99.6302,0.00322429,0.304002,20.6388,105.303,-0.0626253,0.0,0.0
3015,753.5,75.9698,80.2274,136.789,99.3274,101.22,0.00263235,0.252042,20.6955,104.803,-0.169607,0.0,0.0
3060,764.75,73.6188,76.4256,138.889,99.7114,102.609,0.00208916,0.199565,20.7537,104.282,-0.257437,0.0,0.0
3105,776,70.4879,72.9458,140.62,99.98,102.219,0.00180472,0.161662,20.8069,104.082,-0.199035,0.0,0.0
3150,787.25,68.8869,70.6206,145.631,99.9716,102.623,0.00169903,0.138569,20.8392,103.942,-0.235265,0.0,0.0
3195,798.5,66.8198,68.7413,141.459,99.6409,101.986,0.00176291,0.128177,20.8534,103.792,-0.209101,0.0,0.0
3240,809.75,65.7124,67.3348,139.355,99.296,101.462,0.00191026,0.125207,20.8592,103.572,-0.193976,0.0,0.0
3285,821,63.9897,66.5534,138.703,99.7089,101.873,0.00202301,0.123271,20.8587,103.452,-0.192943,0.0,0.0
3330,832.25,63.2879,65.0431,141.643,100.018,101.746,0.00186608,0.120069,20.8626,103.201,-0.15397,0.0,0.0
3375,843.5,62.4014,64.2001,141.274,99.8659,102.583,0.00176759,0.117513,20.8665,103.091,-0.241269,0.0,0.0
3420,854.75,61.0463,63.7401,144.917,99.6099,101.54,0.00197267,0.114822,20.8723,103.011,-0.172457,0.0,0.0
3465,866,60.7194,63.3728,145.58,99.7035,101.781,0.00206017,0.114199,20.8738,102.731,-0.185388,0.0,0.0
3510,877.25,59.9261,62.884,144.641,99.9393,102.351,0.0020164,0.11418,20.876,102.731,-0.214266,0.0,0.0
3555,888.5,59.3465,62.1595,143.847,100.224,101.797,0.00222917,0.112655,20.8778,102.631,-0.139942,0.0,0.0
3600,899.75,58.577,61.5961,144.594,100.441,102.408,0.00216138,0.111953,20.8802,102.541,-0.174293,0.0,0.0
3645,911,58.7358,60.6664,144.525,100.514,102.27,0.00226454,0.113426,20.8798,102.461,-0.155631,0.0,0.0
3690,922.25,57.7246,60.7895,145.398,100.535,102.418,0.00250833,0.112868,20.8802,102.24,-0.166772,0.0,0.0
3735,933.5,57.4893,60.0737,140.689,100.456,102.145,0.00266032,0.113301,20.8825,102.19,-0.149914,0.0,0.0
3780,944.75,57.7278,60.1112,144.261,100.235,102.106,0.00257,0.11277,20.8814,102.06,-0.166162,0.0,0.0
3825,956,55.2502,58.2081,144.689,99.954,101.519,0.00268846,0.112053,20.8848,101.87,-0.139667,0.0,0.0
3870,967.25,55.4605,58.5538,142.223,99.69,101.373,0.00301749,0.114767,20.8827,101.84,-0.150461,0.0,0.0
3915,978.5,55.1161,58.1626,144.457,99.4374,100.734,0.00329127,0.115203,20.88,101.71,-0.116426,0.0,0.0
3960,989.75,54.7383,57.4783,140.163,99.2897,100.802,0.00326243,0.11473,20.8825,101.63,-0.135825,0.0,0.0
4005,1001,54.7365,57.7836,146.211,99.1868,100.585,0.00319132,0.112396,20.8818,101.52,-0.125821,0.0,0.0
4050,1012.25,54.1415,57.1397,141.794,99.0781,100.703,0.00324991,0.114351,20.884,101.37,-0.146202,0.0,0.0
4095,1023.5,53.9302,56.8137,142.426,98.948,100.406,0.00328328,0.114532,20.8843,101.32,-0.131426,0.0,0.0
4140,1034.75,53.6997,56.4374,144.707,98.8641,100.455,0.003476,0.114552,20.8848,101.119,-0.143503,0.0,0.0
4185,1046,52.8444,56.596,144.051,98.8905,100.128,0.00313771,0.113111,20.8871,101.129,-0.111762,0.0,0.0
4230,1057.25,53.4546,56.9419,140.337,98.9149,100.638,0.00354526,0.115527,20.8849,100.949,-0.155186,0.0,0.0
4275,1068.5,52.242,55.9049,143.18,98.9971,100.103,0.00338387,0.114883,20.8865,100.829,-0.0998054,0.0,0.0