File: 01_Data/Pressure_Treated_Deck/Cone/Pressure_Treated_Deck_Cone_HF75Scan_230620_R3.csv
Names,Time,Stack TC,Smoke TC,Exh Press,Smoke Comp,Smoke Meas,CO Meter,CO2 Meter,O2 Meter,Sample Mass,Ext Coeff,Start Test,Flame Verif
Chan Gain,,500,500,1,1,1,1,1,1,1,1,1.0,1.0
Offset,,0,0,0.245636,0,0,0,0,0,0,0,0.0,0.0
Gain,,1,1,25.011,13.7537,14.9165,1,1,1,1.00094,1.03834,1.0,1.0
Units,sec,C,C,Pa,%,%,%,%,%,g,/m,,
Baseline,,41.2121,44.5186,139.233,99.9048,99.9413,0.000540746,0.0498487,20.9572,-444.792,-0.00331953,,
44,10.75,39.2969,42.6913,137.69,99.8732,97.5458,0.00120352,0.0624869,20.9419,200.719,0.214772,0.0,0.0
88,21.75,43.5649,53.9797,118.949,99.9824,98.8063,0.00143025,0.0913702,20.946,199.058,0.107776,0.0,0.0
132,32.75,55.2623,73.3107,116.87,100.124,96.0395,0.00348808,0.542673,20.5171,196.906,0.379344,0.0,0.0
176,43.75,63.2767,83.3943,119.898,100.227,94.0183,0.00567576,0.668132,20.2689,194.573,0.582462,0.0,0.0
220,54.75,68.7313,88.433,119.059,100.327,94.7772,0.00635885,0.675358,20.2405,192.281,0.518315,0.0,0.0
264,65.75,72.6612,90.7037,114.677,100.44,94.8108,0.00693483,0.641169,20.2739,190.169,0.525361,0.0,0.0
308,76.75,75.0538,91.857,120.19,100.477,94.535,0.00664489,0.609951,20.3124,188.137,0.555211,0.0,0.0
352,87.75,76.1453,91.3845,117.26,100.442,95.4491,0.00624209,0.574857,20.352,186.136,0.464446,0.0,0.0
396,98.75,76.2594,90.7086,122.756,100.254,95.2428,0.00602869,0.544147,20.3876,184.334,0.467,0.0,0.0
440,109.75,77.3497,90.6901,123.653,99.8585,94.5486,0.0059495,0.520602,20.4171,182.562,0.497677,0.0,0.0
484,120.75,76.9594,90.7311,116.541,99.4241,95.0567,0.00583162,0.505678,20.4341,180.73,0.409158,0.0,0.0
528,131.75,77.7398,89.7771,119.301,99.0258,95.19,0.00558654,0.497,20.4491,178.829,0.359822,0.0,0.0
572,142.75,77.5387,90.201,120.526,98.8109,95.795,0.00526084,0.484663,20.4635,177.227,0.28233,0.0,0.0
616,153.75,78.1752,89.5921,122.193,98.74,95.5615,0.00475292,0.473012,20.4707,175.455,0.29802,0.0,0.0
660,164.75,77.0535,89.1021,121.533,98.6967,95.8719,0.00432881,0.458016,20.4934,173.904,0.264489,0.0,0.0
704,175.75,77.8001,88.1953,122.317,98.7127,96.6699,0.00494162,0.445214,20.5083,172.282,0.190462,0.0,0.0
748,186.75,77.0993,87.996,120.81,98.7311,97.1033,0.00383159,0.436938,20.5213,170.711,0.151424,0.0,0.0
792,197.75,78.9762,88.3934,121.665,98.7849,96.7546,0.00393768,0.434925,20.5237,169.089,0.189147,0.0,0.0
836,208.75,77.5346,88.3522,121.945,98.9188,96.5812,0.00417248,0.432517,20.5253,167.438,0.217825,0.0,0.0
880,219.75,77.5945,88.1921,118.868,99.1303,96.9244,0.00411122,0.425082,20.531,165.846,0.204971,0.0,0.0
924,230.75,77.8407,88.4208,119.891,99.4073,97.8298,0.00394768,0.420255,20.5401,164.225,0.145699,0.0,0.0
968,241.75,78.1484,88.3074,122.475,99.7091,98.6988,0.0037447,0.426738,20.5363,162.683,0.0927574,0.0,0.0
1012,252.75,78.294,87.6344,122.206,100.043,98.4098,0.0034882,0.422955,20.5376,161.102,0.149904,0.0,0.0
1056,263.75,78.4668,88.6715,120.052,100.301,98.53,0.00356112,0.41831,20.5395,159.56,0.162258,0.0,0.0
1100,274.75,78.1518,87.9456,121.937,100.425,99.7426,0.00368011,0.412642,20.5449,158.059,0.0620765,0.0,0.0
1144,285.75,77.9815,87.3952,122.935,100.444,99.4841,0.00336308,0.408792,20.5505,156.367,0.087469,0.0,0.0
1188,296.75,77.1922,87.1911,121.604,100.464,99.6379,0.003348,0.402242,20.5577,154.796,0.0751827,0.0,0.0
1232,307.75,77.5106,86.8068,119.118,100.442,99.4377,0.00332822,0.402395,20.5556,153.184,0.0915697,0.0,0.0
1276,318.75,77.9197,87.3789,124.235,100.462,99.393,0.00344167,0.410297,20.5503,151.683,0.0974455,0.0,0.0
1320,329.75,77.8072,86.8967,119.36,100.447,98.7944,0.00314258,0.40556,20.5538,150.272,0.151097,0.0,0.0
1364,340.75,78.0572,86.8387,120.203,100.242,98.6041,0.00320707,0.402125,20.5625,148.76,0.150065,0.0,0.0
1408,351.75,78.0629,86.9206,119.925,99.8946,98.6765,0.00335516,0.397618,20.5655,147.279,0.111748,0.0,0.0
1452,362.75,77.4229,86.2438,121.442,99.4946,99.0789,0.00318354,0.397514,20.5657,145.757,0.0381344,0.0,0.0
1496,373.75,77.8544,86.6856,118.571,99.1618,97.6978,0.00309953,0.398762,20.5686,144.296,0.135472,0.0,0.0
1540,384.75,78.152,86.9158,121.013,98.8617,96.9485,0.00330261,0.412666,20.5539,142.765,0.177989,0.0,0.0
1584,395.75,78.2615,87.9849,119.636,98.7152,98.1107,0.00325692,0.410728,20.5552,141.273,0.0559479,0.0,0.0
1628,406.75,78.9879,87.959,122.368,98.7362,97.6459,0.00275185,0.417539,20.5436,139.842,0.101135,0.0,0.0
1672,417.75,79.1029,88.5567,117.009,98.9502,97.7725,0.00325923,0.426488,20.5343,138.31,0.109063,0.0,0.0
1716,428.75,79.4031,89.1506,121.968,99.281,98.4985,0.00345916,0.428032,20.5285,136.789,0.0720679,0.0,0.0
1760,439.75,79.7349,89.0541,121.828,99.5891,97.5025,0.00338531,0.431184,20.5268,135.288,0.192859,0.0,0.0
1804,450.75,80.3283,89.5143,123.293,99.8308,97.9145,0.00340996,0.434579,20.523,133.756,0.176542,0.0,0.0
1848,461.75,80.8148,89.8546,120.894,99.94,97.5039,0.00393359,0.440069,20.5196,132.295,0.224768,0.0,0.0
1892,472.75,80.9314,89.5808,121.26,99.8355,98.0788,0.00378742,0.441342,20.5194,130.723,0.161689,0.0,0.0
1936,483.75,80.5318,90.3697,118.782,99.608,96.8406,0.0040582,0.447697,20.5121,129.202,0.256628,0.0,0.0
1980,494.75,81.5485,90.8707,120.568,99.2982,97.5125,0.00379616,0.454829,20.503,127.72,0.165283,0.0,0.0
2024,505.75,82.0572,91.4653,119.376,99.422,96.674,0.00427362,0.45757,20.4963,126.229,0.255293,0.0,0.0
2068,516.75,82.7519,92.0272,121.324,99.8057,97.5699,0.00393056,0.466729,20.4896,124.537,0.206355,0.0,0.0
2112,527.75,82.9022,93.1294,118.058,99.937,96.3058,0.0041468,0.481036,20.479,123.196,0.337116,0.0,0.0
2156,538.75,83.8526,93.1676,116.323,99.9265,95.8155,0.0046921,0.48257,20.4667,121.665,0.382645,0.0,0.0
2200,549.75,83.4238,93.4519,120.414,99.932,96.8224,0.00486394,0.483236,20.4672,120.043,0.287922,0.0,0.0
2244,560.75,83.6751,93.4672,122.667,99.9114,95.3953,0.00478622,0.494787,20.4566,118.562,0.421296,0.0,0.0
2288,571.75,84.6198,94.5708,119.936,99.8716,94.9114,0.00513845,0.503951,20.4463,117,0.46398,0.0,0.0
2332,582.75,85.0506,95.3565,117.882,99.8078,94.9902,0.00479336,0.50326,20.4368,115.399,0.450606,0.0,0.0
2376,593.75,85.9187,95.4827,114.551,99.7095,95.0576,0.00532974,0.511424,20.4301,113.857,0.43518,0.0,0.0
2420,604.75,86.3097,96.4299,121.28,99.6529,93.9273,0.0052517,0.516178,20.4245,112.236,0.538955,0.0,0.0
2464,615.75,86.0854,97.0329,117.12,99.5379,93.9364,0.0057474,0.517,20.4241,110.684,0.527554,0.0,0.0
2508,626.75,86.2918,96.2973,119.695,99.4925,94.3784,0.00600751,0.51794,20.4219,109.143,0.480648,0.0,0.0
2552,637.75,86.2862,95.9139,118.541,99.4271,93.3546,0.00598342,0.51681,20.4305,107.611,0.573995,0.0,0.0
2596,648.75,86.5468,96.7027,114.181,99.2206,93.3906,0.00608206,0.520699,20.4128,105.89,0.551548,0.0,0.0
2640,659.75,86.5534,97.4906,119.192,99.2071,93.5249,0.00616701,0.528412,20.4077,104.338,0.537229,0.0,0.0
2684,670.75,85.4476,95.2734,118.392,99.336,93.8745,0.00608891,0.51288,20.4181,102.817,0.515067,0.0,0.0
2728,681.75,86.7508,96.547,120.17,99.5349,95.7113,0.00593772,0.5126,20.4138,101.296,0.356795,0.0,0.0
2772,692.75,85.8497,96.1126,122.6,99.6117,96.5234,0.00560624,0.48963,20.4414,99.8942,0.286864,0.0,0.0
2816,703.75,85.473,94.2864,123.012,99.6017,96.4287,0.00579195,0.472047,20.4497,98.593,0.294882,0.0,0.0
2860,714.75,84.3253,92.5729,120.204,99.5123,96.3317,0.00442479,0.42982,20.4961,97.4419,0.295867,0.0,0.0
2904,725.75,83.0799,90.1737,123.409,99.3267,97.483,0.00295497,0.381638,20.5503,96.491,0.170665,0.0,0.0
2948,736.75,80.9172,86.905,124.497,99.2059,99.3694,0.00261966,0.3269,20.6088,95.8103,-0.0149995,0.0,0.0
2992,747.75,77.8045,82.9825,126.751,99.4468,101.025,0.0023899,0.263995,20.6713,95.2398,-0.143452,0.0,0.0
3036,758.75,76.1018,79.8432,127.228,99.8229,101.764,0.0018762,0.217309,20.7342,94.8895,-0.1754,0.0,0.0
3080,769.75,73.6037,76.1582,126.607,99.9526,101.814,0.00130774,0.18028,20.7796,94.5792,-0.168054,0.0,0.0
3124,780.75,70.8648,72.8822,128.973,99.8359,101.495,0.00146233,0.153946,20.8136,94.419,-0.150101,0.0,0.0
3168,791.75,68.9177,70.8657,132.293,99.5429,101.266,0.00190006,0.133044,20.8418,94.1788,-0.156338,0.0,0.0
3212,802.75,66.7504,69.445,126.965,99.728,102.043,0.00174816,0.127742,20.8487,94.0487,-0.209042,0.0,0.0
3256,813.75,65.658,67.9082,128.176,99.9878,101.568,0.00111544,0.126456,20.851,93.9186,-0.142824,0.0,0.0
3300,824.75,64.7739,66.9368,131.01,100.211,102.006,0.00148615,0.122144,20.8533,93.7284,-0.161733,0.0,0.0
3344,835.75,63.5027,66.1389,127.788,100.414,102.399,0.0016804,0.120192,20.8586,93.5482,-0.178258,0.0,0.0
3388,846.75,62.6716,65.5531,134.061,100.411,102.194,0.00148169,0.118121,20.8596,93.4781,-0.160244,0.0,0.0
3432,857.75,62.2491,65.0076,130.731,100.107,101.391,0.0013041,0.115083,20.8635,93.348,-0.116038,0.0,0.0
3476,868.75,61.807,64.6324,132.966,99.5996,100.655,0.00175249,0.114409,20.8662,93.2279,-0.0959998,0.0,0.0
3520,879.75,61.1721,64.044,132.808,99.0455,100.074,0.00187879,0.113704,20.8672,93.0177,-0.0941363,0.0,0.0
3564,890.75,60.8496,63.1241,133.72,98.766,100.13,0.00182288,0.1142,20.8672,92.8275,-0.124974,0.0,0.0
3608,901.75,60.321,63.1207,132.769,98.9167,100.5,0.0017849,0.116083,20.8691,92.7975,-0.144608,0.0,0.0
3652,912.75,59.8713,61.9406,130.244,99.1996,100.932,0.00143804,0.113507,20.8708,92.7274,-0.157706,0.0,0.0
3696,923.75,58.664,62.2696,132.512,99.4464,101.15,0.00216444,0.114563,20.8683,92.6474,-0.154688,0.0,0.0
3740,934.75,58.629,61.2469,131.837,99.6604,100.993,0.00201173,0.11482,20.8698,92.5473,-0.120991,0.0,0.0
3784,945.75,56.9306,59.363,128.216,99.8136,101.172,0.0021442,0.1149,20.8722,92.4472,-0.12308,0.0,0.0
3828,956.75,56.8636,59.6812,128.735,99.8808,101.145,0.00257792,0.11425,20.8747,92.277,-0.114536,0.0,0.0
3872,967.75,56.3809,59.564,133.054,99.9068,101.125,0.00262983,0.115233,20.873,92.1669,-0.110399,0.0,0.0
3916,978.75,56.1362,58.4328,132.373,99.9374,101.441,0.00245181,0.116123,20.8727,92.1369,-0.135976,0.0,0.0
3960,989.75,55.5801,58.8768,131.644,99.9597,100.992,0.00238683,0.117127,20.8738,92.0068,-0.0935998,0.0,0.0
4004,1000.75,55.2227,58.3609,132.756,99.9694,101.195,0.00251943,0.116983,20.8734,91.8966,-0.11097,0.0,0.0
4048,1011.75,55.661,58.3187,133.592,99.8854,100.882,0.00262364,0.116837,20.8743,91.7565,-0.0903895,0.0,0.0
4092,1022.75,55.411,58.4691,133.336,99.6894,100.698,0.00281098,0.117872,20.8733,91.7065,-0.0916611,0.0,0.0
4136,1033.75,54.7222,58.015,133.46,99.3473,100.631,0.00255785,0.116914,20.8767,91.6264,-0.116915,0.0,0.0
4180,1044.75,55.3332,57.6047,132.576,99.0065,100.017,0.00273124,0.119081,20.875,91.4562,-0.0925045,0.0,0.0
4224,1055.75,54.4383,57.8085,131.499,98.7597,99.673,0.002919,0.116843,20.8764,91.3862,-0.0838439,0.0,0.0
4231,1057.5,54.2423,58.0056,130.82,98.7513,100.259,0.00305695,0.117503,20.8765,91.3261,-0.13804,0.0,0.0