File: 01_Data/Pressure_Treated_Deck/Cone/Pressure_Treated_Deck_Cone_HF25Scan_230612_R1.csv
Names,Time,Stack TC,Smoke TC,Exh Press,Smoke Comp,Smoke Meas,CO Meter,CO2 Meter,O2 Meter,Sample Mass,Ext Coeff,Start Test,Flame Verif
Chan Gain,,500,500,1,1,1,1,1,1,1,1,1.0,1.0
Offset,,0,0,0.13972,0,0,0,0,0,0,0,0.0,0.0
Gain,,1,1,25.011,13.3025,15.4883,1,1,1,1.0009,1.01862,1.0,1.0
Units,sec,C,C,Pa,%,%,%,%,%,g,/m,,
Baseline,,22.0854,23.3284,160.886,99.7992,99.7332,0.000639097,0.0440025,20.9692,-442.962,0.00593231,,
61,15,21.1843,22.1787,162.566,99.8285,100.085,0.000778469,0.0540379,20.9556,175.178,-0.0229032,0.0,0.0
122,30.25,20.8589,22.773,158.685,100.124,100.783,0.000382343,0.0492344,20.9615,174.878,-0.0586418,0.0,0.0
183,45.5,20.7811,22.7972,165.61,100.156,99.9689,0.000408468,0.0466118,20.97,174.638,0.016717,0.0,0.0
244,60.75,21.5538,22.6546,160.248,100.06,99.7104,0.00029889,0.0507371,20.9683,174.468,0.0313046,0.0,0.0
305,76,21.2333,23.4039,160.371,100.003,99.5776,0.000659593,0.0581188,20.9534,174.228,0.0380655,0.0,0.0
366,91.25,22.2216,23.5149,161.453,99.8837,98.973,0.000598955,0.0651201,20.9447,173.977,0.081843,0.0,0.0
427,106.5,22.1513,23.7184,161.799,99.7518,99.1923,0.001068,0.0550144,20.9553,173.707,0.0502545,0.0,0.0
488,121.75,22.0815,24.1672,155.828,99.6203,98.2111,0.000903416,0.0518022,20.9601,173.387,0.127296,0.0,0.0
549,137,22.5239,24.0724,160.942,99.6109,97.477,0.00124014,0.0527926,20.9582,173.106,0.193494,0.0,0.0
610,152.25,22.8494,24.241,158.245,99.7908,97.486,0.00164748,0.0530927,20.9564,172.746,0.208788,0.0,0.0
671,167.5,22.6765,24.7431,161.716,100.099,97.797,0.00162821,0.0547379,20.9562,172.366,0.207873,0.0,0.0
732,182.75,27.149,37.196,143.22,100.174,99.44,0.00217567,0.0998525,20.9549,170.904,0.0657455,0.0,0.0
793,198,36.1288,47.9505,146.006,100.017,98.6927,0.00333153,0.43684,20.5259,168.913,0.119087,0.0,0.0
854,213.25,39.4004,48.2481,149.509,99.8667,98.4994,0.0028596,0.357002,20.5846,167.291,0.123178,0.0,0.0
915,228.5,39.5382,47.0989,145.895,100.326,98.9499,0.00286221,0.304126,20.6581,165.81,0.123431,0.0,0.0
976,243.75,39.4185,45.792,150.868,100.657,99.1663,0.00279201,0.283558,20.687,164.429,0.133286,0.0,0.0
1037,259,39.5892,44.3983,145.239,100.36,99.4126,0.00233797,0.25788,20.7132,163.137,0.084707,0.0,0.0
1098,274.25,39.1794,43.8749,152.859,99.6795,98.6421,0.00257834,0.25215,20.728,161.846,0.0934781,0.0,0.0
1159,289.5,38.9192,43.3397,152.059,99.0308,98.5542,0.00281807,0.237515,20.7422,160.655,0.0431043,0.0,0.0
1220,304.75,38.7676,42.419,148.133,98.883,98.6833,0.00253951,0.23131,20.7542,159.394,0.0180693,0.0,0.0
1281,320,38.7863,42.7975,151.379,99.2496,99.2524,0.00285262,0.225509,20.7628,158.203,-0.000246589,0.0,0.0
1342,335.25,38.416,42.0259,148.523,99.578,99.5634,0.00294224,0.22664,20.7613,156.982,0.00131645,0.0,0.0
1403,350.5,38.7446,42.6432,149.393,99.8245,99.396,0.00236234,0.219976,20.7672,155.761,0.0384293,0.0,0.0
1464,365.75,39.1647,43.9014,150.291,99.8711,99.9217,0.00246388,0.231272,20.7594,154.5,-0.0045185,0.0,0.0
1525,381,38.9024,43.5228,155.503,99.8025,99.8588,0.00262528,0.235432,20.7532,153.098,-0.00503485,0.0,0.0
1586,396.25,39.1971,43.2794,148.703,99.5837,99.4362,0.00279676,0.226365,20.7554,151.867,0.013244,0.0,0.0
1647,411.5,38.818,42.4987,154.128,99.1997,98.9796,0.00277396,0.207778,20.7782,150.676,0.0198433,0.0,0.0
1708,426.75,38.344,41.4081,152.097,98.8623,98.4318,0.00265975,0.197673,20.7912,149.575,0.0389967,0.0,0.0
1769,442,37.765,40.52,152.169,98.8871,98.9654,0.00230218,0.191777,20.7994,148.454,-0.00707709,0.0,0.0
1830,457.25,37.3141,39.6915,150.834,99.2265,98.8435,0.00239987,0.186618,20.8047,147.413,0.0345541,0.0,0.0
1891,472.5,36.2678,39.2633,153.468,99.8208,99.3464,0.00234686,0.181305,20.8123,146.322,0.0425647,0.0,0.0
1952,487.75,36.2759,39.261,157.188,100.184,99.9401,0.00284951,0.182066,20.815,145.301,0.0217933,0.0,0.0
2013,503,35.3337,38.3993,152.861,100.282,100.027,0.00255792,0.186041,20.8035,144.23,0.0227485,0.0,0.0
2074,518.25,35.5195,37.8498,152.909,100.209,99.8356,0.0029177,0.178596,20.8152,143.239,0.0333816,0.0,0.0
2135,533.5,35.8271,37.9034,149.566,99.9146,99.8082,0.0026536,0.178726,20.8198,142.209,0.0095175,0.0,0.0
2196,548.75,35.1591,37.8154,153.636,99.4843,99.1361,0.00279608,0.179161,20.8168,141.158,0.0313269,0.0,0.0
2257,564,35.3694,38.6723,152.879,99.1753,99.1564,0.00275066,0.184123,20.8082,140.157,0.0017041,0.0,0.0
2318,579.25,35.3059,38.8339,152.738,98.9549,98.8421,0.00220666,0.186586,20.808,139.096,0.010191,0.0,0.0
2379,594.5,36.1101,39.6219,153.266,98.8522,99.1021,0.00254482,0.188773,20.8057,138.065,-0.0225572,0.0,0.0
2440,609.75,36.1594,38.9298,150.692,99.0998,99.0467,0.0023396,0.188574,20.8048,137.054,0.00478663,0.0,0.0
2501,625,36.1625,39.1889,150.63,99.386,98.7234,0.00216195,0.185908,20.8075,136.033,0.0597674,0.0,0.0
2562,640.25,36.2482,39.2115,153.858,99.7871,99.6087,0.00266682,0.186047,20.8107,135.002,0.0159855,0.0,0.0
2623,655.5,36.5642,39.6735,149.306,100.046,99.9491,0.00260543,0.190059,20.8068,133.981,0.00867155,0.0,0.0
2684,670.75,36.1062,39.3483,153.72,100.078,100.428,0.00223598,0.19146,20.8018,132.94,-0.0312041,0.0,0.0
2745,686,36.7435,39.3299,152.301,99.889,99.8626,0.0023481,0.18934,20.8028,131.919,0.00236542,0.0,0.0
2806,701.25,36.3656,39.5905,149.699,99.4433,99.2429,0.00234466,0.188953,20.8059,130.928,0.0180204,0.0,0.0
2867,716.5,36.7436,40.2072,153.917,99.8983,100.469,0.00215793,0.190811,20.8021,129.907,-0.050896,0.0,0.0
2928,731.75,36.6595,39.0247,151.33,100.047,100.097,0.00236639,0.187129,20.8053,128.927,-0.00439382,0.0,0.0
2989,747,36.2945,39.9571,150.773,100.199,100.048,0.00226782,0.185319,20.8097,127.936,0.0134248,0.0,0.0
3050,762.25,36.5788,39.8082,148.539,100.61,100.631,0.00217057,0.185411,20.8096,126.995,-0.00183493,0.0,0.0
3111,777.5,36.6799,39.5017,152.172,99.5013,99.2973,0.00227484,0.185125,20.8092,126.014,0.0183425,0.0,0.0
3172,792.75,37.0952,40.2124,153.837,98.9906,98.5192,0.00198205,0.189739,20.8036,125.043,0.0426484,0.0,0.0
3233,808,37.353,40.7897,154.096,99.7023,99.4532,0.00223053,0.194065,20.7995,124.062,0.0223447,0.0,0.0
3294,823.25,37.7307,41.1275,151.572,99.9978,99.8607,0.00220735,0.201291,20.792,123.011,0.0122612,0.0,0.0
3355,838.5,37.4587,42.0136,150.318,100.055,99.5823,0.00216413,0.209941,20.7839,121.98,0.0422838,0.0,0.0
3416,853.75,38.5941,42.5522,151.165,100.01,99.889,0.00176143,0.214084,20.7759,120.919,0.0108123,0.0,0.0
3477,869,38.7682,42.6717,150.237,99.8582,99.3053,0.00158091,0.217094,20.7712,119.858,0.0496063,0.0,0.0
3538,884.25,39.4287,42.978,151.646,99.5655,98.887,0.00175176,0.225114,20.7648,118.747,0.0610962,0.0,0.0
3599,899.5,39.588,43.8736,150.763,99.1583,99.1531,0.00196299,0.236962,20.7576,117.606,0.00046653,0.0,0.0
3660,914.75,40.006,44.5551,151.269,98.8765,98.5032,0.00202093,0.247268,20.744,116.345,0.0338039,0.0,0.0
3721,930,41.2261,46.354,150.239,99.1895,98.8969,0.00182823,0.259311,20.7312,115.144,0.0263994,0.0,0.0
3782,945.25,42.0893,46.7629,146.957,99.9113,99.4414,0.00225882,0.271459,20.7137,113.733,0.0421237,0.0,0.0
3843,960.5,43.4758,48.4686,147.926,100.464,99.1777,0.00209113,0.281315,20.7031,112.392,0.11513,0.0,0.0
3904,975.75,43.9845,49.1738,147.105,100.631,98.8889,0.00205984,0.290744,20.6895,111.01,0.156051,0.0,0.0
3965,991,44.5304,50.4518,146.755,100.632,99.1569,0.0020143,0.305189,20.6735,109.539,0.131904,0.0,0.0
4026,1006.25,45.6781,51.0605,141.831,100.549,99.3762,0.00238947,0.317454,20.6566,107.998,0.104878,0.0,0.0
4087,1021.5,46.2897,51.8549,145.546,100.418,97.1977,0.00296404,0.330671,20.6404,106.396,0.291239,0.0,0.0
4148,1036.75,47.5184,53.5684,145.472,100.259,96.7468,0.00314971,0.343472,20.6276,104.685,0.318652,0.0,0.0
4209,1052,48.2122,55.1002,143.021,100.185,96.0061,0.00321336,0.360822,20.6036,102.933,0.380662,0.0,0.0
4270,1067.25,49.379,55.955,145.348,100.133,96.6158,0.00361884,0.370059,20.5925,101.101,0.319495,0.0,0.0
4331,1082.5,50.0447,56.8433,141.21,100.282,96.1096,0.00387602,0.38471,20.5759,99.2697,0.379683,0.0,0.0
4392,1097.75,51.3447,58.4177,142.84,100.483,96.457,0.00430315,0.38779,20.5672,97.358,0.365402,0.0,0.0
4453,1113,52.5497,59.1115,144.638,100.646,96.4357,0.00453585,0.393003,20.5638,95.4663,0.3818,0.0,0.0
4514,1128.25,52.6215,59.7815,143.341,100.513,96.837,0.00438417,0.39472,20.5595,93.6346,0.332866,0.0,0.0
4575,1143.5,53.1509,60.3747,143.847,99.9844,94.3603,0.00426091,0.396737,20.5547,91.7129,0.517299,0.0,0.0
4636,1158.75,53.7873,60.1466,142.395,99.25,94.4345,0.00460207,0.391108,20.5587,89.9213,0.444403,0.0,0.0
4697,1174,53.6985,59.4125,141.18,98.9082,94.0114,0.00459291,0.380294,20.5705,88.1897,0.453694,0.0,0.0
4758,1189.25,53.8002,59.1775,145.881,99.3856,93.5624,0.00461184,0.376832,20.572,86.4482,0.539499,0.0,0.0
4819,1204.5,53.3554,59.5321,143.744,100.031,94.7658,0.00406868,0.375941,20.5745,84.7766,0.483186,0.0,0.0
4880,1219.75,53.1313,58.207,140.181,100.013,95.2134,0.00383866,0.361837,20.5849,83.1852,0.439413,0.0,0.0
4941,1235,52.4636,57.1815,143.947,99.4538,94.3494,0.00350965,0.346839,20.5951,81.7239,0.470786,0.0,0.0
5002,1250.25,50.7845,54.0778,149.173,99.9544,94.8693,0.00414253,0.308791,20.6348,80.4527,0.46654,0.0,0.0
5063,1265.5,48.8092,50.3422,150.273,100.063,96.2523,0.00383119,0.265656,20.683,79.4819,0.346904,0.0,0.0
5124,1280.75,46.3373,47.7366,152.936,99.8988,98.3288,0.00468095,0.217273,20.739,78.8913,0.141539,0.0,0.0
5185,1296,43.3101,44.2555,150.729,99.8322,99.1068,0.0052646,0.173386,20.7944,78.3208,0.0651618,0.0,0.0
5246,1311.25,40.9035,40.9513,155.026,99.9751,99.8035,0.00562927,0.14776,20.829,78.0406,0.0153475,0.0,0.0
5307,1326.5,38.4648,37.8982,161.016,100.11,99.1838,0.0064272,0.125165,20.8623,77.7803,0.0830725,0.0,0.0
5368,1341.75,37.6765,36.4578,156.085,100.077,99.1465,0.00709671,0.113974,20.8783,77.48,0.0834651,0.0,0.0
5429,1357,33.6433,33.0659,155.612,99.725,99.3573,0.00782133,0.112752,20.8856,77.2498,0.033007,0.0,0.0
5490,1372.25,32.6358,31.7402,153.459,99.3925,99.0132,0.0097744,0.103887,20.892,77.0296,0.0341658,0.0,0.0
5551,1387.5,31.0964,30.8237,158.575,99.7733,99.5147,0.00953174,0.101335,20.8929,76.8094,0.0231915,0.0,0.0
5612,1402.75,30.8225,30.2857,156.643,100.083,99.4566,0.00895051,0.101674,20.8934,76.6293,0.0560729,0.0,0.0
5673,1418,29.8318,30.3206,155.333,99.997,99.3365,0.00842649,0.101686,20.8946,76.4391,0.059215,0.0,0.0
5734,1433.25,29.6703,29.6869,155.587,99.7843,99.2812,0.00815736,0.103531,20.8919,76.1789,0.0451626,0.0,0.0
5795,1448.5,28.7978,29.1149,155.385,99.6702,99.233,0.00757774,0.100289,20.8991,76.0187,0.039282,0.0,0.0
5855,1463.5,28.5698,29.3838,158.577,99.6694,99.4079,0.00736792,0.100156,20.8981,75.8586,0.0234752,0.0,0.0