File: 01_Data/Pressure_Treated_Deck/Cone/Pressure_Treated_Deck_Cone_HF75Scan_230613_R2.csv
Names,Time,Stack TC,Smoke TC,Exh Press,Smoke Comp,Smoke Meas,CO Meter,CO2 Meter,O2 Meter,Sample Mass,Ext Coeff,Start Test,Flame Verif
Chan Gain,,500,500,1,1,1,1,1,1,1,1,1.0,1.0
Offset,,0,0,0.245636,0,0,0,0,0,0,0,0.0,0.0
Gain,,1,1,25.011,13.7516,15.0469,1,1,1,1.00089,1.02456,1.0,1.0
Units,sec,C,C,Pa,%,%,%,%,%,g,/m,,
Baseline,,47.267,50.7895,148.278,99.5047,99.5336,0.00057551,0.0459953,20.9692,-443.842,-0.00259012,,
42,10.25,44.2674,47.6838,144.536,100.121,100.109,0.00138213,0.0553272,20.9563,199.597,0.00108095,0.0,0.0
84,20.75,50.7553,65.0677,121.002,100.079,99.333,0.00143458,0.117154,20.9557,197.785,0.067287,0.0,0.0
126,31.25,62.9811,82.9027,120.47,100.076,95.3825,0.00366206,0.595953,20.4651,195.393,0.431712,0.0,0.0
168,41.75,71.5701,95.6171,130.171,100.007,95.107,0.00584796,0.746986,20.195,192.991,0.451528,0.0,0.0
210,52.25,77.8811,98.697,130.099,99.8839,94.2658,0.00674126,0.735576,20.1629,190.689,0.520282,0.0,0.0
252,62.75,80.5481,100.383,131.473,99.8289,95.1704,0.00703356,0.687322,20.2177,188.557,0.429499,0.0,0.0
294,73.25,83.5625,100.945,124.573,99.7756,95.1107,0.00675936,0.643238,20.2702,186.475,0.430338,0.0,0.0
336,83.75,83.7453,100.178,130.476,99.7244,94.8228,0.00649154,0.595193,20.3207,184.583,0.452973,0.0,0.0
378,94.25,84.0266,98.836,128.054,99.7454,96.1117,0.00657101,0.562252,20.3644,182.682,0.333518,0.0,0.0
420,104.75,84.6013,98.8666,130.455,99.7693,95.0064,0.00600651,0.544346,20.3904,180.86,0.439626,0.0,0.0
462,115.25,84.1121,97.0188,134.35,99.8449,96.232,0.00601065,0.526474,20.41,179.028,0.331232,0.0,0.0
504,125.75,84.3265,96.915,130.229,99.8927,96.013,0.00543492,0.504051,20.4415,177.337,0.356016,0.0,0.0
546,136.25,83.2825,95.5188,128.352,99.9242,97.1996,0.00519707,0.492453,20.4501,175.555,0.248461,0.0,0.0
588,146.75,83.7393,95.5166,132.601,99.9943,95.6902,0.00561458,0.483998,20.4646,173.914,0.395417,0.0,0.0
630,157.25,83.6231,95.149,127.512,100.096,97.4503,0.00529134,0.472703,20.4749,172.262,0.24077,0.0,0.0
672,167.75,83.5053,95.0632,133.479,100.134,97.9012,0.00501066,0.467611,20.4838,170.581,0.20267,0.0,0.0
714,178.25,83.779,93.6087,128.539,100.186,98.4362,0.00498263,0.457067,20.4944,168.939,0.158401,0.0,0.0
756,188.75,83.481,93.3661,132.998,100.198,98.5758,0.00483286,0.446461,20.5057,167.338,0.14672,0.0,0.0
798,199.25,82.7373,93.2483,129.984,100.199,99.2572,0.00444792,0.436553,20.5186,165.767,0.0848794,0.0,0.0
840,209.75,82.5383,92.7495,137.751,100.17,98.612,0.0040773,0.428731,20.5264,164.135,0.14089,0.0,0.0
882,220.25,82.1513,91.9659,131.013,100.115,99.76,0.00402968,0.421391,20.5351,162.644,0.0318971,0.0,0.0
924,230.75,82.0508,91.8374,129.4,100.056,99.8078,0.0035448,0.415092,20.5412,161.103,0.0222827,0.0,0.0
966,241.25,82.3869,91.1874,128.783,100.007,99.0189,0.00388773,0.410944,20.5524,159.591,0.0892658,0.0,0.0
1008,251.75,81.6763,91.2057,132.822,99.9015,99.4253,0.00393323,0.40974,20.5515,157.88,0.0429472,0.0,0.0
1050,262.25,81.7774,91.5563,126.464,99.7492,99.2094,0.00368852,0.409044,20.5521,156.398,0.0487618,0.0,0.0
1092,272.75,81.8417,91.7307,137.736,99.6409,99.9106,0.00389076,0.404105,20.5574,154.927,-0.0242952,0.0,0.0
1134,283.25,82.3203,90.9666,129.061,99.5024,98.5395,0.00345717,0.404062,20.5607,153.426,0.0873996,0.0,0.0
1176,293.75,81.3063,90.3569,131.175,99.4105,99.1502,0.00369302,0.4008,20.5588,151.974,0.023564,0.0,0.0
1218,304.25,81.4789,90.5091,130.638,99.4798,98.9376,0.00339727,0.397981,20.5663,150.393,0.0491135,0.0,0.0
1260,314.75,81.8194,90.5813,130.851,99.7022,99.26,0.0039184,0.395108,20.5673,149.002,0.0399505,0.0,0.0
1302,325.25,81.1392,90.4186,137.597,99.8956,99.4267,0.00384464,0.394485,20.5713,147.551,0.0422936,0.0,0.0
1344,335.75,81.4385,90.6638,131.331,100.064,99.7256,0.00348715,0.39756,20.5669,146.079,0.0304408,0.0,0.0
1386,346.25,81.6933,90.4535,130.554,100.064,99.9019,0.0034086,0.398903,20.5648,144.698,0.0146017,0.0,0.0
1428,356.75,81.9681,89.7235,131.299,99.9372,100.001,0.00369164,0.396488,20.5678,143.267,-0.00570367,0.0,0.0
1470,367.25,81.3297,90.5608,129.882,99.6938,99.4372,0.00305464,0.396292,20.5702,141.795,0.0231601,0.0,0.0
1512,377.75,81.5379,90.5842,128.448,99.8281,99.3738,0.00331687,0.403596,20.5644,140.414,0.0409872,0.0,0.0
1554,388.25,81.8348,90.4234,132.23,100.011,98.3512,0.00365197,0.401872,20.5616,138.963,0.15041,0.0,0.0
1596,398.75,81.7054,91.1422,133.239,100.05,99.2283,0.00343818,0.406725,20.5587,137.512,0.0741262,0.0,0.0
1638,409.25,81.8719,91.4864,133.08,100.149,99.4303,0.00317049,0.409507,20.5561,136.12,0.0647005,0.0,0.0
1680,419.75,82.2811,91.2178,129.228,100.283,99.8179,0.00323211,0.414883,20.5469,134.679,0.0417807,0.0,0.0
1722,430.25,82.7331,92.2279,130.433,100.408,99.873,0.00328411,0.419081,20.5429,133.208,0.0480212,0.0,0.0
1764,440.75,82.7413,92.041,135.213,100.57,99.6305,0.00371756,0.426589,20.5335,131.646,0.0843912,0.0,0.0
1806,451.25,82.5688,92.0929,131.993,100.59,99.5433,0.00351923,0.43189,20.5296,130.255,0.0940274,0.0,0.0
1848,461.75,83.3231,92.6527,129.499,100.555,98.9045,0.0035976,0.439013,20.5185,128.784,0.148695,0.0,0.0
1890,472.25,83.7302,93.3701,128.088,100.589,98.4311,0.00365322,0.443221,20.5132,127.353,0.194856,0.0,0.0
1932,482.75,84.4949,93.8245,128.068,100.612,97.6367,0.0042507,0.458776,20.4992,125.811,0.269783,0.0,0.0
1974,493.25,84.3977,94.9049,131.787,100.629,97.5095,0.00375536,0.464796,20.4898,124.31,0.283036,0.0,0.0
2016,503.75,84.6489,94.4546,128.545,100.642,97.8521,0.00433923,0.469805,20.4806,122.799,0.25268,0.0,0.0
2058,514.25,85.3348,95.995,131.624,100.647,97.2602,0.00474426,0.472514,20.4806,121.327,0.307621,0.0,0.0
2100,524.75,85.6063,95.2328,126.095,100.625,96.8653,0.0046773,0.474042,20.4738,119.776,0.342238,0.0,0.0
2142,535.25,85.6881,95.1165,128.916,100.623,96.7477,0.00470188,0.472087,20.4764,118.375,0.353002,0.0,0.0
2184,545.75,86.0608,95.7556,130.544,100.591,98.5716,0.00459584,0.468927,20.4795,116.893,0.18226,0.0,0.0
2226,556.25,85.6879,95.3379,125.147,100.566,97.9306,0.0044015,0.465189,20.4819,115.372,0.238685,0.0,0.0
2268,566.75,85.6105,95.2987,126,100.508,97.0402,0.00462217,0.459201,20.488,114.121,0.315519,0.0,0.0
2310,577.25,85.669,95.1971,132.498,100.287,97.836,0.00447817,0.453658,20.4967,112.69,0.222358,0.0,0.0
2352,587.75,85.9216,95.221,127.259,99.9955,97.5417,0.00488128,0.457897,20.4905,111.288,0.223299,0.0,0.0
2394,598.25,86.3147,95.6336,130.315,99.7085,96.733,0.00462343,0.457264,20.491,109.937,0.27228,0.0,0.0
2436,608.75,86.0282,95.6257,126.707,99.5016,97.0994,0.00469442,0.452956,20.4947,108.516,0.219631,0.0,0.0
2478,619.25,85.8158,95.4554,133.13,99.2326,96.2545,0.00462,0.452142,20.4958,107.215,0.273847,0.0,0.0
2520,629.75,86.3587,94.6567,131.472,99.0773,96.2761,0.00493146,0.449299,20.4937,105.934,0.257758,0.0,0.0
2562,640.25,85.2865,94.3028,128.509,99.0794,95.8252,0.00498828,0.443078,20.5013,104.593,0.300141,0.0,0.0
2604,650.75,85.2192,93.5513,130.307,99.2615,97.3488,0.00435035,0.433818,20.5102,103.351,0.174874,0.0,0.0
2646,661.25,84.6945,92.766,128.121,99.4957,97.3952,0.00414302,0.425149,20.5167,102.14,0.19177,0.0,0.0
2688,671.75,84.2795,92.0307,131.813,99.6711,98.5064,0.00408849,0.419791,20.5262,100.949,0.10564,0.0,0.0
2730,682.25,83.6721,91.7367,131.614,99.899,97.8052,0.00403507,0.407672,20.5365,99.7983,0.190366,0.0,0.0
2772,692.75,83.4797,91.2416,130.211,100.086,98.8494,0.0037663,0.399349,20.5484,98.6473,0.111708,0.0,0.0
2814,703.25,82.9327,90.1515,130.916,100.208,99.1649,0.00360395,0.38129,20.568,97.6664,0.0940306,0.0,0.0
2856,713.75,82.2039,88.8825,133.008,100.296,100.162,0.00348857,0.360015,20.5869,96.8157,0.0119914,0.0,0.0
2898,724.25,81.1517,86.9397,134.633,100.257,99.9561,0.00277852,0.331814,20.6146,95.9149,0.0269753,0.0,0.0
2940,734.75,79.2754,85.0385,137.141,100.147,100.143,0.00252719,0.29594,20.6517,95.2343,0.000402828,0.0,0.0
2982,745.25,77.4864,81.3965,133.472,99.9729,101.369,0.00236223,0.252351,20.6951,94.8039,-0.124604,0.0,0.0
3024,755.75,75.0858,78.365,138.253,99.695,102.367,0.00196304,0.205852,20.7467,94.4236,-0.23769,0.0,0.0
3066,766.25,72.7722,75.1856,141.572,99.494,101.915,0.00156444,0.166992,20.8,94.1633,-0.216072,0.0,0.0
3108,776.75,70.4889,72.3033,142.17,99.7337,102.409,0.00173006,0.144847,20.8288,94.0132,-0.237878,0.0,0.0
3150,787.25,68.2248,70.0788,140.447,99.9775,102.403,0.00154301,0.128508,20.8484,93.763,-0.215408,0.0,0.0
3192,797.75,67.6533,69.446,141.42,100.115,102.96,0.00149804,0.123421,20.8602,93.6629,-0.251833,0.0,0.0
3234,808.25,66.1804,67.9639,140.447,100.09,102.63,0.00146197,0.1208,20.8616,93.4527,-0.225191,0.0,0.0
3276,818.75,65.1368,67.2626,143.419,99.86,102.08,0.00153582,0.118672,20.8637,93.3226,-0.197601,0.0,0.0
3318,829.25,63.9182,66.431,138.615,99.8403,102.131,0.0014196,0.115728,20.8671,93.2425,-0.203863,0.0,0.0
3360,839.75,63.3338,65.326,144.728,99.9632,102.458,0.00178018,0.115012,20.867,93.0223,-0.221527,0.0,0.0
3402,850.25,62.4202,64.8479,144.069,100.163,101.997,0.00173301,0.112961,20.8686,92.9823,-0.163053,0.0,0.0
3444,860.75,61.8918,64.6238,142.297,100.334,102.523,0.00167936,0.112509,20.8696,92.9122,-0.193949,0.0,0.0
3486,871.25,61.2819,64.0842,141.618,100.474,102.696,0.00156457,0.112464,20.8732,92.672,-0.196643,0.0,0.0
3528,881.75,60.8417,64.162,142.034,100.609,103.345,0.00182526,0.113042,20.8746,92.5719,-0.241133,0.0,0.0
3570,892.25,60.8957,63.5113,138.65,100.67,102.264,0.00176319,0.113365,20.8734,92.5119,-0.141238,0.0,0.0
3612,902.75,58.9631,62.1222,144.184,100.693,102.39,0.00188914,0.112959,20.8758,92.3317,-0.150225,0.0,0.0
3654,913.25,58.0563,61.4367,144.702,100.718,102.427,0.00222369,0.112772,20.878,92.3117,-0.151164,0.0,0.0
3696,923.75,57.8465,60.7775,138.299,100.702,102.8,0.00244161,0.112774,20.878,92.2116,-0.185324,0.0,0.0
3738,934.25,57.9969,60.646,140.869,100.646,102.789,0.0023487,0.114347,20.8777,92.0415,-0.189382,0.0,0.0
3780,944.75,57.59,60.7546,141.362,100.545,102.534,0.00253422,0.113185,20.8766,92.0915,-0.176027,0.0,0.0
3822,955.25,57.2134,60.3345,141.285,100.414,101.963,0.00266411,0.114457,20.8777,91.8613,-0.137531,0.0,0.0
3864,965.75,56.6117,60.0235,140.989,100.266,102.072,0.00238281,0.114408,20.8768,91.7412,-0.160465,0.0,0.0
3906,976.25,56.8627,59.8207,142.183,100.096,101.583,0.00264379,0.11609,20.8763,91.7012,-0.132591,0.0,0.0
3948,986.75,56.7279,59.3689,143.01,99.9301,101.392,0.00236142,0.114577,20.8775,91.521,-0.130529,0.0,0.0
3990,997.25,56.278,59.5384,145.042,99.7979,101.683,0.00254797,0.115307,20.8778,91.481,-0.168154,0.0,0.0
4032,1007.75,56.2896,59.3478,140.748,99.6191,101.129,0.00281448,0.115779,20.8798,91.3508,-0.135228,0.0,0.0
4055,1013.5,56.6851,59.2051,141.783,99.4974,101.325,0.0029543,0.116067,20.8799,91.2708,-0.163542,0.0,0.0