File: 01_Data/Pressure_Treated_Deck/Cone/Pressure_Treated_Deck_Cone_HF25Scan_230614_R4.csv
Names,Time,Stack TC,Smoke TC,Exh Press,Smoke Comp,Smoke Meas,CO Meter,CO2 Meter,O2 Meter,Sample Mass,Ext Coeff,Start Test,Flame Verif
Chan Gain,,500,500,1,1,1,1,1,1,1,1,1.0,1.0
Offset,,0,0,0.13972,0,0,0,0,0,0,0,0.0,0.0
Gain,,1,1,25.011,13.3261,15.6582,1,1,1,1.0009,1.01862,1.0,1.0
Units,sec,C,C,Pa,%,%,%,%,%,g,/m,,
Baseline,,18.5049,20.0119,165.231,99.736,100.259,0.000623745,0.0494177,20.9535,-443.694,-0.0466999,,
65,16,17.3231,19.7014,166.118,100.18,100.616,0.00122687,0.0586691,20.9407,208.909,-0.0388344,0.0,0.0
130,32.25,17.6143,19.3331,167.18,100.403,100.595,0.000865448,0.058443,20.9485,208.559,-0.0170754,0.0,0.0
195,48.5,18.3213,19.1027,163.55,100.429,100.543,0.000760684,0.0532317,20.9523,208.428,-0.0101675,0.0,0.0
260,64.75,17.9988,20.7173,168.016,100.165,100.414,0.000798047,0.051964,20.9564,208.198,-0.0221717,0.0,0.0
325,81,19.0055,19.9544,162.002,99.7097,99.476,0.000624672,0.0518377,20.9544,208.038,0.0209655,0.0,0.0
390,97.25,18.8393,20.9209,164.171,99.972,99.2873,0.000638859,0.0552589,20.9541,207.748,0.0614114,0.0,0.0
455,113.5,19.1811,21.0444,163.364,100.333,99.1291,0.000944413,0.0547068,20.9495,207.468,0.107839,0.0,0.0
520,129.75,19.4541,21.5212,164.544,100.146,98.9055,0.000859711,0.0514004,20.9532,207.127,0.111416,0.0,0.0
585,146,20.04,20.9836,163.255,99.3624,97.353,0.00137635,0.0519853,20.9575,206.807,0.182556,0.0,0.0
650,162.25,20.2553,22.5771,163.05,99.2213,99.3422,0.00178945,0.0535151,20.9569,206.296,-0.0108846,0.0,1.0
715,178.5,26.1272,36.0184,148.236,100.056,99.5468,0.00206737,0.249367,20.8195,204.555,0.045612,0.0,0.0
780,194.75,32.6572,43.2556,148.039,100.781,99.9773,0.00289802,0.369265,20.5892,202.583,0.0715337,0.0,0.0
845,211,35.3396,44.6902,150.626,100.955,99.66,0.00309041,0.336964,20.6226,200.771,0.115355,0.0,0.0
910,227.25,37.2933,44.1899,149.273,100.966,99.316,0.00288404,0.326797,20.6328,198.92,0.147264,0.0,0.0
975,243.5,37.8874,45.0453,151.741,100.983,99.077,0.00244158,0.312303,20.6589,197.308,0.170296,0.0,0.0
1040,259.75,38.8424,45.3825,148.602,100.965,100.059,0.00342209,0.302377,20.6646,195.567,0.0805099,0.0,0.0
1105,276,38.6664,44.1345,153.165,100.9,99.801,0.00262372,0.28336,20.6843,194.055,0.097902,0.0,0.0
1170,292.25,38.4333,43.7848,148.589,100.683,100.14,0.00279969,0.267632,20.7052,192.454,0.0483319,0.0,0.0
1235,308.5,38.5208,43.087,149.661,100.344,100.643,0.00271741,0.258202,20.719,191.063,-0.0266037,0.0,0.0
1300,324.75,38.188,42.2574,150.578,99.9118,99.25,0.00271514,0.24791,20.7309,189.651,0.0593854,0.0,0.0
1365,341,37.2733,42.4903,152.265,99.5247,99.6151,0.0029315,0.236396,20.7473,188.27,-0.00811331,0.0,0.0
1430,357.25,37.3318,41.7391,151.868,99.214,99.2792,0.00294089,0.230392,20.753,186.859,-0.00586779,0.0,0.0
1495,373.5,36.8434,41.2539,150.502,99.1936,99.6356,0.00265592,0.225412,20.7643,185.558,-0.0397256,0.0,0.0
1560,389.75,37.5249,41.3544,149.532,99.5483,100.118,0.00272963,0.225153,20.7615,184.187,-0.0509732,0.0,0.0
1625,406,36.8032,40.6833,152.514,100.063,100.314,0.00291738,0.214154,20.77,182.925,-0.0224269,0.0,0.0
1690,422.25,36.5503,40.5553,151.8,100.397,100.526,0.0031767,0.204625,20.7792,181.584,-0.01154,0.0,0.0
1755,438.5,36.6002,39.4949,151.685,100.123,100.898,0.00291664,0.202112,20.7875,180.293,-0.0688736,0.0,0.0
1820,454.75,36.7461,39.8468,152.336,99.7333,99.7059,0.00308634,0.202287,20.7873,179.002,0.00245806,0.0,0.0
1885,471,36.2611,39.7957,149.383,100.383,100.745,0.00269811,0.202474,20.7857,177.591,-0.0321234,0.0,0.0
1950,487.25,36.0629,39.8496,152.092,100.292,100.146,0.00316993,0.201947,20.7876,176.46,0.0129834,0.0,0.0
2015,503.5,36.6752,40.08,152.018,100.516,100.564,0.00261017,0.202766,20.7861,175.108,-0.00429631,0.0,0.0
2080,519.75,35.7647,39.7457,149.784,100.953,100.97,0.00273081,0.203966,20.7867,173.907,-0.00149828,0.0,0.0
2145,536,36.3069,40.1751,153.913,100.899,100.776,0.00309674,0.204095,20.7875,172.676,0.0108623,0.0,0.0
2210,552.25,36.0431,39.9075,150.473,100.857,100.637,0.00259166,0.200238,20.7904,171.545,0.0195319,0.0,0.0
2275,568.5,36.3172,39.9102,150.312,100.915,101.061,0.00249822,0.197373,20.7918,170.304,-0.0129074,0.0,0.0
2340,584.75,36.5188,39.5053,156.986,100.895,100.804,0.00292284,0.197027,20.7936,169.203,0.00800219,0.0,0.0
2405,601,36.3454,39.5483,149.944,100.575,100.809,0.00252684,0.195623,20.7955,168.062,-0.0207677,0.0,0.0
2470,617.25,36.5096,39.4199,153.6,100.152,100.319,0.00268703,0.195496,20.7962,166.981,-0.0149029,0.0,0.0
2535,633.5,36.3604,39.5329,151.478,100.429,100.452,0.00253481,0.195164,20.7931,165.87,-0.0020592,0.0,0.0
2600,649.75,36.045,39.0464,151.311,100.239,100.262,0.00268388,0.193574,20.7946,164.729,-0.00207625,0.0,0.0
2665,666,35.9293,39.4492,154.078,99.687,99.5898,0.00265271,0.193661,20.7964,163.608,0.00871518,0.0,0.0
2730,682.25,35.7408,38.9735,156.402,99.7597,99.9319,0.0024006,0.192697,20.801,162.487,-0.015407,0.0,0.0
2795,698.5,35.5995,38.3637,150.141,99.7825,99.746,0.00278356,0.193496,20.7983,161.326,0.00326839,0.0,0.0
2860,714.75,35.7044,38.3215,149.344,99.7097,99.6748,0.00292489,0.195511,20.7953,160.245,0.00312891,0.0,0.0
2925,731,36.0811,38.9865,150.946,99.8968,99.8526,0.00241844,0.197174,20.794,159.194,0.00395514,0.0,0.0
2990,747.25,36.2231,39.3093,154.418,100.368,100.386,0.00227181,0.198944,20.7952,158.033,-0.00157818,0.0,0.0
3055,763.5,36.571,39.3148,151.789,100.475,100.841,0.00250212,0.199227,20.7948,157.002,-0.032497,0.0,0.0
3120,779.75,36.9804,39.7381,155.525,100.161,100.43,0.00234949,0.201348,20.7909,155.751,-0.0239802,0.0,0.0
3185,796,36.9996,40.456,151.416,100.31,100.939,0.00257115,0.204402,20.7875,154.74,-0.0557962,0.0,0.0
3250,812.25,36.3538,40.2579,152.359,100.706,100.603,0.00248667,0.207459,20.7849,153.629,0.00920361,0.0,0.0
3315,828.5,37.1889,40.788,150.793,100.961,101.654,0.0022306,0.210034,20.7793,152.518,-0.0610449,0.0,0.0
3380,844.75,37.6263,41.1678,151.908,100.789,101.085,0.00209311,0.212855,20.7769,151.407,-0.0262004,0.0,0.0
3445,861,38.563,42.2822,145.833,100.204,100.579,0.00209939,0.22254,20.7678,150.286,-0.0334261,0.0,0.0
3510,877.25,39.3374,43.3165,145.687,99.4995,99.6242,0.00196375,0.227401,20.7633,149.095,-0.0111918,0.0,0.0
3575,893.5,39.3737,43.7854,148.277,99.1827,99.1889,0.00175588,0.230412,20.7587,147.834,-0.000557631,0.0,0.0
3640,909.75,39.8521,44.5198,147.065,99.2937,98.9198,0.00207319,0.23791,20.7504,146.613,0.0337063,0.0,0.0
3705,926,40.4908,45.0523,145.077,99.6914,99.5558,0.00207496,0.24611,20.7429,145.311,0.0121602,0.0,0.0
3770,942.25,40.9064,45.2058,146.895,100.179,100.138,0.00221347,0.25911,20.7274,143.96,0.00363041,0.0,0.0
3835,958.5,41.7201,46.8036,144.001,100.367,100.16,0.00221695,0.264666,20.7178,142.689,0.0184541,0.0,0.0
3900,974.75,42.8617,47.9044,148.473,100.38,100.004,0.0023482,0.281135,20.6991,141.168,0.0335991,0.0,0.0
3965,991,43.8445,48.9647,145.555,100.369,99.8765,0.002141,0.29406,20.6827,139.666,0.0439862,0.0,0.0
4030,1007.25,44.5722,50.4398,148.545,100.328,98.9332,0.00243436,0.306664,20.668,138.185,0.125118,0.0,0.0
4095,1023.5,45.7811,52.1055,152.105,100.116,99.0173,0.00241649,0.322011,20.6529,136.503,0.0985995,0.0,0.0
4160,1039.75,47.3245,53.6377,147.36,99.6479,98.6575,0.00301519,0.332436,20.6383,134.942,0.0892534,0.0,0.0
4225,1056,48.4063,54.709,141.681,99.227,97.5823,0.00279894,0.338488,20.6294,133.13,0.149342,0.0,0.0
4290,1072.25,48.7991,55.3851,144.307,99.1627,97.8671,0.00289646,0.343942,20.6183,131.479,0.117514,0.0,0.0
4355,1088.5,49.1769,55.8614,143.812,99.5109,97.675,0.00296288,0.351274,20.6148,129.677,0.166383,0.0,0.0
4420,1104.75,49.6577,55.678,147.354,100.148,98.7072,0.00260907,0.350162,20.6104,128.036,0.129496,0.0,0.0
4485,1121,50.4398,55.3027,144.008,100.619,98.3536,0.00233113,0.360607,20.6016,126.254,0.203517,0.0,0.0
4550,1137.25,50.9551,57.1073,146.276,100.771,98.3196,0.0026993,0.360416,20.6016,124.493,0.220024,0.0,0.0
4615,1153.5,51.4164,58.0362,145.573,100.76,98.6508,0.00312322,0.369978,20.5892,122.661,0.189007,0.0,0.0
4680,1169.75,52.0427,58.2228,142.612,100.639,98.1189,0.00340233,0.375013,20.5822,120.809,0.226556,0.0,0.0
4745,1186,52.647,58.9341,142.718,100.369,97.5173,0.0032255,0.38134,20.5727,118.958,0.257503,0.0,0.0
4810,1202.25,53.648,59.815,149.786,99.8895,97.3979,0.0037043,0.38695,20.5666,117.116,0.225704,0.0,0.0
4875,1218.5,53.039,59.6198,139.879,99.3803,96.7929,0.00396283,0.376992,20.5654,115.294,0.235715,0.0,0.0
4940,1234.75,52.8176,57.8419,143.457,99.1497,95.9098,0.00370733,0.365771,20.5806,113.563,0.296852,0.0,0.0
5005,1251,52.6282,57.551,142.938,99.4494,97.146,0.00298393,0.353944,20.5982,112.081,0.209389,0.0,0.0
5070,1267.25,50.9154,56.4124,145.595,99.996,97.383,0.00281323,0.323051,20.6278,110.66,0.23659,0.0,0.0
5135,1283.5,50.0322,53.4269,147.931,100.374,98.1175,0.00257492,0.287925,20.6625,109.419,0.20315,0.0,0.0
5200,1299.75,48.1527,50.9107,148.513,100.26,97.8155,0.00259421,0.252921,20.6979,108.388,0.220515,0.0,0.0
5265,1316,45.5468,47.0022,151.385,99.7541,98.0224,0.00282795,0.209761,20.7556,107.777,0.15647,0.0,0.0
5330,1332.25,42.759,43.135,152.49,100.353,99.9759,0.00399711,0.173068,20.7957,107.117,0.0336862,0.0,0.0
5395,1348.5,40.1944,40.0418,153.525,100.055,99.7006,0.00563501,0.141214,20.8375,106.787,0.0317377,0.0,0.0
5460,1364.75,37.5242,36.7304,156.325,100.643,100.492,0.00660511,0.121012,20.8634,106.576,0.0134184,0.0,0.0
5525,1381,35.7132,35.7853,162.216,100.907,100.768,0.00718085,0.114879,20.8764,106.246,0.0123389,0.0,0.0
5590,1397.25,34.4404,34.0552,152.482,100.268,99.8784,0.00832787,0.116624,20.8729,106.066,0.0347589,0.0,0.0
5655,1413.5,33.3043,33.479,154.958,99.5536,99.3537,0.0085265,0.110709,20.8759,105.816,0.0179555,0.0,0.0
5720,1429.75,30.851,31.0967,157.279,99.2961,99.2476,0.00716922,0.105824,20.8882,105.475,0.00436504,0.0,0.0
5785,1446,30.3233,30.7455,155.895,99.2717,99.1731,0.00850951,0.102216,20.8954,105.385,0.00888331,0.0,0.0
5850,1462.25,28.9326,29.4761,155.264,99.4621,99.7809,0.00907726,0.0987033,20.9003,105.125,-0.028599,0.0,0.0
5915,1478.5,28.8566,29.0001,153.516,99.9066,99.51,0.00804603,0.0987279,20.8995,104.855,0.0355398,0.0,0.0
5980,1494.75,27.8268,29.0172,153.839,100.533,100.644,0.00797854,0.0988103,20.9001,104.725,-0.00987154,0.0,0.0
6045,1511,28.4755,28.604,156.651,100.87,101.324,0.00728165,0.0954337,20.9032,104.444,-0.0400814,0.0,0.0
6110,1527.25,28.1794,28.8124,158.323,100.548,100.902,0.00776948,0.0974458,20.9005,104.304,-0.0314499,0.0,0.0
6175,1543.5,27.8008,28.5913,159.249,100.015,100.025,0.00719407,0.0973413,20.9029,104.034,-0.000888924,0.0,0.0