File: 01_Data/Pressure_Treated_Deck/Cone/Pressure_Treated_Deck_Cone_HF25Scan_230612_R3.csv
Names,Time,Stack TC,Smoke TC,Exh Press,Smoke Comp,Smoke Meas,CO Meter,CO2 Meter,O2 Meter,Sample Mass,Ext Coeff,Start Test,Flame Verif
Chan Gain,,500,500,1,1,1,1,1,1,1,1,1.0,1.0
Offset,,0,0,0.13972,0,0,0,0,0,0,0,0.0,0.0
Gain,,1,1,25.011,13.3261,15.6582,1,1,1,1.0009,1.01862,1.0,1.0
Units,sec,C,C,Pa,%,%,%,%,%,g,/m,,
Baseline,,27.8788,29.2306,158.925,99.7097,99.8091,0.000537837,0.0448762,20.9696,-443.973,-0.00887732,,
61,15,24.8092,26.3959,159.311,99.3173,99.6137,0.000391793,0.0531724,20.9557,198.7,-0.0266245,0.0,0.0
122,30.25,25.4548,26.8661,162.2,99.7313,99.8932,0.000193914,0.0466623,20.9644,198.459,-0.0144959,0.0,0.0
183,45.5,25.3387,26.8959,158.556,100.351,100.415,0.000435778,0.0471308,20.9654,198.139,-0.00565675,0.0,0.0
244,60.75,25.8332,27.194,157.379,100.79,101.128,0.000449859,0.0461808,20.9664,197.939,-0.0298878,0.0,0.0
305,76,25.6324,27.5489,159.171,100.704,100.57,0.000467423,0.0465106,20.9666,197.659,0.0119166,0.0,0.0
366,91.25,26.1054,27.2018,162.244,100.07,100.072,0.000938392,0.0467077,20.9678,197.509,-0.000167765,0.0,0.0
427,106.5,26.3076,27.592,161.429,100.322,99.7346,0.000802113,0.0472535,20.9669,197.178,0.0524553,0.0,0.0
488,121.75,25.7601,27.6872,160.033,99.6426,98.4186,0.00090528,0.0480594,20.9686,197.008,0.110445,0.0,0.0
549,137,26.0808,27.5249,161.635,100.279,98.6651,0.00108851,0.0488249,20.9633,196.648,0.145015,0.0,0.0
610,152.25,26.6817,27.3968,154.674,99.9972,98.2609,0.00097662,0.0494057,20.9661,196.347,0.156517,0.0,0.0
671,167.5,26.0723,27.8532,160.834,99.1526,96.8096,0.00143081,0.0504142,20.9641,196.017,0.213671,0.0,0.0
732,182.75,29.0302,35.9578,139.812,99.5499,99.6949,0.00185161,0.0823906,20.9592,194.956,-0.013005,0.0,0.0
793,198,36.3617,46.7293,140.35,100.582,100.725,0.00250734,0.340171,20.6599,193.135,-0.0127026,0.0,0.0
854,213.25,40.4665,49.7309,151.513,100.868,100.167,0.00284815,0.362402,20.591,191.423,0.0623085,0.0,0.0
915,228.5,41.8726,49.7263,148.876,100.738,99.8512,0.00326358,0.327739,20.6292,189.842,0.0790287,0.0,0.0
976,243.75,42.4774,50.1423,148.525,100.501,99.3011,0.0028799,0.299901,20.6682,188.37,0.107292,0.0,0.0
1037,259,43.0797,48.904,146.642,100.258,100.198,0.00238737,0.27966,20.6962,187.019,0.00537853,0.0,0.0
1098,274.25,42.7901,48.3258,147.072,100.015,99.0436,0.00288995,0.271246,20.7046,185.608,0.0872221,0.0,0.0
1159,289.5,43.0915,48.2735,148.916,100.181,99.778,0.00263941,0.256771,20.7192,184.407,0.0359822,0.0,0.0
1220,304.75,42.7998,47.9725,146.713,100.219,100.205,0.00255452,0.255497,20.7236,183.025,0.00126,0.0,0.0
1281,320,43.1229,48.6285,150.34,100.038,100.383,0.00204636,0.260406,20.7168,181.794,-0.0307637,0.0,0.0
1342,335.25,43.4031,47.5556,153.734,100.177,100.179,0.00219154,0.249325,20.7266,180.483,-0.000174689,0.0,0.0
1403,350.5,42.8222,46.895,151.443,100.465,101.07,0.00246068,0.23489,20.7447,179.252,-0.0536239,0.0,0.0
1464,365.75,42.3119,45.8905,153.741,100.744,101.064,0.00262086,0.219024,20.7645,178.061,-0.0283816,0.0,0.0
1525,381,41.6912,45.4089,147.992,100.892,101.207,0.00211596,0.209564,20.7782,176.82,-0.0278847,0.0,0.0
1586,396.25,41.496,44.1453,154.616,100.821,101.722,0.0026504,0.199256,20.7899,175.529,-0.0795104,0.0,0.0
1647,411.5,41.4708,44.9866,149.131,100.442,100.739,0.00252671,0.198934,20.7933,174.518,-0.0263254,0.0,0.0
1708,426.75,40.7956,44.4535,151.983,99.7386,100.225,0.00258295,0.197568,20.7943,173.417,-0.0434545,0.0,0.0
1769,442,41.1435,45.0031,150.828,99.1855,99.5391,0.00274003,0.197981,20.7923,172.196,-0.0317984,0.0,0.0
1830,457.25,39.0441,43.8085,150.982,99.2961,99.6203,0.00246226,0.196657,20.7951,171.175,-0.0291275,0.0,0.0
1891,472.5,40.1796,43.6143,148.089,99.9196,100.621,0.00242427,0.195451,20.7973,169.994,-0.0625025,0.0,0.0
1952,487.75,40.2152,43.314,152.046,100.375,100.793,0.00269652,0.194318,20.7947,168.943,-0.0370908,0.0,0.0
2013,503,40.3788,43.8142,154.094,100.027,100.653,0.0028838,0.19392,20.7973,167.832,-0.0558284,0.0,0.0
2074,518.25,39.7758,43.3503,147.29,99.7305,99.8354,0.00248788,0.191786,20.7984,166.701,-0.00939543,0.0,0.0
2135,533.5,39.7722,43.3304,149.716,100.393,100.64,0.00271703,0.190915,20.8011,165.72,-0.0219331,0.0,0.0
2196,548.75,40.0142,42.9488,155.042,100.038,100.313,0.00251325,0.190717,20.8041,164.709,-0.0244785,0.0,0.0
2257,564,39.7002,43.384,145.556,100.472,101.061,0.00257083,0.18922,20.8069,163.548,-0.0522068,0.0,0.0
2318,579.25,40.1354,43.3375,155.51,100.645,100.602,0.00228587,0.190322,20.8042,162.677,0.00387529,0.0,0.0
2379,594.5,39.6334,42.2886,153.322,100.719,101.205,0.00303395,0.191813,20.803,161.526,-0.043036,0.0,0.0
2440,609.75,39.7263,42.9402,148.503,100.582,101.267,0.00265949,0.191531,20.8026,160.465,-0.0605645,0.0,0.0
2501,625,39.7555,42.9409,149.202,100.399,101.17,0.00255674,0.190592,20.7983,159.504,-0.0683106,0.0,0.0
2562,640.25,40.1365,43.1956,157.999,100.151,100.271,0.00254819,0.192024,20.8006,158.303,-0.0107124,0.0,0.0
2623,655.5,39.3355,42.4745,151.295,99.9651,100.325,0.0027173,0.190665,20.8044,157.462,-0.0321261,0.0,0.0
2684,670.75,39.6529,42.7971,152.779,100.212,100.469,0.00228207,0.190079,20.8037,156.351,-0.0228098,0.0,0.0
2745,686,39.3007,42.3187,158.392,100.322,100.603,0.0024759,0.189025,20.8025,155.4,-0.0250377,0.0,0.0
2806,701.25,39.3592,41.794,151.65,99.8435,100.524,0.0024622,0.189153,20.8057,154.38,-0.0607307,0.0,0.0
2867,716.5,39.124,42.0421,150.817,99.8248,99.9749,0.00293037,0.192322,20.8024,153.369,-0.0134253,0.0,0.0
2928,731.75,38.9605,42.3232,147.106,100.285,101.783,0.00259222,0.191613,20.8002,152.438,-0.132475,0.0,0.0
2989,747,39.0768,42.523,149.005,100.197,100.512,0.00275316,0.192518,20.8012,151.437,-0.0280124,0.0,0.0
3050,762.25,39.1331,42.6055,155.134,99.5572,99.8674,0.00292234,0.195744,20.7993,150.416,-0.0277955,0.0,0.0
3111,777.5,39.6296,42.8036,150.216,99.1001,99.4474,0.00244983,0.197153,20.7988,149.365,-0.0312554,0.0,0.0
3172,792.75,40.1461,43.44,148.51,99.447,99.9768,0.00257573,0.200565,20.7911,148.344,-0.0474773,0.0,0.0
3233,808,40.1868,43.3957,152.833,100.113,100.26,0.00237173,0.204446,20.7873,147.253,-0.0131506,0.0,0.0
3294,823.25,40.4793,43.6495,148.248,100.497,100.77,0.00193744,0.212084,20.7811,146.312,-0.0242339,0.0,0.0
3355,838.5,40.8014,44.265,151.084,100.597,100.977,0.00202627,0.22058,20.7698,145.121,-0.033719,0.0,0.0
3416,853.75,41.3234,45.5996,152.475,100.593,100.826,0.0022326,0.232209,20.7608,144.1,-0.0206726,0.0,0.0
3477,869,42.1131,46.5203,150.075,100.432,100.812,0.00213118,0.240016,20.7494,142.919,-0.0337906,0.0,0.0
3538,884.25,42.8888,46.9103,153.803,100.217,100.345,0.00171632,0.250486,20.7375,141.688,-0.0113619,0.0,0.0
3599,899.5,43.3586,47.5437,151.076,99.9362,100.26,0.00188488,0.261348,20.7254,140.477,-0.0288747,0.0,0.0
3660,914.75,44.3391,49.8452,144.469,99.7825,99.8058,0.00223265,0.27916,20.7077,139.136,-0.00208051,0.0,0.0
3721,930,45.6093,51.1486,146.415,99.6951,99.422,0.00206016,0.292596,20.6905,137.735,0.0245046,0.0,0.0
3782,945.25,46.6544,53.0383,144.875,99.4543,99.2973,0.00209937,0.303322,20.6775,136.223,0.0141172,0.0,0.0
3843,960.5,47.5017,53.8778,143.633,99.1758,98.172,0.00203479,0.318706,20.6571,134.732,0.0908953,0.0,0.0
3904,975.75,49.0879,55.2967,143.322,99.1656,98.4668,0.0023182,0.331868,20.6409,133.05,0.0631842,0.0,0.0
3965,991,50.4968,56.674,141.606,99.58,98.408,0.00268214,0.349224,20.6184,131.439,0.105781,0.0,0.0
4026,1006.25,51.5131,58.3681,141.399,100.131,97.7797,0.00303046,0.363472,20.6007,129.547,0.212293,0.0,0.0
4087,1021.5,52.7895,59.6182,142.126,100.365,97.3654,0.00287043,0.376457,20.586,127.836,0.271111,0.0,0.0
4148,1036.75,53.9497,61.5454,138.889,100.107,97.2187,0.00352478,0.392863,20.5661,125.924,0.261563,0.0,0.0
4209,1052,54.5105,62.5456,140.777,99.641,96.7623,0.003441,0.403835,20.5553,124.092,0.261945,0.0,0.0
4270,1067.25,55.9687,63.1116,143.662,100.297,96.5191,0.00427954,0.406083,20.5424,122.15,0.343101,0.0,0.0
4331,1082.5,56.6872,63.5509,140.481,100.093,96.7026,0.00392831,0.412958,20.5368,120.209,0.307924,0.0,0.0
4392,1097.75,56.965,64.7136,141.609,100.451,96.7762,0.00378931,0.412686,20.5373,118.217,0.333017,0.0,0.0
4453,1113,58.3666,65.8024,142.025,100.887,96.878,0.00394565,0.422213,20.5264,116.235,0.362356,0.0,0.0
4514,1128.25,59.15,65.88,142.061,100.484,96.5048,0.00469783,0.426475,20.5169,114.343,0.361007,0.0,0.0
4575,1143.5,59.4168,66.2562,138.114,99.569,94.4089,0.00461001,0.427245,20.5091,112.231,0.475493,0.0,0.0
4636,1158.75,59.6429,66.6548,141.991,99.1688,92.713,0.0047545,0.427006,20.5074,110.51,0.601476,0.0,0.0
4697,1174,58.8904,64.4382,144.337,99.5206,94.1714,0.00443805,0.396304,20.5298,108.828,0.493655,0.0,0.0
4758,1189.25,56.6963,60.8423,143.914,99.9053,94.1036,0.00388527,0.342152,20.5924,107.557,0.53457,0.0,0.0
4819,1204.5,53.7766,57.072,144.282,100.043,94.8452,0.00323432,0.280033,20.6573,106.546,0.476713,0.0,0.0
4880,1219.75,51.2117,52.5314,148.61,100.027,98.9375,0.00266305,0.223136,20.7197,105.886,0.0978146,0.0,0.0
4941,1235,47.9199,46.963,152.65,99.9114,99.8698,0.00380254,0.166061,20.7938,105.435,0.00372517,0.0,0.0
5002,1250.25,44.2017,43.4823,153.934,99.6377,99.7742,0.00506551,0.133669,20.843,105.055,-0.0122301,0.0,0.0
5063,1265.5,41.3161,40.7145,152.772,99.2075,99.9534,0.00726981,0.118866,20.8678,104.835,-0.066932,0.0,0.0
5124,1280.75,39.3661,38.7994,151.632,99.1615,99.6806,0.00806481,0.112093,20.8772,104.524,-0.0466479,0.0,0.0
5185,1296,37.7934,37.5997,154.44,99.9871,100.245,0.00763058,0.10724,20.8821,104.384,-0.02301,0.0,0.0
5246,1311.25,36.4648,35.9356,154.466,100.742,100.938,0.00766636,0.105928,20.8881,103.994,-0.0174015,0.0,0.0
5307,1326.5,33.6671,33.6927,157.102,100.526,100.972,0.00739566,0.104733,20.891,103.974,-0.0395411,0.0,0.0
5368,1341.75,32.979,33.1883,156.287,100.107,100.41,0.0078046,0.101705,20.8942,103.624,-0.0270204,0.0,0.0
5429,1357,32.0784,31.994,157.997,99.9265,100.171,0.00726453,0.100778,20.8949,103.474,-0.0218653,0.0,0.0
5490,1372.25,31.0476,31.7067,156.133,99.9436,100.339,0.00766821,0.0982467,20.8987,103.383,-0.0352866,0.0,0.0
5551,1387.5,30.6006,31.3745,154.604,100.273,100.542,0.00763222,0.0975599,20.9012,103.223,-0.023945,0.0,0.0
5612,1402.75,30.5439,30.7355,164.54,99.5104,99.7623,0.00693736,0.0966456,20.9027,103.063,-0.0225834,0.0,0.0
5673,1418,30.0342,30.4614,156.209,99.1363,99.4999,0.00691268,0.0961532,20.9036,102.873,-0.0327146,0.0,0.0
5734,1433.25,29.9185,29.9819,156.145,100.015,100.011,0.00668153,0.0962286,20.9023,102.663,0.000391972,0.0,0.0