File: 01_Data/Overstuffed_Chair_Assembly/Cone/Overstuffed_Chair_Assembly_HRRPUA_75.csv
Time after Ignition,Overstuffed_Chair_Assembly_R1,Overstuffed_Chair_Assembly_R2,Overstuffed_Chair_Assembly_R3,Mean,Std. Dev.
0.0,13.5,23.5,14.6,17.2,5.5
0.5,19.9,36.9,32.2,29.7,8.8
1.0,28.5,54.2,46.9,43.2,13.2
1.5,36.2,65.1,70.6,57.3,18.5
2.0,52.5,85.5,90.7,76.3,20.7
2.5,65.6,97.4,111.3,91.4,23.4
3.0,82.6,109.9,128.6,107.0,23.2
3.5,96.7,121.5,143.0,120.4,23.2
4.0,107.8,134.5,162.0,134.8,27.1
4.5,125.2,142.1,175.2,147.5,25.4
5.0,135.6,148.9,183.3,155.9,24.6
5.5,144.2,157.0,200.6,167.3,29.5
6.0,155.6,161.1,202.4,173.0,25.6
6.5,165.1,163.4,212.2,180.2,27.7
7.0,173.6,166.7,218.0,186.1,27.9
7.5,178.3,174.2,227.3,193.3,29.5
8.0,183.6,176.9,227.4,195.9,27.4
8.5,191.0,184.7,236.8,204.2,28.4
9.0,190.1,187.6,239.3,205.7,29.2
9.5,192.7,191.7,240.5,208.3,27.9
10.0,194.4,194.7,238.4,209.2,25.3
10.5,198.2,199.1,242.2,213.2,25.2
11.0,199.6,198.0,241.5,213.0,24.6
11.5,202.7,203.9,239.7,215.4,21.1
12.0,200.0,208.3,247.4,218.6,25.3
12.5,202.5,207.6,240.9,217.0,20.8
13.0,197.7,213.8,240.0,217.2,21.3
13.5,199.3,217.8,240.0,219.0,20.3
14.0,201.2,216.2,247.5,221.6,23.6
14.5,203.8,212.3,248.9,221.7,24.0
15.0,203.8,220.9,257.9,227.5,27.6
15.5,202.9,222.2,270.6,231.9,34.8
16.0,211.9,225.0,280.2,239.1,36.3
16.5,209.0,232.8,295.3,245.7,44.6
17.0,215.5,238.6,314.6,256.2,51.8
17.5,217.5,249.1,315.5,260.7,50.0
18.0,221.6,253.5,337.0,270.7,59.6
18.5,221.6,260.9,349.8,277.4,65.7
19.0,220.7,285.3,360.2,288.7,69.8
19.5,230.1,299.5,370.9,300.2,70.4
20.0,233.6,335.4,406.0,325.0,86.7
20.5,240.5,354.3,416.3,337.0,89.2
21.0,249.2,398.9,456.6,368.2,107.0
21.5,258.9,432.4,483.5,391.6,117.7
22.0,276.9,447.7,495.0,406.6,114.7
22.5,285.9,475.6,537.3,432.9,131.0
23.0,300.3,508.8,567.8,459.0,140.5
23.5,316.7,566.5,596.9,493.4,153.8
24.0,348.3,575.0,693.7,539.0,175.5
24.5,383.2,604.5,658.9,548.9,146.0
25.0,391.6,590.5,687.4,556.5,150.8
25.5,418.9,666.9,701.2,595.7,154.0
26.0,448.1,753.4,739.2,646.9,172.3
26.5,449.5,704.2,796.7,650.1,179.8
27.0,470.5,709.0,790.0,656.5,166.1
27.5,470.0,792.0,842.6,701.5,202.1
28.0,503.2,779.4,846.9,709.9,182.1
28.5,531.9,827.4,847.3,735.6,176.6
29.0,546.1,847.5,849.9,747.8,174.7
29.5,576.1,852.2,874.2,767.5,166.1
30.0,557.7,912.1,930.4,800.1,210.1
30.5,659.4,1032.2,983.0,891.5,202.6
31.0,712.2,983.5,1028.9,908.2,171.2
31.5,734.4,1011.6,946.6,897.6,145.0
32.0,798.0,1067.3,979.7,948.3,137.4
32.5,831.0,1013.3,1017.4,953.9,106.4
33.0,819.9,1020.7,962.6,934.4,103.4
33.5,833.9,993.4,983.5,937.0,89.4
34.0,850.8,1145.8,1034.2,1010.3,149.0
34.5,846.7,1083.7,1064.0,998.1,131.5
35.0,867.2,1090.4,1068.5,1008.7,123.0
35.5,943.0,1138.0,1011.2,1030.7,99.0
36.0,971.5,1124.8,1023.3,1039.8,78.0
36.5,945.1,1078.0,1009.1,1010.7,66.4
37.0,964.0,1130.8,1081.0,1058.6,85.6
37.5,1042.5,1123.8,1022.3,1062.9,53.7
38.0,1039.7,1170.9,1087.4,1099.3,66.4
38.5,1008.6,1106.7,955.4,1023.6,76.8
39.0,990.0,1125.4,1017.9,1044.4,71.5
39.5,1081.2,1178.3,1044.3,1101.2,69.2
40.0,1001.9,1132.4,936.6,1023.7,99.7
40.5,1122.5,1143.7,1032.2,1099.5,59.2
41.0,1058.8,1086.6,971.2,1038.9,60.2
41.5,1066.5,1079.3,961.5,1035.8,64.7
42.0,1077.5,1162.3,951.2,1063.6,106.2
42.5,1073.8,1121.3,994.6,1063.2,64.0
43.0,1085.0,1033.3,961.5,1026.6,62.0
43.5,1073.3,986.3,919.8,993.1,77.0
44.0,1040.3,1072.7,969.8,1027.6,52.6
44.5,1001.1,1052.3,920.0,991.1,66.7
45.0,975.5,953.2,914.3,947.6,31.0
45.5,1114.1,968.1,915.9,999.4,102.7
46.0,1019.4,967.6,912.5,966.5,53.5
46.5,1009.8,985.7,876.8,957.4,70.9
47.0,964.8,894.0,895.9,918.2,40.3
47.5,1010.0,896.1,853.9,920.0,80.8
48.0,944.5,861.0,832.8,879.4,58.1
48.5,914.1,852.1,804.2,856.8,55.1
49.0,910.4,861.6,789.0,853.7,61.1
49.5,924.2,741.7,746.4,804.1,104.0
50.0,908.1,761.7,733.5,801.1,93.7
50.5,925.0,733.6,687.0,781.8,126.1
51.0,856.9,697.5,676.4,743.6,98.7
51.5,860.9,673.2,654.2,729.4,114.3
52.0,860.9,642.4,615.7,706.3,134.5
52.5,790.0,612.0,588.9,663.6,110.0
53.0,821.2,578.1,583.5,660.9,138.8
53.5,775.4,553.1,542.1,623.5,131.6
54.0,785.0,517.3,528.8,610.4,151.3
54.5,742.4,508.4,500.1,583.6,137.6
55.0,716.7,489.1,486.8,564.2,132.1
55.5,695.3,468.5,468.8,544.2,130.9
56.0,664.4,427.8,451.3,514.5,130.4
56.5,662.2,399.9,430.5,497.5,143.4
57.0,602.5,363.8,411.7,459.3,126.3
57.5,618.5,336.9,391.5,449.0,149.3
58.0,575.1,312.7,364.7,417.5,138.9
58.5,538.7,285.2,342.9,388.9,132.9
59.0,527.4,265.7,318.4,370.5,138.4
59.5,507.1,235.5,297.0,346.5,142.4
60.0,455.9,211.8,273.5,313.7,126.9
60.5,435.4,196.0,247.7,293.0,126.0
61.0,409.6,175.6,229.1,271.4,122.6
61.5,373.4,159.1,210.4,247.7,111.9
62.0,349.3,148.1,194.2,230.5,105.4
62.5,318.4,131.2,177.2,209.0,97.6
63.0,295.3,,162.6,228.9,93.9
63.5,271.1,,153.0,212.0,83.5
64.0,257.0,,136.8,196.9,85.0
64.5,236.8,,126.6,181.7,77.9
65.0,217.4,,118.5,168.0,69.9
65.5,199.7,,108.8,154.3,64.3
66.0,180.9,,,180.9,
66.5,170.6,,,170.6,
67.0,155.8,,,155.8,
67.5,144.2,,,144.2,
68.0,135.8,,,135.8,
68.5,125.7,,,125.7,
69.0,121.2,,,121.2,
69.5,112.9,,,112.9,
70.0,107.9,,,107.9,
70.5,102.6,,,102.6,
71.0,99.6,,,99.6,
71.5,93.2,,,93.2,
72.0,88.0,,,88.0,
72.5,83.4,,,83.4,
73.0,80.3,,,80.3,
73.5,77.5,,,77.5,
74.0,72.3,,,72.3,
74.5,69.8,,,69.8,
75.0,67.2,,,67.2,
75.5,64.6,,,64.6,
75.75,64.0,,,64.0,