File: 01_Data/Overstuffed_Chair_Assembly/Cone/Overstuffed_Chair_Assembly_HRRPUA_25.csv
Time after Ignition,Overstuffed_Chair_Assembly_R1,Overstuffed_Chair_Assembly_R2,Overstuffed_Chair_Assembly_R3,Mean,Std. Dev.
0.0,30.3,137.5,66.9,78.3,54.5
0.75,38.7,140.3,75.5,84.8,51.4
1.5,49.1,143.0,83.8,92.0,47.5
2.25,60.3,144.5,92.2,99.0,42.5
3.0,69.9,141.8,98.9,103.5,36.2
3.75,77.2,147.1,108.9,111.1,35.0
4.5,88.1,149.6,111.4,116.4,31.1
5.25,97.7,152.1,115.9,121.9,27.7
6.0,107.8,156.4,116.4,126.9,25.9
6.75,116.7,155.7,122.8,131.7,21.0
7.5,126.1,155.2,124.4,135.2,17.3
8.25,131.8,157.8,129.6,139.7,15.7
9.0,140.2,160.9,136.8,146.0,13.1
9.75,146.9,159.5,143.3,149.9,8.5
10.5,150.9,161.8,152.8,155.1,5.8
11.25,156.4,165.4,150.5,157.4,7.5
12.0,165.4,167.5,162.0,165.0,2.8
12.75,171.1,164.7,158.7,164.8,6.2
13.5,173.1,165.0,162.8,167.0,5.4
14.25,187.0,166.7,166.6,173.4,11.7
15.0,195.4,167.4,165.2,176.0,16.9
15.75,200.8,168.3,164.8,178.0,19.9
16.5,201.4,173.0,163.0,179.1,19.9
17.25,211.6,169.7,161.7,181.0,26.8
18.0,219.8,172.1,161.3,184.4,31.1
18.75,218.7,178.1,161.3,186.0,29.5
19.5,221.5,183.5,161.9,189.0,30.1
20.25,230.1,192.3,159.6,194.0,35.3
21.0,234.2,196.7,168.2,199.7,33.1
21.75,243.3,204.5,164.6,204.1,39.4
22.5,245.3,208.8,173.2,209.1,36.0
23.25,256.4,221.2,173.1,216.9,41.8
24.0,259.7,225.0,173.4,219.4,43.5
24.75,265.7,227.2,175.3,222.7,45.4
25.5,266.3,234.6,175.1,225.4,46.3
26.25,268.0,240.4,177.4,228.6,46.4
27.0,268.5,242.0,180.0,230.1,45.4
27.75,268.4,241.9,181.3,230.5,44.6
28.5,267.8,249.9,192.4,236.7,39.4
29.25,264.5,259.7,198.6,240.9,36.7
30.0,264.6,258.8,203.9,242.5,33.5
30.75,275.0,279.5,212.6,255.7,37.4
31.5,277.5,275.7,211.8,255.0,37.4
32.25,273.0,280.7,218.9,257.5,33.7
33.0,274.4,284.7,220.2,259.8,34.6
33.75,274.3,284.8,227.8,262.3,30.3
34.5,269.2,287.9,224.9,260.7,32.3
35.25,263.1,306.7,221.4,263.7,42.7
36.0,269.9,295.9,227.1,264.3,34.8
36.75,262.8,303.2,229.9,265.3,36.7
37.5,266.2,306.9,233.7,268.9,36.7
38.25,259.1,312.2,236.3,269.2,38.9
39.0,266.7,326.6,227.3,273.5,50.0
39.75,262.5,327.3,237.5,275.8,46.3
40.5,262.5,340.4,234.9,279.3,54.7
41.25,260.0,336.7,239.0,278.6,51.4
42.0,259.4,347.9,231.9,279.7,60.6
42.75,260.0,339.0,242.7,280.5,51.4
43.5,258.3,335.2,256.7,283.4,44.8
44.25,262.7,337.2,270.7,290.2,40.9
45.0,271.8,340.7,263.8,292.1,42.3
45.75,272.9,347.0,265.8,295.2,45.0
46.5,264.2,342.2,271.4,292.6,43.1
47.25,276.6,335.9,275.0,295.8,34.7
48.0,272.6,346.2,279.1,299.3,40.8
48.75,283.0,355.0,277.8,305.3,43.1
49.5,276.5,352.1,278.9,302.5,42.9
50.25,275.6,353.5,282.8,304.0,43.0
51.0,280.7,355.8,286.4,307.6,41.8
51.75,282.7,352.8,287.6,307.7,39.2
52.5,276.9,362.8,287.6,309.1,46.8
53.25,281.6,361.3,280.4,307.8,46.4
54.0,281.0,362.3,289.0,310.8,44.8
54.75,282.4,358.7,290.8,310.6,41.8
55.5,275.8,365.3,289.3,310.1,48.2
56.25,285.2,353.7,290.9,309.9,38.0
57.0,281.9,364.4,303.3,316.5,42.8
57.75,283.0,361.0,295.3,313.1,42.0
58.5,283.2,363.5,295.7,314.1,43.2
59.25,288.7,361.1,297.4,315.7,39.5
60.0,288.5,362.1,294.4,315.0,40.9
60.75,292.7,359.6,294.8,315.7,38.0
61.5,286.8,367.5,283.6,312.6,47.5
62.25,296.7,364.8,291.3,317.6,40.9
63.0,298.2,362.2,290.5,317.0,39.4
63.75,290.5,355.7,293.9,313.4,36.7
64.5,299.7,374.0,288.4,320.7,46.5
65.25,289.2,356.1,291.1,312.1,38.1
66.0,296.7,359.4,292.2,316.1,37.6
66.75,297.0,360.2,295.9,317.7,36.8
67.5,305.2,358.8,287.3,317.1,37.2
68.25,305.7,365.3,304.4,325.1,34.8
69.0,307.0,355.1,298.1,320.1,30.7
69.75,312.1,352.6,301.0,321.9,27.2
70.5,313.7,359.2,303.5,325.5,29.6
71.25,313.1,357.1,307.2,325.8,27.2
72.0,308.2,347.5,303.9,319.8,24.0
72.75,310.8,355.1,301.6,322.5,28.6
73.5,310.8,349.6,306.6,322.3,23.7
74.25,308.9,341.5,296.4,315.6,23.3
75.0,305.8,344.1,306.6,318.8,21.9
75.75,299.8,341.6,306.6,316.0,22.4
76.5,309.7,336.2,300.0,315.3,18.7
77.25,306.7,335.7,303.3,315.3,17.8
78.0,315.5,333.7,295.6,314.9,19.0
78.75,313.7,341.7,296.5,317.3,22.8
79.5,308.8,332.6,293.2,311.5,19.8
80.25,310.4,326.4,286.3,307.7,20.2
81.0,305.2,322.2,285.9,304.4,18.1
81.75,308.0,311.4,284.1,301.1,14.9
82.5,305.3,309.9,285.9,300.4,12.8
83.25,301.2,293.5,281.1,291.9,10.1
84.0,299.1,296.2,283.8,293.1,8.1
84.75,305.9,294.0,288.1,296.0,9.0
85.5,300.2,292.2,280.4,290.9,9.9
86.25,326.2,291.3,281.4,299.6,23.5
87.0,327.2,284.4,276.7,296.1,27.2
87.75,327.7,285.7,281.5,298.3,25.6
88.5,331.1,284.6,273.5,296.4,30.6
89.25,318.6,283.3,268.8,290.2,25.6
90.0,329.6,285.9,268.0,294.5,31.7
90.75,316.8,280.1,269.9,288.9,24.7
91.5,303.8,280.9,264.7,283.1,19.7
92.25,296.7,282.0,267.2,282.0,14.8
93.0,291.8,276.3,266.9,278.3,12.6
93.75,291.0,275.4,269.4,278.6,11.1
94.5,288.1,264.6,264.9,272.5,13.5
95.25,282.6,262.0,264.6,269.7,11.2
96.0,284.7,257.6,268.2,270.2,13.6
96.75,284.5,259.6,255.7,266.6,15.6
97.5,276.1,259.8,268.0,268.0,8.2
98.25,282.0,257.4,264.9,268.1,12.6
99.0,283.3,258.9,262.2,268.1,13.3
99.75,278.3,258.4,266.2,267.6,10.0
100.5,275.1,264.4,265.3,268.2,5.9
101.25,269.6,261.0,272.8,267.8,6.1
102.0,268.8,266.6,271.2,268.9,2.3
102.75,255.4,275.1,265.9,265.5,9.9
103.5,261.5,280.7,274.3,272.2,9.8
104.25,257.8,290.2,281.9,276.7,16.9
105.0,255.9,294.1,272.7,274.2,19.2
105.75,253.1,294.6,268.7,272.1,20.9
106.5,246.0,303.6,262.0,270.6,29.7
107.25,246.2,296.5,260.0,267.5,26.0
108.0,241.5,298.9,249.9,263.5,31.0
108.75,235.7,310.8,244.5,263.7,41.1
109.5,243.4,311.8,238.0,264.4,41.1
110.25,235.2,303.1,236.6,258.3,38.8
111.0,235.6,304.0,228.5,256.0,41.7
111.75,241.9,286.9,233.1,254.0,28.9
112.5,236.6,285.8,235.6,252.7,28.7
113.25,239.3,260.7,230.5,243.5,15.5
114.0,236.7,249.0,237.8,241.2,6.8
114.75,238.8,231.9,232.7,234.5,3.8
115.5,243.8,219.7,229.1,230.9,12.2
116.25,242.2,207.8,232.3,227.4,17.7
117.0,234.3,195.1,230.4,219.9,21.6
117.75,231.0,185.1,234.2,216.8,27.4
118.5,228.3,174.0,229.1,210.5,31.6
119.25,221.4,162.2,228.5,204.0,36.4
120.0,215.3,151.1,228.4,198.3,41.4
120.75,220.9,142.8,224.1,196.0,46.0
121.5,214.1,130.5,228.7,191.1,53.0
122.25,209.6,118.6,224.3,184.2,57.3
123.0,209.6,110.8,220.5,180.3,60.4
123.75,204.3,101.5,216.8,174.2,63.3
124.5,197.4,94.6,222.8,171.6,67.9
125.25,194.7,86.7,218.0,166.5,70.1
126.0,189.6,80.0,220.6,163.4,73.8
126.75,184.2,75.1,220.2,159.8,75.5
127.5,181.2,70.6,210.3,154.0,73.8
128.25,178.2,64.9,208.8,150.6,75.8
129.0,170.6,61.0,205.2,145.6,75.2
129.75,164.5,56.2,197.7,139.5,74.0
130.5,163.6,52.5,195.0,137.0,74.9
131.25,158.6,49.6,193.5,133.9,75.0
132.0,157.8,47.6,193.3,132.9,76.0
132.75,156.6,45.7,191.2,131.2,76.0
133.5,152.6,43.8,182.7,126.3,73.1
134.25,151.5,41.3,179.6,124.1,73.1
135.0,148.6,38.7,175.7,121.0,72.6
135.75,148.3,36.7,172.3,119.1,72.4
136.5,149.1,33.4,165.3,116.0,71.9
137.25,146.6,31.4,164.0,114.0,72.1
138.0,144.2,28.8,158.3,110.4,71.0
138.75,144.0,27.7,154.8,108.8,70.5
139.5,147.0,25.3,151.0,107.8,71.4
140.25,144.0,23.9,147.7,105.2,70.4
141.0,145.7,22.3,145.3,104.4,71.1
141.75,150.4,21.5,138.8,103.6,71.3
142.5,145.2,20.1,133.8,99.7,69.2
143.25,144.7,18.6,129.5,97.6,68.8
144.0,142.8,17.6,124.3,94.9,67.6
144.75,141.6,16.3,124.0,94.0,67.9
145.5,134.0,15.6,117.6,89.1,64.2
146.25,129.9,15.0,115.6,86.8,62.6
147.0,127.3,14.3,113.8,85.1,61.7
147.75,121.1,13.6,109.0,81.2,58.9
148.5,120.3,12.8,107.4,80.2,58.7
149.25,116.4,11.8,103.2,77.1,57.0
150.0,114.2,11.0,100.1,75.1,56.0
150.75,110.8,10.1,95.2,72.0,54.2
151.5,106.9,9.9,92.6,69.8,52.3
152.25,102.6,9.5,88.7,66.9,50.2
153.0,97.4,9.1,85.4,64.0,47.9
153.75,92.5,8.4,82.7,61.2,46.0
154.5,87.1,8.4,78.1,57.9,43.1
155.25,84.1,8.1,76.0,56.1,41.7
156.0,79.4,7.7,69.4,52.2,38.9
156.75,76.2,7.3,66.5,50.0,37.3
157.5,73.8,7.3,62.3,47.8,35.6
158.25,70.9,6.6,57.8,45.1,34.0
159.0,68.6,6.1,54.3,43.0,32.8
159.75,65.1,5.8,51.6,40.8,31.1
160.5,61.6,5.5,47.6,38.2,29.2
161.25,60.0,5.2,43.5,36.3,28.1
162.0,58.2,5.0,40.1,34.4,27.0
162.75,55.4,5.0,36.4,32.3,25.5
163.5,53.7,4.8,32.6,30.4,24.5
164.25,51.9,4.8,29.6,28.8,23.6
165.0,50.1,4.8,26.9,27.2,22.6
165.75,48.9,4.8,25.0,26.2,22.1
166.5,46.6,4.7,23.4,24.9,21.0
167.25,45.0,4.6,21.1,23.6,20.3
168.0,43.0,,20.0,31.5,16.3
168.75,41.1,,,41.1,
169.5,40.6,,,40.6,
170.25,39.5,,,39.5,
171.0,38.0,,,38.0,
171.75,37.3,,,37.3,
172.5,35.9,,,35.9,
173.25,34.0,,,34.0,
174.0,32.0,,,32.0,
174.75,30.1,,,30.1,
175.5,27.9,,,27.9,
176.25,26.4,,,26.4,
177.0,24.9,,,24.9,
177.75,24.3,,,24.3,
178.5,22.6,,,22.6,
179.25,21.5,,,21.5,
180.0,20.6,,,20.6,
180.75,20.2,,,20.2,
181.5,19.6,,,19.6,
182.25,19.4,,,19.4,
183.0,19.0,,,19.0,
183.75,19.1,,,19.1,
184.5,18.9,,,18.9,
185.25,18.8,,,18.8,
186.0,18.7,,,18.7,
186.75,18.8,,,18.8,
187.5,18.3,,,18.3,
188.25,17.2,,,17.2,
189.0,16.6,,,16.6,
189.75,16.3,,,16.3,
190.5,15.6,,,15.6,
191.25,14.9,,,14.9,
192.0,14.4,,,14.4,