File: 01_Data/Overstuffed_Chair_Assembly/Cone/Overstuffed_Chair_Assembly_HRRPUA_50.csv
Time after Ignition,Overstuffed_Chair_Assembly_R1,Overstuffed_Chair_Assembly_R2,Overstuffed_Chair_Assembly_R3,Mean,Std. Dev.
0.0,42.6,46.0,24.7,37.8,11.4
0.5,42.8,57.2,31.0,43.7,13.2
1.0,44.1,66.1,41.7,50.6,13.5
1.5,45.2,83.1,55.9,61.4,19.6
2.0,45.6,97.1,69.0,70.6,25.8
2.5,48.0,113.8,83.2,81.7,32.9
3.0,49.8,126.0,96.5,90.8,38.4
3.5,55.8,139.8,108.7,101.4,42.5
4.0,61.7,146.4,119.1,109.0,43.2
4.5,72.2,155.6,129.6,119.1,42.7
5.0,81.4,163.4,135.6,126.8,41.7
5.5,92.7,169.1,147.7,136.5,39.4
6.0,104.0,171.4,151.4,142.3,34.7
6.5,111.0,176.6,161.1,149.6,34.3
7.0,118.2,184.1,168.1,156.8,34.4
7.5,131.2,183.0,175.6,163.3,28.0
8.0,145.1,183.9,182.0,170.3,21.9
8.5,148.7,189.0,192.8,176.8,24.4
9.0,163.5,192.0,190.7,182.1,16.1
9.5,166.7,194.6,197.0,186.1,16.9
10.0,173.3,192.9,193.8,186.7,11.6
10.5,183.5,197.1,195.7,192.1,7.5
11.0,192.1,195.9,199.3,195.8,3.6
11.5,192.4,203.4,199.2,198.3,5.6
12.0,200.2,202.9,199.9,201.0,1.6
12.5,199.6,201.9,198.2,199.9,1.9
13.0,207.2,204.9,202.0,204.7,2.6
13.5,210.9,204.4,192.6,202.6,9.3
14.0,208.1,203.1,198.0,203.1,5.1
14.5,203.9,205.2,196.6,201.9,4.6
15.0,213.8,210.6,191.0,205.1,12.4
15.5,217.2,203.4,194.1,204.9,11.6
16.0,211.9,207.1,196.7,205.3,7.8
16.5,210.0,203.7,195.5,203.1,7.3
17.0,214.3,207.8,194.0,205.3,10.4
17.5,209.6,214.9,190.2,204.9,13.0
18.0,212.0,213.7,191.6,205.8,12.3
18.5,209.7,214.0,194.2,206.0,10.4
19.0,212.0,219.9,190.5,207.5,15.2
19.5,212.7,218.7,193.1,208.2,13.4
20.0,210.5,215.3,192.9,206.2,11.8
20.5,203.3,216.8,193.3,204.5,11.8
21.0,208.5,226.2,194.9,209.8,15.7
21.5,205.7,217.0,194.5,205.7,11.2
22.0,206.9,220.6,194.8,207.4,12.9
22.5,208.2,215.0,198.2,207.1,8.4
23.0,208.4,216.8,202.6,209.3,7.1
23.5,208.7,216.4,200.6,208.6,7.9
24.0,211.0,218.1,206.6,211.9,5.8
24.5,212.2,216.0,209.4,212.5,3.3
25.0,216.7,224.4,213.0,218.0,5.8
25.5,214.1,222.6,220.1,219.0,4.4
26.0,218.7,228.7,220.3,222.6,5.4
26.5,217.7,226.0,232.7,225.5,7.5
27.0,216.7,234.6,232.7,228.0,9.8
27.5,217.9,239.6,252.7,236.7,17.6
28.0,216.4,248.6,260.3,241.8,22.7
28.5,218.7,257.2,263.0,246.3,24.1
29.0,224.3,275.5,281.5,260.4,31.5
29.5,232.8,289.4,311.7,278.0,40.7
30.0,233.4,299.7,319.6,284.2,45.1
30.5,242.7,324.1,342.3,303.0,53.0
31.0,249.1,335.9,341.8,308.9,51.9
31.5,256.1,362.7,371.0,329.9,64.1
32.0,274.0,363.1,387.3,341.5,59.7
32.5,288.0,386.1,419.4,364.5,68.3
33.0,290.4,394.7,425.9,370.3,70.9
33.5,300.8,414.7,445.6,387.1,76.3
34.0,307.7,424.3,455.5,395.8,77.9
34.5,322.8,447.4,475.1,415.1,81.1
35.0,327.2,452.1,496.2,425.2,87.7
35.5,354.4,471.8,520.3,448.9,85.3
36.0,363.6,465.4,536.2,455.1,86.8
36.5,381.8,489.4,551.0,474.1,85.6
37.0,392.3,501.1,575.7,489.7,92.2
37.5,425.4,506.1,588.7,506.8,81.7
38.0,448.0,558.2,634.1,546.8,93.6
38.5,453.7,529.3,596.7,526.6,71.5
39.0,497.8,560.7,684.4,580.9,94.9
39.5,502.2,572.1,687.9,587.4,93.8
40.0,491.9,570.9,654.9,572.6,81.5
40.5,513.8,611.0,677.2,600.7,82.2
41.0,547.7,585.7,721.8,618.4,91.5
41.5,539.7,605.1,701.1,615.3,81.2
42.0,576.1,643.1,712.8,644.0,68.4
42.5,567.7,615.6,753.1,645.4,96.2
43.0,583.2,654.6,742.1,660.0,79.6
43.5,621.4,650.1,734.7,668.7,58.9
44.0,623.9,648.4,763.7,678.7,74.7
44.5,638.3,630.1,729.2,665.8,55.0
45.0,650.1,648.6,723.9,674.2,43.0
45.5,685.6,656.5,746.9,696.3,46.1
46.0,684.6,655.7,756.0,698.7,51.6
46.5,683.2,664.7,761.5,703.1,51.4
47.0,746.4,672.9,761.9,727.1,47.6
47.5,712.2,645.8,774.0,710.7,64.1
48.0,721.2,664.1,786.3,723.9,61.2
48.5,744.4,662.6,806.5,737.9,72.2
49.0,732.1,651.3,783.1,722.1,66.5
49.5,753.7,687.5,782.0,741.1,48.5
50.0,737.9,664.7,781.9,728.2,59.2
50.5,764.3,682.2,767.4,738.0,48.3
51.0,773.6,643.5,793.1,736.7,81.3
51.5,753.0,675.4,785.3,737.9,56.5
52.0,789.4,680.4,798.5,756.1,65.7
52.5,777.9,707.0,769.8,751.6,38.8
53.0,794.6,690.9,781.0,755.5,56.4
53.5,791.1,674.6,745.1,736.9,58.7
54.0,752.3,687.6,774.6,738.2,45.2
54.5,775.4,651.8,777.5,734.9,72.0
55.0,766.4,667.6,746.8,726.9,52.3
55.5,800.1,665.0,764.1,743.1,70.0
56.0,805.1,690.4,749.9,748.5,57.3
56.5,819.0,667.1,768.6,751.6,77.3
57.0,818.2,665.8,751.3,745.1,76.4
57.5,787.5,671.8,717.8,725.7,58.3
58.0,801.4,650.2,697.5,716.4,77.4
58.5,811.1,648.0,707.0,722.0,82.6
59.0,788.6,651.1,715.0,718.2,68.8
59.5,805.6,650.1,707.8,721.2,78.6
60.0,809.6,663.1,693.2,722.0,77.4
60.5,799.4,646.2,677.7,707.8,80.9
61.0,784.6,654.9,668.5,702.7,71.3
61.5,764.8,617.4,639.5,673.9,79.5
62.0,765.3,636.4,658.3,686.7,69.0
62.5,764.9,622.5,635.8,674.4,78.6
63.0,798.8,596.6,625.4,673.6,109.4
63.5,764.9,619.1,615.2,666.4,85.3
64.0,767.0,602.8,604.1,658.0,94.5
64.5,733.1,584.4,588.3,635.3,84.8
65.0,742.9,566.9,572.6,627.5,100.0
65.5,752.3,571.5,530.8,618.2,117.9
66.0,734.7,573.6,525.1,611.1,109.7
66.5,730.6,551.0,514.9,598.9,115.6
67.0,694.6,550.0,503.2,582.6,99.8
67.5,706.7,550.3,485.0,580.7,113.9
68.0,673.9,547.9,463.9,561.9,105.7
68.5,679.9,530.0,452.8,554.2,115.5
69.0,660.6,527.2,437.4,541.7,112.3
69.5,649.8,523.1,430.1,534.3,110.3
70.0,656.9,515.1,418.0,530.0,120.1
70.5,626.8,512.1,412.5,517.1,107.2
71.0,626.4,497.4,391.9,505.2,117.4
71.5,648.3,477.7,372.7,499.6,139.1
72.0,623.1,463.8,360.7,482.5,132.2
72.5,604.5,455.5,356.8,472.2,124.7
73.0,581.8,456.2,340.9,459.7,120.5
73.5,583.8,449.9,322.7,452.1,130.6
74.0,568.9,436.0,321.3,442.1,123.9
74.5,566.5,423.5,304.7,431.6,131.1
75.0,542.4,416.7,293.8,417.6,124.3
75.5,536.0,416.4,285.9,412.8,125.1
76.0,524.4,403.1,278.4,401.9,123.0
76.5,521.6,382.0,275.9,393.2,123.2
77.0,509.4,376.1,265.9,383.8,122.0
77.5,499.6,369.1,261.9,376.9,119.0
78.0,490.2,359.3,250.7,366.8,119.9
78.5,489.0,340.6,249.9,359.8,120.7
79.0,461.4,332.2,240.7,344.7,110.9
79.5,460.0,316.7,233.7,336.8,114.5
80.0,455.8,306.8,228.1,330.2,115.6
80.5,456.2,303.1,220.8,326.7,119.4
81.0,456.4,288.1,214.6,319.7,124.0
81.5,438.1,278.2,207.1,307.8,118.3
82.0,429.1,270.4,200.2,299.9,117.3
82.5,429.6,262.3,194.5,295.5,121.0
83.0,401.9,251.5,191.1,281.5,108.6
83.5,399.6,242.9,182.6,275.1,112.0
84.0,387.9,237.7,178.4,268.0,108.0
84.5,366.6,228.3,172.8,255.9,99.8
85.0,359.5,222.5,166.1,249.4,99.5
85.5,349.2,215.7,158.1,241.0,98.0
86.0,324.5,202.7,150.9,226.0,89.1
86.5,313.1,191.5,141.2,215.3,88.4
87.0,295.8,185.5,136.0,205.8,81.8
87.5,276.9,177.7,126.9,193.8,76.3
88.0,256.8,168.4,119.4,181.5,69.6
88.5,244.3,162.8,112.0,173.0,66.7
89.0,229.1,156.2,107.4,164.2,61.3
89.5,207.1,149.3,101.0,152.5,53.1
90.0,197.0,142.6,98.0,145.9,49.6
90.5,186.8,134.8,91.9,137.8,47.5
91.0,170.6,128.9,86.1,128.6,42.2
91.5,158.1,121.3,81.9,120.4,38.1
92.0,147.0,118.8,77.1,114.3,35.2
92.5,139.5,112.7,72.2,108.1,33.9
93.0,128.9,104.9,68.7,100.8,30.3
93.5,119.0,99.3,63.8,94.1,28.0
94.0,109.6,93.5,60.6,87.9,25.0
94.5,104.3,87.6,55.7,82.5,24.7
95.0,97.2,83.6,52.1,77.6,23.1
95.5,93.1,79.5,48.8,73.8,22.7
96.0,87.3,75.5,45.6,69.5,21.5
96.5,82.8,73.9,42.9,66.5,20.9
97.0,80.7,69.8,40.8,63.8,20.6
97.5,74.7,65.3,,70.0,6.7
98.0,73.5,61.7,,67.6,8.3
98.5,69.8,59.2,,64.5,7.5
99.0,69.1,57.6,,63.3,8.1
99.5,64.9,54.2,,59.6,7.6
100.0,62.4,52.9,,57.7,6.8
100.5,60.9,49.3,,55.1,8.2
101.0,58.1,47.8,,52.9,7.2
101.5,55.9,44.9,,50.4,7.7
102.0,54.1,43.7,,48.9,7.4
102.5,53.1,42.2,,47.6,7.7
103.0,51.7,40.9,,46.3,7.6
103.5,50.8,39.7,,45.3,7.9
104.0,50.6,38.4,,44.5,8.6
104.25,50.0,38.3,,44.2,8.2