File: 01_Data/PP/Cone/PP_HRRPUA_50.csv
Time after Ignition,PP_R1,PP_R2,PP_R3,Mean,Std. Dev.
0.0,7.7,7.1,14.8,9.9,4.3
0.5,9.5,9.6,17.3,12.2,4.5
1.0,12.2,11.8,22.4,15.4,6.0
1.5,15.8,15.8,27.5,19.7,6.8
2.0,20.5,19.2,32.5,24.1,7.3
2.5,25.9,23.2,37.9,29.0,7.8
3.0,32.6,27.1,42.0,33.9,7.5
3.5,40.2,32.0,47.4,39.9,7.7
4.0,48.1,36.3,53.0,45.8,8.6
4.5,56.1,40.9,59.7,52.2,10.0
5.0,63.0,49.5,67.2,59.9,9.2
5.5,70.4,54.4,75.4,66.7,11.0
6.0,79.0,65.7,84.0,76.3,9.5
6.5,85.1,72.0,91.8,83.0,10.1
7.0,92.5,82.5,100.8,91.9,9.2
7.5,98.9,91.3,108.9,99.7,8.8
8.0,104.7,100.2,115.2,106.7,7.7
8.5,111.2,109.6,122.3,114.4,6.9
9.0,119.9,115.9,130.1,122.0,7.3
9.5,126.1,124.7,137.3,129.3,6.9
10.0,133.7,132.4,146.1,137.4,7.6
10.5,137.2,139.3,151.6,142.7,7.7
11.0,149.6,146.4,158.9,151.6,6.5
11.5,159.1,154.6,169.4,161.0,7.6
12.0,165.4,160.6,174.0,166.6,6.8
12.5,178.2,169.7,184.2,177.3,7.3
13.0,192.4,178.9,194.4,188.6,8.4
13.5,196.4,190.8,202.2,196.4,5.7
14.0,208.5,194.3,217.2,206.7,11.5
14.5,214.0,206.6,222.7,214.4,8.0
15.0,224.4,224.2,227.3,225.3,1.7
15.5,227.2,232.0,246.3,235.2,9.9
16.0,241.8,241.0,256.5,246.4,8.8
16.5,256.3,256.2,265.3,259.3,5.2
17.0,251.4,261.3,268.8,260.5,8.7
17.5,267.6,273.3,280.7,273.9,6.6
18.0,273.3,283.1,288.3,281.6,7.6
18.5,282.7,302.2,308.0,297.6,13.2
19.0,304.2,296.8,313.8,304.9,8.5
19.5,299.7,307.8,341.2,316.2,22.0
20.0,314.6,325.0,350.4,330.0,18.4
20.5,326.4,333.2,359.9,339.8,17.7
21.0,340.4,342.1,370.2,350.9,16.7
21.5,337.3,340.3,381.6,353.1,24.8
22.0,350.3,352.8,399.6,367.6,27.8
22.5,363.5,371.5,395.5,376.8,16.6
23.0,369.4,373.2,406.7,383.1,20.5
23.5,373.5,382.0,410.6,388.7,19.4
24.0,377.5,383.1,418.7,393.1,22.4
24.5,393.6,396.8,436.9,409.1,24.2
25.0,419.9,395.2,452.0,422.4,28.5
25.5,418.4,404.7,447.8,423.6,22.0
26.0,432.3,429.4,475.5,445.7,25.8
26.5,438.3,419.7,479.1,445.7,30.3
27.0,451.2,428.1,467.6,449.0,19.8
27.5,454.8,438.8,488.9,460.9,25.6
28.0,471.4,452.4,496.1,473.3,21.9
28.5,474.0,461.7,489.3,475.0,13.8
29.0,469.4,468.9,485.9,474.8,9.7
29.5,470.5,477.3,507.3,485.0,19.6
30.0,483.3,484.9,493.2,487.1,5.3
30.5,505.7,501.4,513.6,506.9,6.2
31.0,488.8,493.9,537.5,506.8,26.8
31.5,505.2,507.1,525.1,512.5,11.0
32.0,514.5,516.3,548.5,526.4,19.1
32.5,519.6,508.5,575.4,534.5,35.9
33.0,542.0,527.7,575.8,548.5,24.7
33.5,540.8,499.3,584.9,541.6,42.8
34.0,543.7,524.5,592.2,553.5,34.9
34.5,572.2,540.7,619.2,577.4,39.5
35.0,558.5,532.9,616.1,569.2,42.6
35.5,578.6,557.5,634.1,590.1,39.5
36.0,579.1,553.7,652.1,594.9,51.1
36.5,590.2,594.9,658.6,614.6,38.2
37.0,616.7,552.9,668.5,612.7,57.9
37.5,609.2,581.8,658.4,616.4,38.8
38.0,623.3,594.3,685.5,634.4,46.6
38.5,628.9,585.0,693.8,635.9,54.7
39.0,629.2,604.4,702.6,645.4,51.1
39.5,687.1,631.2,704.5,674.3,38.3
40.0,679.3,618.8,702.5,666.9,43.2
40.5,729.9,639.2,744.0,704.3,56.9
41.0,696.3,623.8,759.4,693.2,67.9
41.5,740.3,649.1,754.5,714.6,57.2
42.0,750.0,664.6,758.7,724.4,52.0
42.5,746.1,663.8,766.3,725.4,54.3
43.0,748.0,677.0,781.6,735.5,53.4
43.5,751.5,671.9,758.8,727.4,48.2
44.0,772.1,676.0,831.8,760.0,78.6
44.5,850.1,756.3,814.0,806.8,47.3
45.0,777.9,713.2,813.2,768.1,50.7
45.5,782.0,730.6,856.5,789.7,63.3
46.0,884.3,736.1,848.4,823.0,77.3
46.5,813.0,761.3,851.9,808.7,45.4
47.0,884.4,748.6,892.9,842.0,81.0
47.5,895.2,784.0,889.4,856.2,62.6
48.0,835.6,800.4,900.5,845.5,50.8
48.5,824.1,786.8,896.2,835.7,55.6
49.0,925.9,810.2,897.5,877.8,60.3
49.5,855.8,868.1,943.2,889.0,47.3
50.0,941.7,847.7,973.4,920.9,65.3
50.5,877.3,880.7,999.2,919.1,69.4
51.0,992.4,878.8,981.7,950.9,62.7
51.5,975.2,804.2,901.8,893.7,85.8
52.0,943.4,849.7,1058.3,950.5,104.5
52.5,986.5,881.3,1026.5,964.8,75.0
53.0,996.4,915.7,984.8,965.7,43.6
53.5,1023.9,993.1,1077.3,1031.4,42.6
54.0,1008.4,922.1,1053.1,994.5,66.6
54.5,994.0,953.9,1068.3,1005.4,58.1
55.0,1041.5,932.4,1011.4,995.1,56.4
55.5,1118.6,964.0,1064.4,1049.0,78.4
56.0,1108.0,929.8,1073.3,1037.0,94.5
56.5,1066.2,1048.5,1218.6,1111.1,93.5
57.0,1028.1,1005.2,1022.5,1018.6,11.9
57.5,1136.5,1022.4,1120.1,1093.0,61.7
58.0,1129.9,1086.3,1188.1,1134.8,51.1
58.5,1138.1,1036.8,1253.4,1142.8,108.4
59.0,1139.1,1151.6,1215.0,1168.6,40.7
59.5,1138.7,1186.4,1226.7,1183.9,44.0
60.0,1318.9,1151.6,1154.4,1208.3,95.8
60.5,1141.1,1067.6,1098.4,1102.4,36.9
61.0,1254.6,1058.1,1220.6,1177.8,105.0
61.5,1278.7,1217.8,1169.4,1222.0,54.8
62.0,1150.5,1183.7,1323.9,1219.4,92.1
62.5,1277.1,1131.0,1251.6,1219.9,78.0
63.0,1175.6,1084.8,1273.4,1177.9,94.3
63.5,1290.5,1145.1,1293.1,1242.9,84.7
64.0,1390.0,1131.7,1250.7,1257.5,129.3
64.5,1358.2,1278.1,1348.2,1328.2,43.7
65.0,1413.5,1182.6,1353.1,1316.4,119.7
65.5,1287.6,1336.6,1461.0,1361.7,89.4
66.0,1260.6,1365.1,1431.0,1352.2,85.9
66.5,1372.2,1287.5,1437.8,1365.9,75.3
67.0,1284.6,1288.9,1415.2,1329.6,74.2
67.5,1392.5,1279.9,1453.2,1375.2,87.9
68.0,1328.4,1364.3,1345.7,1346.1,17.9
68.5,1321.0,1384.3,1356.8,1354.0,31.7
69.0,1312.6,1315.6,1386.8,1338.3,42.0
69.5,1395.7,1296.5,1553.7,1415.3,129.7
70.0,1462.8,1440.4,1457.9,1453.7,11.8
70.5,1335.5,1392.1,1508.5,1412.0,88.2
71.0,1554.4,1521.1,1423.2,1499.6,68.2
71.5,1499.8,1382.6,1450.4,1444.3,58.9
72.0,1539.2,1563.0,1526.0,1542.7,18.7
72.5,1492.1,1506.9,1413.4,1470.8,50.2
73.0,1694.3,1403.8,1499.0,1532.4,148.1
73.5,1575.0,1633.8,1623.4,1610.7,31.4
74.0,1557.8,1269.1,1390.2,1405.7,145.0
74.5,1534.4,1495.1,1662.8,1564.1,87.7
75.0,1381.8,1535.7,1487.9,1468.5,78.8
75.5,1610.9,1455.8,1520.4,1529.0,77.9
76.0,1726.3,1797.8,1471.2,1665.1,171.6
76.5,1509.1,1319.4,1532.9,1453.8,117.0
77.0,1654.4,1526.9,1742.9,1641.4,108.6
77.5,1356.9,1499.1,1389.3,1415.1,74.5
78.0,1554.5,1899.3,1757.1,1736.9,173.3
78.5,1656.1,1697.4,1751.9,1701.8,48.1
79.0,1653.1,1475.9,1764.9,1631.3,145.7
79.5,1628.3,1789.0,1785.2,1734.2,91.7
80.0,1636.7,2102.5,1469.8,1736.3,327.9
80.5,1521.7,1418.0,1666.2,1535.3,124.6
81.0,1806.5,1555.9,1968.7,1777.0,208.0
81.5,1674.6,1846.1,1539.1,1686.6,153.9
82.0,1608.9,1759.9,1943.6,1770.8,167.6
82.5,1949.5,1726.4,1751.1,1809.0,122.3
83.0,1793.2,1899.7,1746.3,1813.1,78.6
83.5,1630.5,1637.4,1548.7,1605.5,49.3
84.0,1847.2,1805.6,1938.9,1863.9,68.2
84.5,1969.9,1933.1,1793.5,1898.9,93.1
85.0,1627.9,1734.1,1921.3,1761.1,148.5
85.5,1861.7,1886.2,1992.7,1913.5,69.6
86.0,1681.1,2251.5,1701.6,1878.1,323.6
86.5,1862.7,1681.6,1688.6,1744.3,102.6
87.0,2009.9,1810.1,1891.1,1903.7,100.5
87.5,1692.5,1851.7,1769.2,1771.1,79.6
88.0,1813.2,1770.1,1943.1,1842.2,90.0
88.5,1705.5,2045.0,2137.6,1962.7,227.5
89.0,1775.1,1700.4,1951.0,1808.8,128.7
89.5,2389.5,1696.9,1966.2,2017.5,349.1
90.0,2022.5,2307.1,2158.0,2162.5,142.4
90.5,1783.4,2275.1,2050.8,2036.5,246.2
91.0,1816.8,2254.5,1846.3,1972.5,244.7
91.5,1925.7,1992.6,2130.3,2016.2,104.4
92.0,2080.8,1831.9,2161.3,2024.7,171.7
92.5,1961.6,2373.7,1995.4,2110.2,228.8
93.0,2128.7,1979.8,1889.8,1999.4,120.7
93.5,1810.1,2143.5,2651.0,2201.6,423.4
94.0,1351.1,2197.4,2248.5,1932.3,504.0
94.5,1872.1,2035.4,1896.7,1934.7,88.0
95.0,1941.3,2333.1,2215.2,2163.2,201.0
95.5,2026.2,2396.7,2124.4,2182.4,191.9
96.0,2009.3,2078.7,1936.5,2008.1,71.1
96.5,1841.4,2192.9,2061.9,2032.1,177.6
97.0,2064.0,2069.0,2133.1,2088.7,38.5
97.5,2368.6,2343.8,1911.3,2207.9,257.1
98.0,2046.0,2436.7,2192.8,2225.2,197.3
98.5,2006.9,1867.1,2134.1,2002.7,133.6
99.0,2040.4,2315.5,2127.2,2161.0,140.7
99.5,2276.3,2272.2,2076.9,2208.5,113.9
100.0,2136.2,2432.3,1849.5,2139.3,291.4
100.5,1840.3,2490.5,1855.9,2062.2,371.0
101.0,2204.3,2441.6,2049.5,2231.8,197.5
101.5,1834.7,2358.9,2069.3,2087.7,262.6
102.0,1921.9,2042.1,1800.8,1921.6,120.7
102.5,2091.8,2511.1,2070.5,2224.5,248.5
103.0,1783.7,2045.8,1813.2,1880.9,143.6
103.5,1953.7,2290.2,2003.2,2082.3,181.7
104.0,2405.7,2301.7,1705.2,2137.5,378.0
104.5,1783.4,1956.4,1934.4,1891.4,94.1
105.0,2183.6,2306.1,1769.4,2086.4,281.2
105.5,1909.7,2037.0,2095.4,2014.1,94.9
106.0,1994.1,2630.9,1879.1,2168.0,405.0
106.5,2174.7,2333.2,1770.9,2092.9,289.9
107.0,1854.1,2284.6,1689.0,1942.6,307.5
107.5,1968.7,2167.4,1924.9,2020.3,129.2
108.0,2026.5,2222.0,1631.2,1959.9,301.0
108.5,2076.9,2221.7,1929.4,2076.0,146.2
109.0,1971.3,2239.8,1586.6,1932.6,328.3
109.5,1821.5,2354.8,1692.4,1956.2,351.2
110.0,1788.6,2189.6,1670.6,1882.9,272.0
110.5,1731.7,2060.8,1638.4,1810.3,221.9
111.0,1886.0,2193.7,1654.7,1911.5,270.4
111.5,1729.2,2113.1,1668.0,1836.8,241.3
112.0,1811.4,1979.2,1552.9,1781.2,214.7
112.5,1674.5,2014.6,1609.4,1766.2,217.6
113.0,1828.7,2073.4,1734.0,1878.7,175.2
113.5,1647.3,1935.1,1523.7,1702.0,211.1
114.0,1771.3,1847.3,1536.5,1718.4,162.0
114.5,1668.5,1872.1,1512.3,1684.3,180.4
115.0,1678.8,1831.8,1448.7,1653.1,192.8
115.5,1551.0,1840.2,1549.5,1646.9,167.4
116.0,1528.3,1776.4,1472.9,1592.5,161.6
116.5,1484.2,1776.3,1386.1,1548.9,203.0
117.0,1553.1,1722.3,1373.5,1549.6,174.4
117.5,1390.5,1648.2,1352.0,1463.6,161.1
118.0,1421.5,1594.2,1290.3,1435.3,152.4
118.5,1484.2,1545.3,1246.6,1425.3,157.8
119.0,1369.0,1434.9,1267.4,1357.1,84.4
119.5,1336.4,1380.0,1220.2,1312.2,82.6
120.0,1289.7,1242.8,1183.4,1238.6,53.3
120.5,1265.3,1160.2,1153.6,1193.0,62.6
121.0,1222.3,1078.7,1170.3,1157.1,72.7
121.5,1164.7,,1183.6,1174.2,13.4
122.0,1123.7,,1089.7,1106.7,24.1
122.5,1072.0,,1049.9,1061.0,15.6
123.0,1014.5,,999.2,1006.8,10.8
123.5,963.6,,942.6,953.1,14.8
124.0,896.8,,876.4,886.6,14.4
124.5,870.5,,798.0,834.3,51.3
125.0,818.4,,733.7,776.1,60.0
125.5,771.3,,654.6,713.0,82.5
126.0,705.1,,606.5,655.8,69.7
126.5,656.2,,547.9,602.0,76.6
127.0,605.5,,487.0,546.3,83.8