File: 01_Data/PP/Cone/PP_HRRPUA_25.csv
Time after Ignition,PP_R1,PP_R2,PP_R3,Mean,Std. Dev.
0.0,11.9,7.6,3.0,7.5,4.5
0.75,16.2,12.6,6.5,11.8,4.9
1.5,22.2,17.4,10.8,16.8,5.8
2.25,27.7,23.6,15.6,22.3,6.2
3.0,34.6,31.9,21.3,29.3,7.0
3.75,41.9,37.9,27.6,35.8,7.4
4.5,48.4,46.3,35.5,43.4,7.0
5.25,58.0,54.9,42.3,51.7,8.4
6.0,69.4,62.2,48.7,60.1,10.5
6.75,79.4,69.1,57.7,68.7,10.8
7.5,86.9,74.5,64.0,75.1,11.5
8.25,91.4,86.9,70.4,82.9,11.1
9.0,98.7,90.8,79.2,89.6,9.8
9.75,107.5,97.7,86.2,97.2,10.7
10.5,113.0,108.2,93.7,105.0,10.1
11.25,119.1,112.0,99.3,110.2,10.0
12.0,128.0,117.3,105.4,116.9,11.3
12.75,133.3,125.0,111.5,123.2,11.0
13.5,137.2,130.7,114.9,127.6,11.4
14.25,143.7,138.5,119.3,133.8,12.9
15.0,149.0,143.5,122.0,138.2,14.3
15.75,152.1,149.5,122.7,141.4,16.3
16.5,157.9,156.2,128.0,147.3,16.8
17.25,161.3,160.8,129.7,150.6,18.1
18.0,164.0,165.9,132.7,154.2,18.7
18.75,169.4,169.8,139.4,159.5,17.5
19.5,179.7,174.2,141.9,165.3,20.4
20.25,185.5,177.4,145.8,169.5,21.0
21.0,191.6,182.8,148.0,174.1,23.1
21.75,194.8,187.1,149.7,177.2,24.1
22.5,200.1,195.6,156.9,184.2,23.7
23.25,205.2,197.4,159.2,187.3,24.6
24.0,208.3,205.9,163.0,192.4,25.5
24.75,211.9,205.9,166.6,194.8,24.6
25.5,212.6,214.2,170.2,199.0,24.9
26.25,214.9,219.4,174.9,203.1,24.5
27.0,222.9,226.5,182.0,210.4,24.7
27.75,227.8,227.7,182.5,212.7,26.1
28.5,234.8,236.5,187.3,219.5,27.9
29.25,237.1,235.7,189.2,220.7,27.2
30.0,239.6,245.9,200.9,228.8,24.4
30.75,249.5,244.8,206.0,233.4,23.9
31.5,252.7,248.0,209.5,236.8,23.7
32.25,259.1,255.6,216.4,243.7,23.7
33.0,262.3,252.5,218.8,244.5,22.8
33.75,271.0,257.8,223.8,250.9,24.4
34.5,272.3,258.3,226.3,252.3,23.6
35.25,278.4,268.5,232.4,259.8,24.2
36.0,289.1,275.3,237.6,267.3,26.7
36.75,289.8,275.4,242.4,269.2,24.3
37.5,295.0,283.9,244.8,274.6,26.4
38.25,302.9,287.4,253.4,281.2,25.3
39.0,302.7,286.5,258.7,282.6,22.3
39.75,319.1,295.0,257.2,290.4,31.3
40.5,316.4,306.7,261.5,294.9,29.3
41.25,318.9,316.1,269.3,301.4,27.9
42.0,326.4,319.1,276.7,307.4,26.8
42.75,327.6,322.1,274.5,308.1,29.2
43.5,343.6,318.7,292.0,318.1,25.8
44.25,353.4,326.1,297.5,325.7,28.0
45.0,355.1,329.3,289.8,324.7,32.9
45.75,360.2,335.3,308.0,334.5,26.1
46.5,379.5,350.5,312.1,347.4,33.8
47.25,373.6,355.6,319.8,349.6,27.4
48.0,383.9,368.2,314.5,355.6,36.4
48.75,375.7,357.5,336.8,356.7,19.4
49.5,380.8,375.6,337.2,364.5,23.8
50.25,395.3,390.0,346.7,377.3,26.7
51.0,403.7,386.8,351.9,380.8,26.4
51.75,399.1,377.7,359.0,378.6,20.0
52.5,414.9,395.0,360.1,390.0,27.7
53.25,426.9,394.1,374.9,398.6,26.3
54.0,429.7,394.2,368.8,397.6,30.6
54.75,440.6,397.0,379.9,405.8,31.3
55.5,441.8,438.0,381.8,420.5,33.6
56.25,449.6,417.9,388.3,418.6,30.6
57.0,451.7,437.2,389.2,426.0,32.7
57.75,460.2,460.7,414.3,445.1,26.7
58.5,474.8,459.4,412.4,448.9,32.5
59.25,481.5,473.4,419.9,458.3,33.5
60.0,494.5,491.1,433.0,472.9,34.6
60.75,488.9,472.6,428.1,463.2,31.5
61.5,510.9,506.6,433.8,483.8,43.4
62.25,503.2,518.0,437.8,486.3,42.7
63.0,515.7,529.4,437.4,494.1,49.6
63.75,511.8,503.6,453.8,489.7,31.4
64.5,505.8,532.1,470.3,502.7,31.0
65.25,536.8,555.9,450.4,514.4,56.2
66.0,529.7,550.3,470.0,516.7,41.7
66.75,540.6,562.1,479.3,527.4,43.0
67.5,559.9,569.6,503.7,544.4,35.6
68.25,557.3,587.6,492.4,545.8,48.6
69.0,570.2,591.0,525.1,562.1,33.7
69.75,549.5,605.1,516.8,557.1,44.7
70.5,571.8,613.1,534.7,573.2,39.2
71.25,579.7,606.3,526.0,570.7,40.9
72.0,579.3,632.2,533.1,581.5,49.6
72.75,569.5,633.0,574.7,592.4,35.2
73.5,585.5,644.3,557.1,595.6,44.5
74.25,600.8,664.2,582.7,615.9,42.8
75.0,599.9,665.1,575.9,613.7,46.2
75.75,616.5,644.6,575.5,612.2,34.8
76.5,623.7,668.3,598.4,630.2,35.4
77.25,619.9,676.4,582.7,626.3,47.2
78.0,639.9,657.3,589.3,628.8,35.3
78.75,607.8,698.9,613.7,640.1,51.0
79.5,634.3,663.2,624.5,640.7,20.1
80.25,642.9,680.1,622.6,648.6,29.2
81.0,657.0,679.1,627.4,654.5,26.0
81.75,662.0,698.6,650.6,670.4,25.1
82.5,646.1,697.7,636.2,660.0,33.0
83.25,695.2,706.3,678.5,693.3,14.0
84.0,673.6,725.0,684.6,694.4,27.1
84.75,690.0,710.6,660.3,686.9,25.3
85.5,681.2,723.4,644.3,682.9,39.6
86.25,690.7,759.0,655.9,701.9,52.5
87.0,704.3,725.0,650.8,693.4,38.3
87.75,726.5,725.3,685.3,712.3,23.4
88.5,683.4,730.6,679.1,697.7,28.6
89.25,695.0,804.4,693.1,730.8,63.8
90.0,751.8,781.0,665.9,732.9,59.9
90.75,750.3,753.8,679.4,727.9,42.0
91.5,719.3,726.5,688.0,711.3,20.5
92.25,746.7,824.9,728.9,766.8,51.0
93.0,759.1,782.7,736.4,759.4,23.2
93.75,732.2,779.4,730.7,747.4,27.7
94.5,741.7,816.7,766.7,775.1,38.2
95.25,779.8,782.0,747.1,769.7,19.5
96.0,783.5,827.3,744.6,785.2,41.4
96.75,756.7,790.4,778.9,775.3,17.1
97.5,784.3,825.6,782.9,797.6,24.2
98.25,769.0,796.8,773.5,779.8,14.9
99.0,786.8,834.7,791.6,804.3,26.4
99.75,805.7,826.9,788.8,807.1,19.1
100.5,787.8,869.1,761.8,806.2,56.0
101.25,803.3,849.2,800.5,817.6,27.4
102.0,772.3,860.8,820.5,817.9,44.3
102.75,817.3,871.8,808.5,832.5,34.3
103.5,808.6,905.8,820.8,845.1,53.0
104.25,821.5,892.5,865.4,859.8,35.8
105.0,864.0,904.8,824.7,864.5,40.0
105.75,869.6,915.1,866.0,883.6,27.4
106.5,875.2,914.6,882.9,890.9,20.9
107.25,920.2,982.8,905.3,936.1,41.1
108.0,904.5,951.4,871.8,909.2,40.0
108.75,893.8,940.1,891.8,908.6,27.3
109.5,904.4,965.2,866.8,912.1,49.7
110.25,866.4,928.8,918.8,904.7,33.5
111.0,873.6,966.4,947.7,929.3,49.1
111.75,907.1,974.9,853.2,911.7,61.0
112.5,862.5,967.3,876.7,902.2,56.9
113.25,892.6,979.0,920.7,930.8,44.1
114.0,931.1,1032.8,930.1,964.7,59.0
114.75,993.5,952.0,882.4,942.6,56.1
115.5,953.7,1029.9,967.5,983.7,40.6
116.25,951.1,938.2,908.9,932.7,21.6
117.0,893.3,1071.6,931.2,965.4,93.9
117.75,993.6,1013.0,966.2,990.9,23.5
118.5,960.9,1006.9,986.3,984.7,23.0
119.25,983.0,999.2,1008.6,996.9,12.9
120.0,968.2,993.2,931.6,964.3,31.0
120.75,982.7,1098.6,1070.0,1050.4,60.4
121.5,1017.3,1094.6,969.6,1027.2,63.1
122.25,1004.1,1057.3,1099.7,1053.7,47.9
123.0,962.6,1062.3,979.8,1001.6,53.3
123.75,1031.0,1128.4,1016.1,1058.5,61.0
124.5,1093.7,1060.7,1050.3,1068.2,22.7
125.25,992.7,1122.5,1040.1,1051.8,65.7
126.0,1056.8,1107.0,1033.2,1065.7,37.7
126.75,1141.2,1047.0,1103.9,1097.4,47.4
127.5,1102.1,1087.1,1121.6,1103.6,17.3
128.25,1038.5,1051.7,1155.6,1081.9,64.2
129.0,1061.8,1134.2,1138.0,1111.3,42.9
129.75,1107.3,1111.4,1037.4,1085.4,41.6
130.5,1036.4,1128.8,1130.6,1098.6,53.9
131.25,1039.4,1105.5,1109.9,1084.9,39.5
132.0,1019.4,1192.5,1191.3,1134.4,99.5
132.75,1057.2,1201.5,1140.5,1133.1,72.4
133.5,1154.3,1057.9,1150.1,1120.8,54.5
134.25,1088.8,1113.0,1082.7,1094.8,16.0
135.0,1003.7,1105.6,1101.0,1070.1,57.5
135.75,997.3,1170.8,1162.2,1110.1,97.8
136.5,1102.6,1141.5,1187.7,1143.9,42.6
137.25,1114.5,1119.2,1282.4,1172.1,95.6
138.0,1117.6,1114.7,1128.0,1120.1,7.0
138.75,1072.9,1062.9,1217.6,1117.8,86.6
139.5,1154.5,1183.6,1165.9,1168.0,14.7
140.25,1112.4,1148.9,1183.7,1148.3,35.7
141.0,1055.3,1168.3,1305.3,1176.3,125.2
141.75,1246.2,1163.7,1235.9,1215.3,45.0
142.5,1159.3,1175.3,1141.0,1158.5,17.2
143.25,1183.6,1194.3,1258.1,1212.0,40.3
144.0,1183.3,1176.7,1253.4,1204.5,42.5
144.75,1136.8,1146.4,1324.8,1202.6,105.9
145.5,1296.5,1259.2,1225.8,1260.5,35.4
146.25,1091.2,1172.9,1217.5,1160.6,64.0
147.0,1200.8,1200.5,1378.1,1259.8,102.4
147.75,1260.0,1079.7,1181.2,1173.7,90.4
148.5,1203.8,1182.3,1378.0,1254.7,107.3
149.25,1151.9,1166.9,1424.1,1247.6,153.0
150.0,1083.6,1168.2,1437.1,1229.6,184.6
150.75,1117.6,1341.7,1514.3,1324.5,198.9
151.5,1218.5,1148.7,1461.1,1276.1,163.9
152.25,1331.1,1125.1,1370.2,1275.5,131.7
153.0,1257.4,1189.2,1285.1,1243.9,49.4
153.75,1196.5,1214.0,1405.3,1271.9,115.8
154.5,1257.1,1273.9,1442.0,1324.3,102.2
155.25,1215.5,1105.5,1379.2,1233.4,137.7
156.0,1285.5,1128.0,1277.0,1230.2,88.6
156.75,1335.5,1129.1,1361.3,1275.3,127.3
157.5,1231.3,1097.5,1412.5,1247.1,158.1
158.25,1345.4,1160.3,1366.0,1290.6,113.3
159.0,1256.4,1134.0,1453.8,1281.4,161.3
159.75,1267.8,1127.3,1597.8,1331.0,241.5
160.5,1371.0,1151.7,1338.1,1286.9,118.2
161.25,1437.6,1122.6,1501.6,1354.0,202.9
162.0,1360.3,1143.3,1570.3,1358.0,213.5
162.75,1378.6,1123.2,1645.9,1382.6,261.4
163.5,1342.5,1212.6,1478.8,1344.6,133.2
164.25,1374.1,1121.1,1428.8,1308.0,164.1
165.0,1332.4,1085.6,1476.5,1298.2,197.7
165.75,1305.7,1131.6,1580.4,1339.2,226.3
166.5,1438.4,1085.0,1543.8,1355.7,240.3
167.25,1360.1,1014.9,1498.3,1291.1,248.9
168.0,1440.9,1053.1,1567.0,1353.7,267.8
168.75,1420.1,1102.7,1587.2,1370.0,246.1
169.5,1272.1,1024.2,1588.0,1294.8,282.6
170.25,1402.1,1013.5,1454.5,1290.0,240.9
171.0,1344.4,965.0,1389.8,1233.1,233.3
171.75,1324.9,1017.4,1400.3,1247.5,202.9
172.5,1253.3,1043.1,1374.9,1223.8,167.9
173.25,1260.1,1034.0,1428.9,1241.0,198.2
174.0,1293.4,989.3,1431.6,1238.1,226.3
174.75,1303.8,997.0,1439.1,1246.6,226.5
175.5,1365.9,1025.2,1351.9,1247.7,192.8
176.25,1372.5,914.9,1323.8,1203.7,251.3
177.0,1285.7,892.3,1288.6,1155.5,228.0
177.75,1192.6,902.6,1251.0,1115.4,186.6
178.5,1225.3,891.5,1202.8,1106.5,186.5
179.25,1183.3,903.1,1202.5,1096.3,167.6
180.0,1171.7,870.8,1183.6,1075.4,177.3
180.75,1155.3,876.9,1088.8,1040.3,145.4
181.5,1128.4,842.5,1059.1,1010.0,149.1
182.25,1092.8,856.8,1009.8,986.5,119.7
183.0,1032.3,806.3,928.4,922.3,113.1
183.75,1031.0,790.2,882.8,901.3,121.5
184.5,1025.2,811.1,844.4,893.6,115.2
185.25,1022.8,781.6,780.9,861.8,139.5
186.0,937.6,770.9,748.4,818.9,103.3
186.75,891.7,754.0,688.7,778.1,103.6
187.5,853.6,726.3,637.1,739.0,108.8
188.25,838.3,712.7,579.6,710.2,129.4
189.0,816.3,707.0,559.8,694.4,128.7
189.75,760.6,702.3,486.9,649.9,144.2
190.5,727.9,661.7,426.1,605.3,158.6
191.25,699.1,636.1,363.5,566.2,178.4
192.0,665.2,628.3,321.8,538.4,188.5
192.75,614.8,628.8,,621.8,9.9
193.5,584.4,598.3,,591.3,9.8
194.25,543.8,586.3,,565.0,30.1
195.0,495.4,551.5,,523.5,39.7
195.75,479.0,533.5,,506.3,38.5
196.5,448.8,505.0,,476.9,39.8
197.25,414.6,466.9,,440.7,37.0
198.0,388.7,441.7,,415.2,37.4
198.75,349.8,421.6,,385.7,50.8
199.5,317.0,399.1,,358.1,58.0
200.25,270.3,373.0,,321.6,72.6
201.0,230.7,345.3,,288.0,81.1
201.25,221.2,338.3,,279.7,82.8