File: 01_Data/Masonite_Board/STA/N2/10K_min/Masonite_Board_STA_N2_10KData_222706_R3.csv
##Temp./Â°C,Time/min,DSC(subtr.)/mW,Mass loss(subtr.)/mg,Sensit./(uV/mW)
49.731,10.01,0.0306553,-0.04074,1.07017
52.331,11.22649,0.45043,-0.04402462,1.06945
54.931,11.6227,0.6631,-0.04276781,1.06873
57.531,11.955,0.79499,-0.04311982,1.068
60.131,12.258,0.89181,-0.04440008,1.06726
62.731,12.55006,0.95143,-0.04765416,1.06652
65.331,12.83505,1.00554,-0.04679843,1.06576
67.931,13.11686,1.0449,-0.04765861,1.065
70.531,13.3951,1.08118,-0.05029456,1.06424
73.131,13.6703,1.12284,-0.05162653,1.06347
75.731,13.9436,1.1519,-0.05226889,1.06269
78.331,14.2149,1.17201,-0.05358027,1.0619
80.931,14.48276,1.1895,-0.05357995,1.0611
83.531,14.7492,1.20721,-0.05651125,1.0603
86.131,15.01234,1.2132,-0.05852301,1.05949
88.731,15.275,1.20617,-0.05851907,1.05868
91.331,15.53485,1.20057,-0.0588517,1.05786
93.931,15.7928,1.19349,-0.06153983,1.05703
96.531,16.05,1.18755,-0.06214002,1.05619
99.131,16.30685,1.17855,-0.06074763,1.05534
101.731,16.56286,1.19538,-0.06303023,1.05449
104.331,16.81829,1.20106,-0.06566736,1.05363
106.931,17.07262,1.2016,-0.06537834,1.05277
109.531,17.32674,1.20019,-0.06598909,1.05189
112.131,17.58044,1.19273,-0.06466988,1.05101
114.731,17.8343,1.19717,-0.06565784,1.05013
117.331,18.0872,1.20411,-0.06731386,1.04923
119.931,18.34061,1.20737,-0.06599,1.04833
122.531,18.5931,1.20781,-0.06638402,1.04742
125.131,18.8462,1.21221,-0.0673,1.0465
127.731,19.09672,1.21168,-0.0679699,1.04558
130.331,19.34887,1.22262,-0.06731751,1.04464
132.931,19.6006,1.229,-0.06861748,1.04371
135.531,19.8514,1.24767,-0.06861991,1.04276
138.131,20.1021,1.24842,-0.06861999,1.0418
140.731,20.3529,1.25052,-0.06762381,1.04084
143.331,20.60313,1.27233,-0.06897269,1.03987
145.931,20.8538,1.27589,-0.0699402,1.0389
148.531,21.10387,1.2929,-0.0686141,1.03791
151.131,21.35277,1.30449,-0.06893039,1.03692
153.731,21.603,1.31379,-0.06996541,1.03592
156.331,21.85325,1.31883,-0.07125,1.03492
158.931,22.10312,1.33348,-0.0699554,1.0339
161.531,22.35202,1.35567,-0.07124946,1.03288
164.131,22.60104,1.35933,-0.07065119,1.03185
166.731,22.84883,1.37389,-0.07125974,1.03081
169.331,23.09873,1.38374,-0.07155923,1.02977
171.931,23.3474,1.40223,-0.07191892,1.02872
174.531,23.59556,1.41411,-0.07323008,1.02766
177.131,23.844,1.42631,-0.07454998,1.02659
179.731,24.09232,1.43174,-0.07626468,1.02551
182.331,24.3403,1.45001,-0.07653669,1.02443
184.931,24.58796,1.46177,-0.07818,1.02334
187.531,24.83611,1.46962,-0.07853728,1.02224
190.131,25.08349,1.48897,-0.07949144,1.02113
192.731,25.33126,1.49244,-0.08047,1.02002
195.331,25.5789,1.50603,-0.08244616,1.0189
197.931,25.8255,1.53023,-0.08245,1.01777
200.531,26.07395,1.5413,-0.08475999,1.01663
203.131,26.3208,1.56012,-0.08509192,1.01549
205.731,26.56778,1.58011,-0.0874,1.01433
208.331,26.8148,1.59416,-0.08904018,1.01317
210.931,27.06257,1.60992,-0.09167097,1.012
213.531,27.30935,1.62061,-0.09365811,1.01083
216.131,27.55665,1.64186,-0.09431,1.00964
218.731,27.8037,1.65738,-0.09826051,1.00845
221.331,28.05122,1.67247,-0.10057,1.00725
223.931,28.29897,1.68344,-0.10189,1.00604
226.531,28.54624,1.71349,-0.10452,1.00482
229.131,28.79397,1.72787,-0.10783,1.0036
231.731,29.04113,1.74126,-0.11087,1.00236
234.331,29.2886,1.75809,-0.11408,1.00112
236.931,29.53623,1.76913,-0.11934,0.99988
239.531,29.7841,1.78758,-0.12217,0.99862
242.131,30.0317,1.79856,-0.12856,0.99735
244.731,30.27911,1.8152,-0.1335,0.99608
247.331,30.52658,1.82568,-0.13915,0.9948
249.931,30.7738,1.83681,-0.14534,0.99351
252.531,31.0217,1.85061,-0.15218,0.99222
255.131,31.2697,1.85164,-0.16062,0.99091
257.731,31.5171,1.8651,-0.172,0.9896
260.331,31.76525,1.87273,-0.18205,0.98828
262.931,32.01332,1.8842,-0.19458,0.98695
265.531,32.26119,1.88705,-0.20748,0.98561
268.131,32.509,1.90299,-0.22409,0.98426
270.731,32.75739,1.90115,-0.24014,0.98291
273.331,33.00548,1.90929,-0.25863,0.98155
275.931,33.25423,1.91676,-0.27822,0.98018
278.531,33.50315,1.92053,-0.30167,0.9788
281.131,33.75159,1.92192,-0.32767,0.97741
283.731,34.00073,1.91461,-0.3537,0.97602
286.331,34.2496,1.90639,-0.38407,0.97462
288.931,34.49841,1.89948,-0.41408,0.97321
291.531,34.74692,1.88681,-0.44598,0.97179
294.131,34.9957,1.87028,-0.4766,0.97036
296.731,35.24374,1.85511,-0.51139,0.96892
299.331,35.49303,1.84079,-0.54566,0.96748
301.931,35.7427,1.83615,-0.57742,0.96603
304.531,35.99187,1.83716,-0.61077,0.96457
307.131,36.2412,1.83687,-0.64387,0.9631
309.731,36.4903,1.85802,-0.67807,0.96162
312.331,36.7402,1.8785,-0.71385,0.96014
314.931,36.9897,1.90838,-0.74684,0.95864
317.531,37.2385,1.95564,-0.78361,0.95714
320.131,37.48932,1.98848,-0.82173,0.95563
322.731,37.7386,2.05756,-0.85991,0.95411
325.331,37.98845,2.13454,-0.90094,0.95259
327.931,38.2393,2.23801,-0.94448,0.95105
330.531,38.4895,2.33877,-0.99019,0.94951
333.131,38.74048,2.47364,-1.03993,0.94796
335.731,38.99085,2.62463,-1.09604,0.9464
338.331,39.24279,2.7841,-1.15356,0.94483
340.931,39.49481,3.00592,-1.22,0.94325
343.531,39.74645,3.24694,-1.29046,0.94167
346.131,39.99791,3.52901,-1.36934,0.94008
348.731,40.24989,3.83377,-1.45679,0.93848
351.331,40.5017,4.16753,-1.55485,0.93687
353.931,40.75427,4.49739,-1.66282,0.93525
356.531,41.0064,4.81438,-1.77865,0.93362
359.131,41.25804,5.09114,-1.90405,0.93199
361.731,41.51128,5.28467,-2.04092,0.93035
364.331,41.76358,5.3703,-2.18129,0.9287
366.931,42.0161,5.28999,-2.32132,0.92704
369.531,42.2673,4.98428,-2.45666,0.92537
372.131,42.5188,4.47083,-2.58435,0.9237
374.731,42.76933,3.74271,-2.69114,0.92202
377.331,43.0198,2.88481,-2.77714,0.92032
379.931,43.27036,2.03855,-2.8392,0.91863
382.531,43.52077,1.33528,-2.88121,0.91692
385.131,43.7708,0.85249,-2.906,0.9152
387.731,44.02186,0.58295,-2.92115,0.91348
390.331,44.27313,0.44083,-2.9332,0.91175
392.931,44.5248,0.39486,-2.94315,0.91001
395.531,44.77718,0.35315,-2.9501,0.90826
398.131,45.02969,0.32743,-2.95931,0.9065
400.731,45.2827,0.28901,-2.96624,0.90474
403.331,45.53611,0.25028,-2.9746,0.90296
405.931,45.7893,0.21822,-2.98168,0.90118
408.531,46.04322,0.19612,-2.98987,0.89939
411.131,46.2973,0.17045,-2.99633,0.8976
413.731,46.55175,0.13636,-3.00347,0.89579
416.331,46.80575,0.10968,-3.01173,0.89398
418.931,47.05953,0.10352,-3.01879,0.89216
421.531,47.31426,0.09167243,-3.02654,0.89033
424.131,47.56825,0.09564541,-3.03486,0.88849
426.731,47.82173,0.10455,-3.04152,0.88665
429.331,48.07685,0.12071,-3.05003,0.8848
431.931,48.3313,0.14306,-3.05657,0.88294
434.531,48.5854,0.16045,-3.06512,0.88107
437.131,48.84042,0.19437,-3.07112,0.87919
439.731,49.09551,0.21973,-3.07701,0.87731
442.331,49.35098,0.25468,-3.08382,0.87542
444.931,49.60581,0.29594,-3.08941,0.87352
447.531,49.86099,0.33469,-3.09666,0.87161
450.131,50.1158,0.37282,-3.10169,0.86969
452.731,50.37184,0.41268,-3.10754,0.86777
455.331,50.62744,0.45582,-3.11227,0.86584
457.931,50.88326,0.48125,-3.11642,0.8639
460.531,51.13932,0.50409,-3.12169,0.86196
463.131,51.39581,0.52623,-3.12532,0.86
465.731,51.65157,0.56351,-3.13037,0.85804
468.331,51.90775,0.5718,-3.13454,0.85607
470.931,52.16458,0.61302,-3.13846,0.8541
473.531,52.42095,0.62347,-3.14244,0.85212
476.131,52.6779,0.64876,-3.14425,0.85012
478.731,52.9354,0.65964,-3.1497,0.84813
481.331,53.19175,0.67867,-3.152,0.84612
483.931,53.4493,0.69229,-3.15595,0.84411
486.531,53.70605,0.70778,-3.15892,0.84209
489.131,53.96245,0.72404,-3.16155,0.84006
491.731,54.21965,0.73017,-3.16418,0.83802
494.331,54.47628,0.74287,-3.16945,0.83598
496.931,54.73335,0.76743,-3.17104,0.83393
499.531,54.9906,0.78678,-3.17571,0.83187
502.131,55.24725,0.78335,-3.17835,0.82981
504.731,55.50445,0.79421,-3.17966,0.82774
507.331,55.76169,0.79753,-3.18493,0.82566
509.931,56.0186,0.80703,-3.18756,0.82358
512.531,56.27655,0.81978,-3.18892,0.82148
515.131,56.53441,0.81373,-3.1925,0.81938
517.731,56.79179,0.82037,-3.19382,0.81728
520.331,57.04999,0.8283,-3.19645,0.81517
522.931,57.3082,0.81922,-3.1991,0.81305
525.531,57.56584,0.82125,-3.20205,0.81092
528.131,57.8241,0.82225,-3.20503,0.80879
530.731,58.0825,0.82177,-3.20766,0.80665
533.331,58.34189,0.80512,-3.20964,0.8045
535.931,58.60044,0.79881,-3.21227,0.80235
538.531,58.8596,0.80853,-3.21491,0.80019
541.131,59.1185,0.79566,-3.21765,0.79802
543.731,59.378,0.80438,-3.21917,0.79585
546.331,59.63661,0.80772,-3.22311,0.79367
548.931,59.89565,0.80398,-3.22608,0.79148
551.531,60.1547,0.81126,-3.22742,0.78929
554.131,60.4131,0.80717,-3.2292,0.78709
556.731,60.6723,0.82314,-3.23237,0.78489
559.331,60.93155,0.81501,-3.23433,0.78268
561.931,61.1909,0.81001,-3.23697,0.78046
564.531,61.4498,0.8048,-3.23861,0.77824
567.131,61.70939,0.81004,-3.24086,0.77601
569.731,61.9679,0.8085,-3.24256,0.77377
572.331,62.2275,0.82453,-3.24422,0.77153
574.931,62.4863,0.8074,-3.24587,0.76928
577.531,62.74618,0.8016,-3.2485,0.76703
580.131,63.00569,0.79445,-3.25047,0.76477
582.731,63.26611,0.79116,-3.25311,0.76251
585.331,63.52599,0.80173,-3.25452,0.76023
587.931,63.78604,0.80308,-3.25706,0.75796
590.531,64.04587,0.81109,-3.25774,0.75568
593.131,64.30561,0.81631,-3.25969,0.75339
595.731,64.5655,0.81732,-3.262,0.7511
598.331,64.82599,0.8205,-3.26366,0.7488
600.931,65.08588,0.82022,-3.26595,0.7465
603.531,65.34604,0.82126,-3.26693,0.74419
606.131,65.60634,0.83054,-3.26859,0.74187
608.731,65.86712,0.83318,-3.26991,0.73955
611.331,66.12771,0.83004,-3.27125,0.73723
613.931,66.38781,0.85529,-3.27386,0.7349
616.531,66.64832,0.84876,-3.27517,0.73256
619.131,66.9087,0.85487,-3.27649,0.73023
621.731,67.16932,0.8565,-3.27846,0.72788
624.331,67.4297,0.87583,-3.27946,0.72553
626.931,67.69086,0.86646,-3.27919,0.72318
629.531,67.9513,0.86345,-3.28318,0.72082
632.131,68.21161,0.86479,-3.2844,0.71846
634.731,68.47239,0.85444,-3.2857,0.71609
637.331,68.73356,0.86327,-3.28703,0.71371
639.931,68.99495,0.86851,-3.28835,0.71134
642.531,69.2556,0.87563,-3.28968,0.70896
645.131,69.51785,0.87797,-3.29196,0.70657
647.731,69.7793,0.8786,-3.29197,0.70418
649.831,69.99014,0.8844,-3.29197,0.70225