File: 01_Data/Masonite_Board/STA/N2/10K_min/Masonite_Board_STA_N2_10KData_222306_R2.csv
##Temp./Â°C,Time/min,DSC(subtr.)/mW,Mass loss(subtr.)/mg,Sensit./(uV/mW)
49.661,10.00917,0.03707099,-0.02097,1.07019
52.261,11.224,0.44672,-0.02177482,1.06947
54.861,11.62122,0.65985,-0.02134297,1.06875
57.461,11.95238,0.77947,-0.02020801,1.06802
60.061,12.25736,0.87757,-0.02109679,1.06728
62.661,12.54946,0.95365,-0.02305726,1.06654
65.261,12.83549,1.00202,-0.02305808,1.06578
67.861,13.11597,1.04442,-0.02437804,1.06503
70.461,13.3947,1.07921,-0.02569479,1.06426
73.061,13.6698,1.12057,-0.02574421,1.06349
75.661,13.9422,1.15569,-0.02772805,1.06271
78.261,14.2127,1.17713,-0.02901661,1.06192
80.861,14.4801,1.18796,-0.02766999,1.06113
83.461,14.74675,1.20274,-0.03019669,1.06032
86.061,15.01114,1.20497,-0.0302998,1.05952
88.661,15.27297,1.19791,-0.032929,1.0587
91.261,15.5331,1.18786,-0.03293983,1.05788
93.861,15.79277,1.17987,-0.03431016,1.05705
96.461,16.04928,1.16871,-0.03292994,1.05621
99.061,16.3076,1.156,-0.03424959,1.05537
101.661,16.56364,1.16726,-0.03420893,1.05452
104.261,16.81899,1.17734,-0.0355706,1.05366
106.861,17.07389,1.1763,-0.03562029,1.05279
109.461,17.3281,1.17873,-0.03558003,1.05192
112.061,17.582,1.18002,-0.03556642,1.05104
114.661,17.83605,1.17598,-0.03520515,1.05015
117.261,18.08963,1.16695,-0.03820953,1.04926
119.861,18.34244,1.1733,-0.03721956,1.04835
122.461,18.5957,1.17846,-0.03689032,1.04744
125.061,18.8476,1.18093,-0.03722013,1.04653
127.661,19.09989,1.17631,-0.03689071,1.0456
130.261,19.35153,1.18795,-0.03686632,1.04467
132.861,19.60304,1.18772,-0.03816305,1.04373
135.461,19.85393,1.19752,-0.03821003,1.04278
138.061,20.1049,1.1994,-0.03688998,1.04183
140.661,20.35547,1.20869,-0.03689,1.04087
143.261,20.6054,1.21935,-0.03680837,1.0399
145.861,20.85592,1.22616,-0.03820121,1.03892
148.461,21.10601,1.24145,-0.03819237,1.03794
151.061,21.3553,1.25111,-0.03853224,1.03695
153.661,21.60387,1.26521,-0.03821,1.03595
156.261,21.85373,1.26797,-0.03820606,1.03494
158.861,22.1031,1.28016,-0.03820089,1.03393
161.461,22.3518,1.29961,-0.03852936,1.03291
164.061,22.6001,1.30469,-0.03919023,1.03188
166.661,22.84819,1.32112,-0.03861461,1.03084
169.261,23.09763,1.3352,-0.04015432,1.0298
171.861,23.34532,1.35344,-0.03919878,1.02874
174.461,23.5943,1.36244,-0.04084008,1.02768
177.061,23.8422,1.3675,-0.04116999,1.02662
179.661,24.09019,1.37321,-0.04187341,1.02554
182.261,24.33805,1.38502,-0.04181091,1.02446
184.861,24.5855,1.39797,-0.04348,1.02337
187.461,24.83318,1.40477,-0.04348135,1.02227
190.061,25.08091,1.42867,-0.04381209,1.02116
192.661,25.32795,1.41938,-0.04611,1.02005
195.261,25.57552,1.42578,-0.04743,1.01893
197.861,25.82374,1.43564,-0.04743,1.0178
200.461,26.07091,1.44632,-0.05006123,1.01666
203.061,26.3187,1.46357,-0.05006,1.01552
205.661,26.566,1.47909,-0.0510476,1.01436
208.261,26.814,1.49286,-0.05402017,1.0132
210.861,27.06178,1.50906,-0.05500099,1.01203
213.461,27.3084,1.52919,-0.0569931,1.01086
216.061,27.5569,1.54057,-0.05763,1.00967
218.661,27.8042,1.56361,-0.06027,1.00848
221.261,28.05155,1.57216,-0.06258001,1.00728
223.861,28.2986,1.5945,-0.06520999,1.00607
226.461,28.5463,1.60267,-0.06653176,1.00485
229.061,28.7933,1.62474,-0.06983618,1.00363
231.661,29.04134,1.63466,-0.0721081,1.0024
234.261,29.2895,1.64892,-0.07609005,1.00116
236.861,29.5371,1.65796,-0.08052151,0.99991
239.461,29.78544,1.66634,-0.08397209,0.99865
242.061,30.03385,1.67956,-0.08917397,0.99739
244.661,30.28179,1.69603,-0.0942034,0.99612
247.261,30.5301,1.70643,-0.10078,0.99484
249.861,30.7781,1.71544,-0.10605,0.99355
252.461,31.02621,1.73285,-0.11281,0.99225
255.061,31.27412,1.73646,-0.12118,0.99095
257.661,31.52229,1.75151,-0.13101,0.98963
260.261,31.7699,1.75862,-0.14179,0.98831
262.861,32.0173,1.77508,-0.15411,0.98698
265.461,32.26603,1.78225,-0.16756,0.98565
268.061,32.51381,1.78039,-0.18307,0.9843
270.661,32.76146,1.78179,-0.20003,0.98295
273.261,33.00992,1.78597,-0.21699,0.98159
275.861,33.25819,1.78961,-0.2372,0.98022
278.461,33.50639,1.79333,-0.25836,0.97884
281.061,33.75495,1.77388,-0.28481,0.97745
283.661,34.0037,1.76472,-0.31109,0.97606
286.261,34.2524,1.75348,-0.33913,0.97465
288.861,34.5011,1.74634,-0.36977,0.97324
291.461,34.7505,1.73374,-0.3997,0.97182
294.061,34.99933,1.70771,-0.43006,0.9704
296.661,35.2484,1.69553,-0.46429,0.96896
299.261,35.49736,1.68485,-0.49772,0.96752
301.861,35.74665,1.67667,-0.52964,0.96607
304.461,35.99589,1.67637,-0.56324,0.96461
307.061,36.24542,1.67888,-0.59605,0.96314
309.661,36.49443,1.69259,-0.62931,0.96166
312.261,36.74498,1.70979,-0.66387,0.96018
314.861,36.99472,1.73929,-0.69842,0.95868
317.461,37.24425,1.78856,-0.73392,0.95718
320.061,37.49429,1.82725,-0.76956,0.95567
322.661,37.744,1.89682,-0.80884,0.95415
325.261,37.9936,1.96975,-0.84891,0.95263
327.861,38.24389,2.063,-0.89152,0.95109
330.461,38.49418,2.16028,-0.93772,0.94955
333.061,38.7451,2.28438,-0.98769,0.948
335.661,38.99641,2.43691,-1.04241,0.94644
338.261,39.2474,2.60961,-1.0993,0.94487
340.861,39.49873,2.82867,-1.16435,0.9433
343.461,39.75008,3.06208,-1.23583,0.94171
346.061,40.0022,3.33817,-1.31338,0.94012
348.661,40.25399,3.64299,-1.40119,0.93852
351.261,40.50591,3.963,-1.49871,0.93691
353.861,40.75853,4.29584,-1.60586,0.93529
356.461,41.01024,4.59933,-1.72137,0.93367
359.061,41.26332,4.88682,-1.8475,0.93204
361.661,41.51562,5.08004,-1.98273,0.93039
364.261,41.76854,5.15233,-2.12182,0.92874
366.861,42.02094,5.05355,-2.26323,0.92709
369.461,42.2727,4.74511,-2.39684,0.92542
372.061,42.52497,4.20149,-2.52107,0.92374
374.661,42.7761,3.4702,-2.62735,0.92206
377.261,43.02709,2.6205,-2.70971,0.92037
379.861,43.27782,1.78818,-2.77107,0.91867
382.461,43.52871,1.09173,-2.80965,0.91696
385.061,43.7789,0.65584,-2.83383,0.91525
387.661,44.0304,0.40377,-2.84956,0.91352
390.261,44.28235,0.28825,-2.86035,0.91179
392.861,44.53447,0.2378,-2.86861,0.91005
395.461,44.78603,0.19668,-2.87686,0.9083
398.061,45.0387,0.15581,-2.88408,0.90655
400.661,45.2922,0.1102,-2.89205,0.90478
403.261,45.545,0.06522921,-2.89984,0.90301
405.861,45.79864,0.03699286,-2.90662,0.90123
408.461,46.05175,0.007524177,-2.91495,0.89944
411.061,46.30611,-0.03605928,-2.9229,0.89765
413.661,46.55874,-0.0570845,-2.93057,0.89584
416.261,46.81142,-0.09101615,-2.93749,0.89403
418.861,47.0662,-0.10629,-2.94415,0.89221
421.461,47.32079,-0.12156,-2.95248,0.89038
424.061,47.57463,-0.11915,-2.96023,0.88854
426.661,47.82913,-0.10669,-2.96777,0.8867
429.261,48.0841,-0.10138,-2.97591,0.88485
431.861,48.33885,-0.0795003,-2.9826,0.88299
434.461,48.59387,-0.05014385,-2.99023,0.88112
437.061,48.8491,-0.02257284,-2.99664,0.87924
439.661,49.10433,0.00181973,-3.00257,0.87736
442.261,49.35934,0.03739068,-3.00906,0.87547
444.861,49.61518,0.0742341,-3.0151,0.87357
447.461,49.87068,0.10718,-3.02151,0.87166
450.061,50.1255,0.14714,-3.02771,0.86975
452.661,50.381,0.1721,-3.03182,0.86782
455.261,50.63673,0.19763,-3.03595,0.86589
457.861,50.89244,0.21677,-3.04122,0.86396
460.461,51.14825,0.2391,-3.04608,0.86201
463.061,51.4046,0.24896,-3.05002,0.86006
465.661,51.66041,0.28446,-3.05404,0.8581
468.261,51.91612,0.33239,-3.05939,0.85613
470.861,52.17261,0.34995,-3.06197,0.85415
473.461,52.42906,0.3456,-3.06592,0.85217
476.061,52.68642,0.3408,-3.06861,0.85018
478.661,52.94333,0.33892,-3.07314,0.84818
481.261,53.2,0.34665,-3.07589,0.84617
483.861,53.4566,0.35848,-3.07954,0.84416
486.461,53.7133,0.37073,-3.08249,0.84214
489.061,53.97003,0.37318,-3.08555,0.84011
491.661,54.22673,0.3679,-3.08777,0.83808
494.261,54.4836,0.36894,-3.09305,0.83604
496.861,54.74195,0.34245,-3.0947,0.83399
499.461,54.9999,0.30933,-3.09798,0.83193
502.061,55.25781,0.29305,-3.10193,0.82987
504.661,55.51616,0.27836,-3.10325,0.8278
507.261,55.77417,0.27227,-3.1085,0.82572
509.861,56.03196,0.27362,-3.10983,0.82363
512.461,56.28954,0.25508,-3.11148,0.82154
515.061,56.547,0.25549,-3.11477,0.81944
517.661,56.80562,0.23907,-3.11672,0.81734
520.261,57.06375,0.24497,-3.11895,0.81522
522.861,57.322,0.23326,-3.12268,0.8131
525.461,57.58019,0.24126,-3.12531,0.81098
528.061,57.838,0.23905,-3.1273,0.80884
530.661,58.0974,0.2392,-3.13019,0.8067
533.261,58.3557,0.23927,-3.1319,0.80456
535.861,58.61481,0.22746,-3.13558,0.8024
538.461,58.8734,0.22862,-3.13849,0.80024
541.061,59.1323,0.21589,-3.13917,0.79808
543.661,59.3905,0.21452,-3.14145,0.79591
546.261,59.6487,0.21339,-3.14409,0.79373
548.861,59.90764,0.21401,-3.14708,0.79154
551.461,60.16575,0.20821,-3.14875,0.78935
554.061,60.4245,0.20579,-3.15264,0.78715
556.661,60.68284,0.20867,-3.15295,0.78495
559.261,60.9428,0.19787,-3.15528,0.78274
561.861,61.2024,0.19095,-3.15792,0.78052
564.461,61.4619,0.17865,-3.15956,0.77829
567.061,61.72145,0.1798,-3.16219,0.77607
569.661,61.9811,0.17396,-3.1645,0.77383
572.261,62.2404,0.17745,-3.16681,0.77159
574.861,62.5003,0.16433,-3.16813,0.76934
577.461,62.76024,0.16367,-3.17077,0.76709
580.061,63.01981,0.15478,-3.17235,0.76483
582.661,63.27965,0.15217,-3.17538,0.76257
585.261,63.539,0.15862,-3.17538,0.7603
587.861,63.79843,0.156,-3.17802,0.75802
590.461,64.05847,0.17086,-3.17999,0.75574
593.061,64.31818,0.18039,-3.18196,0.75345
595.661,64.57794,0.16781,-3.18295,0.75116
598.261,64.83795,0.17114,-3.1846,0.74886
600.861,65.09833,0.16872,-3.18782,0.74656
603.461,65.35857,0.16159,-3.18822,0.74425
606.061,65.61909,0.16863,-3.19086,0.74194
608.661,65.87943,0.16703,-3.19217,0.73962
611.261,66.1391,0.15728,-3.19448,0.73729
613.861,66.39936,0.16081,-3.19613,0.73496
616.461,66.65897,0.1655,-3.19678,0.73263
619.061,66.91942,0.15678,-3.19876,0.73029
621.661,67.17899,0.15716,-3.19941,0.72794
624.261,67.43904,0.17882,-3.20139,0.72559
626.861,67.69991,0.1752,-3.20271,0.72324
629.461,67.96088,0.1627,-3.20522,0.72088
632.061,68.22166,0.15825,-3.20667,0.71852
634.661,68.48225,0.15072,-3.2073,0.71615
637.261,68.74252,0.15538,-3.208,0.71378
639.861,69.00347,0.14843,-3.20968,0.7114
642.461,69.26462,0.14899,-3.21055,0.70902
645.061,69.52553,0.15675,-3.21163,0.70663
647.661,69.78668,0.14681,-3.21366,0.70424
649.761,69.99778,0.1439,-3.21423,0.70231