File: 01_Data/Nylon_Carpet_Low_Pile/FTIR/IS/Nylon_Carpet_Low_Pile_IS_S_221122_R8.dpt
7497.03,0.73798
7473.89,0.73152
7450.74,0.71989
7427.6,0.71815
7404.45,0.71926
7381.31,0.71102
7358.16,0.71464
7335.02,0.68855
7311.87,0.68930
7288.73,0.66882
7265.58,0.64609
7242.44,0.64212
7219.29,0.62282
7196.15,0.62536
7173,0.63412
7149.86,0.62113
7126.71,0.61651
7103.57,0.62518
7080.42,0.61372
7057.28,0.61813
7034.13,0.62570
7010.99,0.62132
6987.84,0.63368
6964.7,0.64177
6941.55,0.64072
6918.41,0.65138
6895.26,0.65414
6872.12,0.64951
6848.97,0.64855
6825.83,0.65449
6802.68,0.65080
6779.54,0.63497
6756.39,0.62624
6733.25,0.62310
6710.1,0.62155
6686.96,0.61689
6663.82,0.59920
6640.67,0.58876
6617.53,0.56259
6594.38,0.56339
6571.24,0.56225
6548.09,0.54863
6524.95,0.53477
6501.8,0.52564
6478.66,0.53768
6455.51,0.57620
6432.37,0.59712
6409.22,0.59477
6386.08,0.58170
6362.93,0.56319
6339.79,0.56248
6316.64,0.57871
6293.5,0.58702
6270.35,0.58154
6247.21,0.57519
6224.06,0.58061
6200.92,0.58569
6177.77,0.59668
6154.63,0.61746
6131.48,0.63509
6108.34,0.63725
6085.19,0.64299
6062.05,0.63694
6038.9,0.63211
6015.76,0.63229
5992.61,0.61870
5969.47,0.60751
5946.32,0.58989
5923.18,0.56055
5900.03,0.51068
5876.89,0.46309
5853.74,0.42218
5830.6,0.40594
5807.45,0.40643
5784.31,0.42518
5761.16,0.43831
5738.02,0.43096
5714.87,0.41807
5691.73,0.42554
5668.58,0.44322
5645.44,0.46928
5622.29,0.48644
5599.15,0.49302
5576,0.49771
5552.86,0.50189
5529.71,0.50286
5506.57,0.51309
5483.42,0.51446
5460.28,0.51625
5437.13,0.52135
5413.99,0.52676
5390.84,0.53449
5367.7,0.54258
5344.55,0.54642
5321.41,0.54784
5298.26,0.54404
5275.12,0.53481
5251.97,0.52830
5228.83,0.52194
5205.68,0.51080
5182.54,0.50014
5159.39,0.49112
5136.25,0.48481
5113.1,0.48402
5089.96,0.49016
5066.81,0.49251
5043.67,0.49438
5020.52,0.48534
4997.38,0.45933
4974.23,0.41719
4951.09,0.40632
4927.94,0.40107
4904.8,0.36253
4881.65,0.30766
4858.51,0.32423
4835.36,0.40059
4812.22,0.43362
4789.07,0.43088
4765.93,0.42259
4742.78,0.40929
4719.64,0.38965
4696.49,0.36418
4673.35,0.35867
4650.2,0.35821
4627.06,0.33968
4603.92,0.32021
4580.77,0.30942
4557.63,0.31353
4534.48,0.32322
4511.34,0.33373
4488.19,0.34612
4465.05,0.34513
4441.9,0.32927
4418.76,0.29564
4395.61,0.25668
4372.47,0.20498
4349.32,0.18714
4326.18,0.22406
4303.03,0.24359
4279.89,0.22846
4256.74,0.21153
4233.6,0.21448
4210.45,0.21305
4187.31,0.21665
4164.16,0.23456
4141.02,0.25229
4117.87,0.26246
4094.73,0.26156
4071.58,0.26134
4048.44,0.24347
4025.29,0.23298
4002.15,0.24256
3979,0.26589
3955.86,0.27868
3932.71,0.28947
3909.57,0.30788
3886.42,0.31813
3863.28,0.31964
3840.13,0.32184
3816.99,0.33084
3793.84,0.34275
3770.7,0.33890
3747.55,0.33528
3724.41,0.34651
3701.26,0.33205
3678.12,0.28953
3654.97,0.27255
3631.83,0.23654
3608.68,0.20529
3585.54,0.17451
3562.39,0.14397
3539.25,0.11690
3516.1,0.09417
3492.96,0.08128
3469.81,0.07411
3446.67,0.06467
3423.52,0.05635
3400.38,0.04494
3377.23,0.03213
3354.09,0.02458
3330.94,0.02152
3307.8,0.02129
3284.65,0.02398
3261.51,0.02457
3238.36,0.02638
3215.22,0.02953
3192.07,0.03391
3168.93,0.04153
3145.78,0.04685
3122.64,0.04135
3099.49,0.03047
3076.35,0.03030
3053.2,0.03681
3030.06,0.05187
3006.91,0.05562
2983.77,0.03961
2960.62,0.02294
2937.48,0.02225
2914.33,0.02441
2891.19,0.02600
2868.04,0.02394
2844.9,0.03001
2821.75,0.04985
2798.61,0.06650
2775.46,0.08104
2752.32,0.08796
2729.17,0.09670
2706.03,0.11426
2682.88,0.12353
2659.74,0.12921
2636.59,0.13707
2613.45,0.14516
2590.3,0.15221
2567.16,0.15762
2544.02,0.15862
2520.87,0.17829
2497.73,0.18753
2474.58,0.18487
2451.44,0.20122
2428.29,0.21463
2405.15,0.21729
2382,0.21862
2358.86,0.22411
2335.71,0.22096
2312.57,0.22346
2289.42,0.22891
2266.28,0.23376
2243.13,0.24257
2219.99,0.23603
2196.84,0.22032
2173.7,0.22600
2150.55,0.23078
2127.41,0.22932
2104.26,0.23940
2081.12,0.23333
2057.97,0.23429
2034.83,0.23542
2011.68,0.24763
1988.54,0.24683
1965.39,0.24957
1942.25,0.25397
1919.1,0.25294
1895.96,0.23771
1872.81,0.24191
1849.67,0.23475
1826.52,0.21692
1803.38,0.19562
1780.23,0.16461
1757.09,0.11296
1733.94,0.06525
1710.8,0.05679
1687.65,0.02523
1664.51,0.01652
1641.36,0.03183
1618.22,0.02676
1595.07,0.02436
1571.93,0.01967
1548.78,0.02551
1525.64,0.03012
1502.49,0.03021
1479.35,0.02608
1456.2,0.02621
1433.06,0.02680
1409.91,0.03026
1386.77,0.02650
1363.62,0.02602
1340.48,0.02915
1317.33,0.02814
1294.19,0.02657
1271.04,0.02475
1247.9,0.02821
1224.75,0.03312
1201.61,0.02911
1178.46,0.03313
1155.32,0.04987
1132.17,0.06379
1109.03,0.05539
1085.88,0.06510
1062.74,0.07383
1039.59,0.07327
1016.45,0.09613
993.304,0.08790
970.159,0.07213
947.014,0.09345
923.869,0.08131
900.724,0.12540
877.579,0.12870
854.434,0.12243
831.289,0.09520
808.144,0.08819
784.999,0.05814
761.854,0.04365
738.709,0.03157
715.565,0.02682
692.42,0.02826
669.275,0.03550
646.13,0.04848
622.985,0.04410
599.84,0.04501