File: 01_Data/Nylon_Carpet_Low_Pile/FTIR/IS/Nylon_Carpet_Low_Pile_IS_S_221122_R1.dpt
7497.03,0.71852
7473.89,0.71645
7450.74,0.71248
7427.6,0.71982
7404.45,0.71156
7381.31,0.71344
7358.16,0.71429
7335.02,0.70896
7311.87,0.69024
7288.73,0.65805
7265.58,0.65072
7242.44,0.63057
7219.29,0.62084
7196.15,0.63070
7173,0.62757
7149.86,0.62455
7126.71,0.62059
7103.57,0.61782
7080.42,0.60736
7057.28,0.61955
7034.13,0.62791
7010.99,0.61988
6987.84,0.62547
6964.7,0.63250
6941.55,0.63131
6918.41,0.64649
6895.26,0.64387
6872.12,0.64599
6848.97,0.64909
6825.83,0.65530
6802.68,0.64954
6779.54,0.63658
6756.39,0.62187
6733.25,0.62638
6710.1,0.61990
6686.96,0.60787
6663.82,0.60056
6640.67,0.58491
6617.53,0.56811
6594.38,0.56358
6571.24,0.56046
6548.09,0.54732
6524.95,0.53314
6501.8,0.52736
6478.66,0.53949
6455.51,0.56855
6432.37,0.59766
6409.22,0.58730
6386.08,0.58095
6362.93,0.55829
6339.79,0.55938
6316.64,0.57454
6293.5,0.58544
6270.35,0.57731
6247.21,0.56874
6224.06,0.57441
6200.92,0.58357
6177.77,0.59777
6154.63,0.61659
6131.48,0.63105
6108.34,0.64067
6085.19,0.63862
6062.05,0.63760
6038.9,0.63214
6015.76,0.62290
5992.61,0.61596
5969.47,0.60571
5946.32,0.59146
5923.18,0.55939
5900.03,0.50822
5876.89,0.45979
5853.74,0.41956
5830.6,0.40236
5807.45,0.40470
5784.31,0.42283
5761.16,0.43471
5738.02,0.43128
5714.87,0.41683
5691.73,0.42342
5668.58,0.44510
5645.44,0.46463
5622.29,0.48590
5599.15,0.49037
5576,0.49655
5552.86,0.49933
5529.71,0.50378
5506.57,0.50791
5483.42,0.51100
5460.28,0.51335
5437.13,0.51739
5413.99,0.52414
5390.84,0.53149
5367.7,0.54054
5344.55,0.54360
5321.41,0.54335
5298.26,0.53995
5275.12,0.52855
5251.97,0.52118
5228.83,0.51266
5205.68,0.50332
5182.54,0.49250
5159.39,0.48233
5136.25,0.47540
5113.1,0.47564
5089.96,0.48199
5066.81,0.48780
5043.67,0.48789
5020.52,0.48152
4997.38,0.45777
4974.23,0.41471
4951.09,0.40288
4927.94,0.39782
4904.8,0.36019
4881.65,0.30731
4858.51,0.32241
4835.36,0.39933
4812.22,0.43204
4789.07,0.42808
4765.93,0.42115
4742.78,0.40764
4719.64,0.38769
4696.49,0.36222
4673.35,0.35714
4650.2,0.35759
4627.06,0.33876
4603.92,0.31908
4580.77,0.30863
4557.63,0.31241
4534.48,0.32144
4511.34,0.33284
4488.19,0.34512
4465.05,0.34337
4441.9,0.32814
4418.76,0.29504
4395.61,0.25624
4372.47,0.20509
4349.32,0.18695
4326.18,0.22379
4303.03,0.24356
4279.89,0.22848
4256.74,0.21044
4233.6,0.21361
4210.45,0.21270
4187.31,0.21666
4164.16,0.23402
4141.02,0.25241
4117.87,0.26147
4094.73,0.26081
4071.58,0.26019
4048.44,0.24295
4025.29,0.23222
4002.15,0.24175
3979,0.26596
3955.86,0.27837
3932.71,0.28810
3909.57,0.30666
3886.42,0.31588
3863.28,0.31720
3840.13,0.31799
3816.99,0.32774
3793.84,0.34042
3770.7,0.33576
3747.55,0.32954
3724.41,0.34074
3701.26,0.32699
3678.12,0.27829
3654.97,0.26038
3631.83,0.22319
3608.68,0.18946
3585.54,0.15877
3562.39,0.12890
3539.25,0.10394
3516.1,0.08331
3492.96,0.07222
3469.81,0.06562
3446.67,0.05842
3423.52,0.05224
3400.38,0.04234
3377.23,0.03176
3354.09,0.02458
3330.94,0.02232
3307.8,0.02175
3284.65,0.02391
3261.51,0.02504
3238.36,0.02681
3215.22,0.02926
3192.07,0.03304
3168.93,0.04108
3145.78,0.04542
3122.64,0.04016
3099.49,0.03106
3076.35,0.02978
3053.2,0.03596
3030.06,0.05129
3006.91,0.05448
2983.77,0.03935
2960.62,0.02310
2937.48,0.02267
2914.33,0.02476
2891.19,0.02613
2868.04,0.02380
2844.9,0.02974
2821.75,0.04931
2798.61,0.06631
2775.46,0.08075
2752.32,0.08796
2729.17,0.09708
2706.03,0.11343
2682.88,0.12290
2659.74,0.12852
2636.59,0.13688
2613.45,0.14452
2590.3,0.15122
2567.16,0.15706
2544.02,0.15853
2520.87,0.17747
2497.73,0.18584
2474.58,0.18428
2451.44,0.19992
2428.29,0.21365
2405.15,0.21648
2382,0.21715
2358.86,0.21630
2335.71,0.21446
2312.57,0.21934
2289.42,0.22690
2266.28,0.23112
2243.13,0.24001
2219.99,0.23268
2196.84,0.21703
2173.7,0.22250
2150.55,0.22689
2127.41,0.22563
2104.26,0.23606
2081.12,0.23042
2057.97,0.23178
2034.83,0.23319
2011.68,0.24521
1988.54,0.24439
1965.39,0.24775
1942.25,0.25222
1919.1,0.25074
1895.96,0.23615
1872.81,0.24059
1849.67,0.23318
1826.52,0.21494
1803.38,0.19390
1780.23,0.16343
1757.09,0.11195
1733.94,0.06513
1710.8,0.05664
1687.65,0.02538
1664.51,0.01616
1641.36,0.03146
1618.22,0.02640
1595.07,0.02400
1571.93,0.01954
1548.78,0.02549
1525.64,0.03016
1502.49,0.02929
1479.35,0.02648
1456.2,0.02586
1433.06,0.02660
1409.91,0.03034
1386.77,0.02628
1363.62,0.02606
1340.48,0.02944
1317.33,0.02803
1294.19,0.02630
1271.04,0.02522
1247.9,0.02840
1224.75,0.03377
1201.61,0.02930
1178.46,0.03247
1155.32,0.04948
1132.17,0.06356
1109.03,0.05492
1085.88,0.06500
1062.74,0.07368
1039.59,0.07246
1016.45,0.09517
993.304,0.08769
970.159,0.07146
947.014,0.09241
923.869,0.08087
900.724,0.12370
877.579,0.12773
854.434,0.12084
831.289,0.09372
808.144,0.08653
784.999,0.05835
761.854,0.04313
738.709,0.03097
715.565,0.02550
692.42,0.02845
669.275,0.03587
646.13,0.04885
622.985,0.04547
599.84,0.04446