File: 01_Data/Nylon_Carpet_Low_Pile/FTIR/IS/Nylon_Carpet_Low_Pile_IS_S_221122_R4.dpt
7497.03,0.72427
7473.89,0.72994
7450.74,0.72160
7427.6,0.73092
7404.45,0.71474
7381.31,0.71866
7358.16,0.70352
7335.02,0.70805
7311.87,0.69258
7288.73,0.66321
7265.58,0.64986
7242.44,0.63527
7219.29,0.62472
7196.15,0.62383
7173,0.62277
7149.86,0.63073
7126.71,0.62283
7103.57,0.62101
7080.42,0.61912
7057.28,0.62185
7034.13,0.62767
7010.99,0.62191
6987.84,0.63268
6964.7,0.63212
6941.55,0.63738
6918.41,0.64923
6895.26,0.64574
6872.12,0.65076
6848.97,0.65592
6825.83,0.65964
6802.68,0.65308
6779.54,0.64251
6756.39,0.62079
6733.25,0.62000
6710.1,0.61748
6686.96,0.61623
6663.82,0.60771
6640.67,0.58797
6617.53,0.56800
6594.38,0.56675
6571.24,0.56062
6548.09,0.55405
6524.95,0.53303
6501.8,0.52856
6478.66,0.53503
6455.51,0.57661
6432.37,0.59295
6409.22,0.59672
6386.08,0.57986
6362.93,0.56483
6339.79,0.55898
6316.64,0.58248
6293.5,0.58893
6270.35,0.58398
6247.21,0.57292
6224.06,0.57641
6200.92,0.58805
6177.77,0.59944
6154.63,0.61901
6131.48,0.63780
6108.34,0.63939
6085.19,0.63950
6062.05,0.63943
6038.9,0.63466
6015.76,0.63022
5992.61,0.61817
5969.47,0.60720
5946.32,0.59048
5923.18,0.56088
5900.03,0.51153
5876.89,0.45939
5853.74,0.42305
5830.6,0.40398
5807.45,0.40867
5784.31,0.42437
5761.16,0.43627
5738.02,0.43022
5714.87,0.41642
5691.73,0.42294
5668.58,0.44398
5645.44,0.46844
5622.29,0.48411
5599.15,0.49195
5576,0.49859
5552.86,0.50485
5529.71,0.50444
5506.57,0.51034
5483.42,0.51311
5460.28,0.51736
5437.13,0.52088
5413.99,0.52801
5390.84,0.53271
5367.7,0.54207
5344.55,0.54676
5321.41,0.54802
5298.26,0.54363
5275.12,0.53333
5251.97,0.52569
5228.83,0.51986
5205.68,0.51141
5182.54,0.49967
5159.39,0.48929
5136.25,0.48409
5113.1,0.48250
5089.96,0.48811
5066.81,0.49270
5043.67,0.49304
5020.52,0.48491
4997.38,0.46050
4974.23,0.41555
4951.09,0.40600
4927.94,0.40083
4904.8,0.36083
4881.65,0.30821
4858.51,0.32409
4835.36,0.40135
4812.22,0.43365
4789.07,0.43120
4765.93,0.42162
4742.78,0.40886
4719.64,0.38879
4696.49,0.36483
4673.35,0.35851
4650.2,0.35915
4627.06,0.33860
4603.92,0.32059
4580.77,0.30959
4557.63,0.31423
4534.48,0.32260
4511.34,0.33463
4488.19,0.34745
4465.05,0.34501
4441.9,0.32915
4418.76,0.29605
4395.61,0.25762
4372.47,0.20574
4349.32,0.18783
4326.18,0.22527
4303.03,0.24466
4279.89,0.22873
4256.74,0.21096
4233.6,0.21389
4210.45,0.21296
4187.31,0.21724
4164.16,0.23462
4141.02,0.25292
4117.87,0.26251
4094.73,0.26164
4071.58,0.26189
4048.44,0.24422
4025.29,0.23359
4002.15,0.24290
3979,0.26666
3955.86,0.27922
3932.71,0.28949
3909.57,0.30808
3886.42,0.31919
3863.28,0.32005
3840.13,0.32237
3816.99,0.33127
3793.84,0.34274
3770.7,0.33912
3747.55,0.33540
3724.41,0.34583
3701.26,0.33150
3678.12,0.28739
3654.97,0.27001
3631.83,0.23275
3608.68,0.20103
3585.54,0.17048
3562.39,0.13938
3539.25,0.11243
3516.1,0.09090
3492.96,0.07819
3469.81,0.07123
3446.67,0.06321
3423.52,0.05468
3400.38,0.04368
3377.23,0.03216
3354.09,0.02419
3330.94,0.02179
3307.8,0.02149
3284.65,0.02473
3261.51,0.02492
3238.36,0.02662
3215.22,0.03015
3192.07,0.03320
3168.93,0.04157
3145.78,0.04601
3122.64,0.04067
3099.49,0.03174
3076.35,0.03028
3053.2,0.03692
3030.06,0.05233
3006.91,0.05553
2983.77,0.03964
2960.62,0.02304
2937.48,0.02207
2914.33,0.02421
2891.19,0.02582
2868.04,0.02387
2844.9,0.02954
2821.75,0.05003
2798.61,0.06680
2775.46,0.08091
2752.32,0.08804
2729.17,0.09734
2706.03,0.11394
2682.88,0.12366
2659.74,0.12915
2636.59,0.13719
2613.45,0.14485
2590.3,0.15241
2567.16,0.15787
2544.02,0.15920
2520.87,0.17816
2497.73,0.18704
2474.58,0.18505
2451.44,0.20128
2428.29,0.21460
2405.15,0.21711
2382,0.21847
2358.86,0.21859
2335.71,0.21724
2312.57,0.22118
2289.42,0.22909
2266.28,0.23289
2243.13,0.24222
2219.99,0.23543
2196.84,0.21951
2173.7,0.22507
2150.55,0.22968
2127.41,0.22862
2104.26,0.23890
2081.12,0.23237
2057.97,0.23388
2034.83,0.23526
2011.68,0.24739
1988.54,0.24643
1965.39,0.24972
1942.25,0.25367
1919.1,0.25291
1895.96,0.23785
1872.81,0.24252
1849.67,0.23477
1826.52,0.21694
1803.38,0.19569
1780.23,0.16475
1757.09,0.11303
1733.94,0.06546
1710.8,0.05692
1687.65,0.02560
1664.51,0.01619
1641.36,0.03181
1618.22,0.02627
1595.07,0.02457
1571.93,0.01954
1548.78,0.02529
1525.64,0.03031
1502.49,0.02960
1479.35,0.02625
1456.2,0.02564
1433.06,0.02631
1409.91,0.03053
1386.77,0.02637
1363.62,0.02638
1340.48,0.02928
1317.33,0.02815
1294.19,0.02611
1271.04,0.02489
1247.9,0.02821
1224.75,0.03340
1201.61,0.02867
1178.46,0.03299
1155.32,0.04941
1132.17,0.06347
1109.03,0.05522
1085.88,0.06533
1062.74,0.07348
1039.59,0.07284
1016.45,0.09585
993.304,0.08815
970.159,0.07290
947.014,0.09305
923.869,0.08119
900.724,0.12400
877.579,0.12835
854.434,0.12179
831.289,0.09553
808.144,0.08756
784.999,0.05884
761.854,0.04334
738.709,0.02984
715.565,0.02603
692.42,0.02768
669.275,0.03881
646.13,0.04906
622.985,0.04566
599.84,0.04544