File: 01_Data/Nylon_Carpet_Low_Pile/FTIR/IS/Nylon_Carpet_Low_Pile_IS_S_221122_R2.dpt
7497.03,0.73115
7473.89,0.72453
7450.74,0.72172
7427.6,0.72036
7404.45,0.72418
7381.31,0.71399
7358.16,0.70943
7335.02,0.69055
7311.87,0.68748
7288.73,0.67186
7265.58,0.65796
7242.44,0.64174
7219.29,0.62267
7196.15,0.61683
7173,0.62949
7149.86,0.62159
7126.71,0.62257
7103.57,0.61580
7080.42,0.61067
7057.28,0.62144
7034.13,0.62528
7010.99,0.62084
6987.84,0.63477
6964.7,0.64161
6941.55,0.63938
6918.41,0.64817
6895.26,0.65189
6872.12,0.65660
6848.97,0.66020
6825.83,0.64833
6802.68,0.64883
6779.54,0.64004
6756.39,0.62932
6733.25,0.62090
6710.1,0.62598
6686.96,0.61487
6663.82,0.60350
6640.67,0.58550
6617.53,0.56252
6594.38,0.56064
6571.24,0.55864
6548.09,0.54782
6524.95,0.53706
6501.8,0.52673
6478.66,0.53758
6455.51,0.57346
6432.37,0.59711
6409.22,0.59348
6386.08,0.57989
6362.93,0.56070
6339.79,0.56268
6316.64,0.57659
6293.5,0.58524
6270.35,0.57529
6247.21,0.57383
6224.06,0.57626
6200.92,0.58622
6177.77,0.59786
6154.63,0.61808
6131.48,0.63587
6108.34,0.63982
6085.19,0.64036
6062.05,0.63530
6038.9,0.63564
6015.76,0.62848
5992.61,0.61942
5969.47,0.60682
5946.32,0.59258
5923.18,0.55832
5900.03,0.50713
5876.89,0.45798
5853.74,0.42306
5830.6,0.40331
5807.45,0.40785
5784.31,0.42660
5761.16,0.43577
5738.02,0.43238
5714.87,0.41461
5691.73,0.42333
5668.58,0.44238
5645.44,0.46860
5622.29,0.48711
5599.15,0.48938
5576,0.49743
5552.86,0.50312
5529.71,0.50460
5506.57,0.50947
5483.42,0.51491
5460.28,0.51717
5437.13,0.52073
5413.99,0.52715
5390.84,0.53249
5367.7,0.54316
5344.55,0.54494
5321.41,0.54692
5298.26,0.54298
5275.12,0.53292
5251.97,0.52457
5228.83,0.51731
5205.68,0.50729
5182.54,0.49659
5159.39,0.48754
5136.25,0.47987
5113.1,0.47927
5089.96,0.48467
5066.81,0.49017
5043.67,0.49155
5020.52,0.48128
4997.38,0.45926
4974.23,0.41669
4951.09,0.40630
4927.94,0.39944
4904.8,0.36141
4881.65,0.30870
4858.51,0.32514
4835.36,0.40157
4812.22,0.43313
4789.07,0.43096
4765.93,0.42178
4742.78,0.40906
4719.64,0.38737
4696.49,0.36394
4673.35,0.35832
4650.2,0.35879
4627.06,0.33942
4603.92,0.32018
4580.77,0.31034
4557.63,0.31426
4534.48,0.32263
4511.34,0.33468
4488.19,0.34582
4465.05,0.34476
4441.9,0.32920
4418.76,0.29572
4395.61,0.25722
4372.47,0.20484
4349.32,0.18694
4326.18,0.22484
4303.03,0.24381
4279.89,0.22777
4256.74,0.21076
4233.6,0.21357
4210.45,0.21433
4187.31,0.21681
4164.16,0.23550
4141.02,0.25284
4117.87,0.26207
4094.73,0.26166
4071.58,0.26174
4048.44,0.24446
4025.29,0.23378
4002.15,0.24268
3979,0.26647
3955.86,0.27872
3932.71,0.28912
3909.57,0.30833
3886.42,0.31835
3863.28,0.32017
3840.13,0.32133
3816.99,0.33085
3793.84,0.34200
3770.7,0.33915
3747.55,0.33497
3724.41,0.34572
3701.26,0.33032
3678.12,0.28411
3654.97,0.26641
3631.83,0.22940
3608.68,0.19640
3585.54,0.16537
3562.39,0.13486
3539.25,0.10798
3516.1,0.08731
3492.96,0.07525
3469.81,0.06811
3446.67,0.06068
3423.52,0.05413
3400.38,0.04301
3377.23,0.03183
3354.09,0.02467
3330.94,0.02193
3307.8,0.02128
3284.65,0.02358
3261.51,0.02513
3238.36,0.02748
3215.22,0.02962
3192.07,0.03252
3168.93,0.04071
3145.78,0.04638
3122.64,0.04075
3099.49,0.03101
3076.35,0.02936
3053.2,0.03614
3030.06,0.05192
3006.91,0.05506
2983.77,0.03921
2960.62,0.02314
2937.48,0.02247
2914.33,0.02390
2891.19,0.02646
2868.04,0.02393
2844.9,0.03010
2821.75,0.04955
2798.61,0.06662
2775.46,0.08105
2752.32,0.08796
2729.17,0.09729
2706.03,0.11447
2682.88,0.12314
2659.74,0.12887
2636.59,0.13749
2613.45,0.14516
2590.3,0.15222
2567.16,0.15757
2544.02,0.15890
2520.87,0.17777
2497.73,0.18789
2474.58,0.18527
2451.44,0.20072
2428.29,0.21453
2405.15,0.21717
2382,0.21852
2358.86,0.22272
2335.71,0.21944
2312.57,0.22179
2289.42,0.22865
2266.28,0.23244
2243.13,0.24134
2219.99,0.23440
2196.84,0.21868
2173.7,0.22387
2150.55,0.22888
2127.41,0.22728
2104.26,0.23801
2081.12,0.23168
2057.97,0.23315
2034.83,0.23451
2011.68,0.24682
1988.54,0.24606
1965.39,0.24917
1942.25,0.25335
1919.1,0.25273
1895.96,0.23723
1872.81,0.24166
1849.67,0.23448
1826.52,0.21683
1803.38,0.19568
1780.23,0.16458
1757.09,0.11292
1733.94,0.06548
1710.8,0.05668
1687.65,0.02537
1664.51,0.01614
1641.36,0.03189
1618.22,0.02630
1595.07,0.02463
1571.93,0.01952
1548.78,0.02580
1525.64,0.03063
1502.49,0.02927
1479.35,0.02589
1456.2,0.02606
1433.06,0.02628
1409.91,0.03014
1386.77,0.02652
1363.62,0.02595
1340.48,0.02935
1317.33,0.02826
1294.19,0.02628
1271.04,0.02489
1247.9,0.02813
1224.75,0.03348
1201.61,0.02946
1178.46,0.03269
1155.32,0.04997
1132.17,0.06328
1109.03,0.05536
1085.88,0.06518
1062.74,0.07319
1039.59,0.07297
1016.45,0.09543
993.304,0.08742
970.159,0.07179
947.014,0.09262
923.869,0.08145
900.724,0.12375
877.579,0.12777
854.434,0.12189
831.289,0.09414
808.144,0.08813
784.999,0.05861
761.854,0.04392
738.709,0.02991
715.565,0.02593
692.42,0.02802
669.275,0.03628
646.13,0.04733
622.985,0.04365
599.84,0.04286