File: 01_Data/Nylon_Carpet_Low_Pile/FTIR/IS/Nylon_Carpet_Low_Pile_IS_S_221122_R3.dpt
7497.03,0.71721
7473.89,0.73368
7450.74,0.72552
7427.6,0.72257
7404.45,0.72125
7381.31,0.71115
7358.16,0.69771
7335.02,0.70037
7311.87,0.68454
7288.73,0.66354
7265.58,0.65012
7242.44,0.64367
7219.29,0.62339
7196.15,0.62245
7173,0.62890
7149.86,0.62168
7126.71,0.62221
7103.57,0.62438
7080.42,0.61389
7057.28,0.62703
7034.13,0.63060
7010.99,0.62695
6987.84,0.63551
6964.7,0.63822
6941.55,0.63508
6918.41,0.64314
6895.26,0.64929
6872.12,0.64832
6848.97,0.65762
6825.83,0.65264
6802.68,0.65227
6779.54,0.63791
6756.39,0.62896
6733.25,0.62549
6710.1,0.62789
6686.96,0.61511
6663.82,0.60549
6640.67,0.57824
6617.53,0.56663
6594.38,0.56487
6571.24,0.55809
6548.09,0.54770
6524.95,0.53408
6501.8,0.52697
6478.66,0.53825
6455.51,0.57391
6432.37,0.59903
6409.22,0.59346
6386.08,0.57647
6362.93,0.56270
6339.79,0.56144
6316.64,0.57727
6293.5,0.58638
6270.35,0.57903
6247.21,0.56833
6224.06,0.57593
6200.92,0.58862
6177.77,0.59686
6154.63,0.61955
6131.48,0.63660
6108.34,0.64201
6085.19,0.64375
6062.05,0.63521
6038.9,0.63238
6015.76,0.62750
5992.61,0.61800
5969.47,0.60653
5946.32,0.59120
5923.18,0.56071
5900.03,0.50861
5876.89,0.45780
5853.74,0.42297
5830.6,0.40408
5807.45,0.40841
5784.31,0.42585
5761.16,0.43873
5738.02,0.43089
5714.87,0.41699
5691.73,0.42451
5668.58,0.44359
5645.44,0.46725
5622.29,0.48669
5599.15,0.49292
5576,0.49644
5552.86,0.50062
5529.71,0.50518
5506.57,0.51001
5483.42,0.51334
5460.28,0.51571
5437.13,0.52189
5413.99,0.52562
5390.84,0.53315
5367.7,0.54171
5344.55,0.54631
5321.41,0.54631
5298.26,0.54220
5275.12,0.53211
5251.97,0.52684
5228.83,0.51728
5205.68,0.50835
5182.54,0.49944
5159.39,0.48779
5136.25,0.48240
5113.1,0.48124
5089.96,0.48657
5066.81,0.49011
5043.67,0.49070
5020.52,0.48413
4997.38,0.45990
4974.23,0.41583
4951.09,0.40633
4927.94,0.39940
4904.8,0.36096
4881.65,0.30707
4858.51,0.32358
4835.36,0.40067
4812.22,0.43342
4789.07,0.42930
4765.93,0.42273
4742.78,0.40855
4719.64,0.38989
4696.49,0.36308
4673.35,0.35796
4650.2,0.35868
4627.06,0.34029
4603.92,0.32023
4580.77,0.30946
4557.63,0.31211
4534.48,0.32295
4511.34,0.33365
4488.19,0.34675
4465.05,0.34480
4441.9,0.32922
4418.76,0.29621
4395.61,0.25702
4372.47,0.20494
4349.32,0.18700
4326.18,0.22493
4303.03,0.24394
4279.89,0.22887
4256.74,0.21086
4233.6,0.21412
4210.45,0.21408
4187.31,0.21710
4164.16,0.23452
4141.02,0.25309
4117.87,0.26163
4094.73,0.26114
4071.58,0.26154
4048.44,0.24409
4025.29,0.23276
4002.15,0.24186
3979,0.26644
3955.86,0.27902
3932.71,0.28937
3909.57,0.30795
3886.42,0.31811
3863.28,0.32053
3840.13,0.32217
3816.99,0.33034
3793.84,0.34217
3770.7,0.33845
3747.55,0.33454
3724.41,0.34514
3701.26,0.33052
3678.12,0.28543
3654.97,0.26920
3631.83,0.23142
3608.68,0.19903
3585.54,0.16827
3562.39,0.13737
3539.25,0.11002
3516.1,0.08943
3492.96,0.07691
3469.81,0.07074
3446.67,0.06222
3423.52,0.05440
3400.38,0.04299
3377.23,0.03278
3354.09,0.02472
3330.94,0.02114
3307.8,0.02180
3284.65,0.02427
3261.51,0.02407
3238.36,0.02688
3215.22,0.02987
3192.07,0.03309
3168.93,0.04106
3145.78,0.04578
3122.64,0.04127
3099.49,0.03100
3076.35,0.02946
3053.2,0.03675
3030.06,0.05174
3006.91,0.05559
2983.77,0.03940
2960.62,0.02352
2937.48,0.02256
2914.33,0.02379
2891.19,0.02588
2868.04,0.02380
2844.9,0.02978
2821.75,0.04980
2798.61,0.06671
2775.46,0.08114
2752.32,0.08821
2729.17,0.09709
2706.03,0.11373
2682.88,0.12367
2659.74,0.12856
2636.59,0.13715
2613.45,0.14518
2590.3,0.15180
2567.16,0.15756
2544.02,0.15867
2520.87,0.17809
2497.73,0.18746
2474.58,0.18494
2451.44,0.20077
2428.29,0.21464
2405.15,0.21744
2382,0.21800
2358.86,0.21919
2335.71,0.21698
2312.57,0.22141
2289.42,0.22874
2266.28,0.23245
2243.13,0.24157
2219.99,0.23492
2196.84,0.21888
2173.7,0.22426
2150.55,0.22952
2127.41,0.22823
2104.26,0.23822
2081.12,0.23232
2057.97,0.23360
2034.83,0.23448
2011.68,0.24679
1988.54,0.24637
1965.39,0.24963
1942.25,0.25318
1919.1,0.25251
1895.96,0.23715
1872.81,0.24224
1849.67,0.23448
1826.52,0.21654
1803.38,0.19528
1780.23,0.16471
1757.09,0.11272
1733.94,0.06534
1710.8,0.05666
1687.65,0.02559
1664.51,0.01628
1641.36,0.03206
1618.22,0.02663
1595.07,0.02437
1571.93,0.01980
1548.78,0.02561
1525.64,0.03013
1502.49,0.02976
1479.35,0.02580
1456.2,0.02565
1433.06,0.02633
1409.91,0.03023
1386.77,0.02669
1363.62,0.02640
1340.48,0.02964
1317.33,0.02836
1294.19,0.02661
1271.04,0.02480
1247.9,0.02844
1224.75,0.03344
1201.61,0.02971
1178.46,0.03296
1155.32,0.04994
1132.17,0.06381
1109.03,0.05501
1085.88,0.06563
1062.74,0.07383
1039.59,0.07284
1016.45,0.09550
993.304,0.08832
970.159,0.07226
947.014,0.09265
923.869,0.08166
900.724,0.12474
877.579,0.12821
854.434,0.12170
831.289,0.09541
808.144,0.08767
784.999,0.05887
761.854,0.04356
738.709,0.03021
715.565,0.02628
692.42,0.02812
669.275,0.03663
646.13,0.04636
622.985,0.04252
599.84,0.04610