File: 01_Data/Nylon_Carpet_Low_Pile/FTIR/IS/Nylon_Carpet_Low_Pile_IS_S_221122_R9.dpt
7497.03,0.72431
7473.89,0.72367
7450.74,0.70765
7427.6,0.72788
7404.45,0.71427
7381.31,0.72516
7358.16,0.71338
7335.02,0.69416
7311.87,0.68968
7288.73,0.67675
7265.58,0.64435
7242.44,0.63711
7219.29,0.62377
7196.15,0.62833
7173,0.63252
7149.86,0.63346
7126.71,0.61953
7103.57,0.61362
7080.42,0.61428
7057.28,0.62161
7034.13,0.62136
7010.99,0.62269
6987.84,0.63288
6964.7,0.63458
6941.55,0.64218
6918.41,0.64310
6895.26,0.64945
6872.12,0.64741
6848.97,0.64948
6825.83,0.65795
6802.68,0.65941
6779.54,0.64060
6756.39,0.63034
6733.25,0.62610
6710.1,0.61906
6686.96,0.61530
6663.82,0.60338
6640.67,0.58730
6617.53,0.57024
6594.38,0.56745
6571.24,0.56049
6548.09,0.55404
6524.95,0.53365
6501.8,0.52856
6478.66,0.53775
6455.51,0.57326
6432.37,0.59948
6409.22,0.59575
6386.08,0.58071
6362.93,0.56363
6339.79,0.56339
6316.64,0.57660
6293.5,0.58849
6270.35,0.57589
6247.21,0.57085
6224.06,0.57657
6200.92,0.58742
6177.77,0.59996
6154.63,0.61993
6131.48,0.63235
6108.34,0.63786
6085.19,0.64093
6062.05,0.63475
6038.9,0.63292
6015.76,0.62703
5992.61,0.61675
5969.47,0.60479
5946.32,0.59275
5923.18,0.56159
5900.03,0.50890
5876.89,0.46103
5853.74,0.42305
5830.6,0.40467
5807.45,0.40758
5784.31,0.42394
5761.16,0.43600
5738.02,0.43082
5714.87,0.41592
5691.73,0.42475
5668.58,0.44417
5645.44,0.46921
5622.29,0.48506
5599.15,0.49569
5576,0.49753
5552.86,0.50235
5529.71,0.50416
5506.57,0.50864
5483.42,0.51352
5460.28,0.51516
5437.13,0.51978
5413.99,0.52805
5390.84,0.53187
5367.7,0.54193
5344.55,0.54727
5321.41,0.54575
5298.26,0.54224
5275.12,0.53388
5251.97,0.52853
5228.83,0.52021
5205.68,0.51068
5182.54,0.50081
5159.39,0.49105
5136.25,0.48554
5113.1,0.48449
5089.96,0.49093
5066.81,0.49365
5043.67,0.49471
5020.52,0.48572
4997.38,0.46065
4974.23,0.41641
4951.09,0.40659
4927.94,0.39984
4904.8,0.36092
4881.65,0.30684
4858.51,0.32381
4835.36,0.39909
4812.22,0.43457
4789.07,0.42960
4765.93,0.42180
4742.78,0.40843
4719.64,0.38910
4696.49,0.36195
4673.35,0.35862
4650.2,0.35800
4627.06,0.34047
4603.92,0.32027
4580.77,0.30974
4557.63,0.31343
4534.48,0.32319
4511.34,0.33390
4488.19,0.34637
4465.05,0.34417
4441.9,0.32915
4418.76,0.29646
4395.61,0.25672
4372.47,0.20551
4349.32,0.18698
4326.18,0.22454
4303.03,0.24390
4279.89,0.22804
4256.74,0.21125
4233.6,0.21385
4210.45,0.21424
4187.31,0.21716
4164.16,0.23450
4141.02,0.25287
4117.87,0.26181
4094.73,0.26197
4071.58,0.26048
4048.44,0.24423
4025.29,0.23250
4002.15,0.24302
3979,0.26601
3955.86,0.27906
3932.71,0.28917
3909.57,0.30779
3886.42,0.31844
3863.28,0.32059
3840.13,0.32201
3816.99,0.33114
3793.84,0.34234
3770.7,0.33906
3747.55,0.33475
3724.41,0.34733
3701.26,0.33214
3678.12,0.28949
3654.97,0.27398
3631.83,0.23762
3608.68,0.20574
3585.54,0.17569
3562.39,0.14512
3539.25,0.11686
3516.1,0.09527
3492.96,0.08263
3469.81,0.07492
3446.67,0.06643
3423.52,0.05813
3400.38,0.04490
3377.23,0.03238
3354.09,0.02484
3330.94,0.02188
3307.8,0.02223
3284.65,0.02438
3261.51,0.02518
3238.36,0.02783
3215.22,0.03082
3192.07,0.03328
3168.93,0.04177
3145.78,0.04672
3122.64,0.04063
3099.49,0.03092
3076.35,0.03013
3053.2,0.03666
3030.06,0.05234
3006.91,0.05515
2983.77,0.03936
2960.62,0.02309
2937.48,0.02263
2914.33,0.02494
2891.19,0.02603
2868.04,0.02377
2844.9,0.03010
2821.75,0.05009
2798.61,0.06637
2775.46,0.08127
2752.32,0.08795
2729.17,0.09706
2706.03,0.11398
2682.88,0.12358
2659.74,0.12896
2636.59,0.13705
2613.45,0.14505
2590.3,0.15194
2567.16,0.15738
2544.02,0.15915
2520.87,0.17779
2497.73,0.18739
2474.58,0.18503
2451.44,0.20059
2428.29,0.21440
2405.15,0.21735
2382,0.21872
2358.86,0.22528
2335.71,0.22228
2312.57,0.22349
2289.42,0.22899
2266.28,0.23357
2243.13,0.24260
2219.99,0.23633
2196.84,0.22013
2173.7,0.22582
2150.55,0.23099
2127.41,0.22942
2104.26,0.23940
2081.12,0.23339
2057.97,0.23426
2034.83,0.23544
2011.68,0.24762
1988.54,0.24696
1965.39,0.24983
1942.25,0.25404
1919.1,0.25302
1895.96,0.23762
1872.81,0.24231
1849.67,0.23472
1826.52,0.21675
1803.38,0.19533
1780.23,0.16454
1757.09,0.11280
1733.94,0.06518
1710.8,0.05674
1687.65,0.02549
1664.51,0.01596
1641.36,0.03160
1618.22,0.02657
1595.07,0.02419
1571.93,0.01957
1548.78,0.02551
1525.64,0.03009
1502.49,0.02986
1479.35,0.02605
1456.2,0.02626
1433.06,0.02660
1409.91,0.02992
1386.77,0.02659
1363.62,0.02664
1340.48,0.02941
1317.33,0.02805
1294.19,0.02645
1271.04,0.02483
1247.9,0.02847
1224.75,0.03309
1201.61,0.02885
1178.46,0.03282
1155.32,0.04973
1132.17,0.06418
1109.03,0.05559
1085.88,0.06549
1062.74,0.07408
1039.59,0.07241
1016.45,0.09541
993.304,0.08850
970.159,0.07208
947.014,0.09325
923.869,0.08149
900.724,0.12478
877.579,0.12864
854.434,0.12274
831.289,0.09532
808.144,0.08855
784.999,0.05898
761.854,0.04331
738.709,0.03043
715.565,0.02654
692.42,0.02877
669.275,0.03734
646.13,0.04808
622.985,0.04600
599.84,0.04667