File: 01_Data/Nylon_Carpet_Low_Pile/FTIR/IS/Nylon_Carpet_Low_Pile_IS_S_221122_R7.dpt
7497.03,0.71683
7473.89,0.72871
7450.74,0.71536
7427.6,0.72134
7404.45,0.72440
7381.31,0.72221
7358.16,0.70390
7335.02,0.69416
7311.87,0.68532
7288.73,0.66886
7265.58,0.65166
7242.44,0.64181
7219.29,0.62157
7196.15,0.61972
7173,0.62072
7149.86,0.63185
7126.71,0.62243
7103.57,0.62336
7080.42,0.61288
7057.28,0.61716
7034.13,0.62927
7010.99,0.62066
6987.84,0.63565
6964.7,0.63825
6941.55,0.64349
6918.41,0.64293
6895.26,0.64607
6872.12,0.65301
6848.97,0.65527
6825.83,0.65680
6802.68,0.65398
6779.54,0.64280
6756.39,0.62915
6733.25,0.62435
6710.1,0.61526
6686.96,0.61277
6663.82,0.60385
6640.67,0.58484
6617.53,0.56756
6594.38,0.56469
6571.24,0.56280
6548.09,0.54754
6524.95,0.53017
6501.8,0.52884
6478.66,0.53560
6455.51,0.57754
6432.37,0.59684
6409.22,0.59446
6386.08,0.57995
6362.93,0.56545
6339.79,0.56434
6316.64,0.57935
6293.5,0.58800
6270.35,0.58303
6247.21,0.57201
6224.06,0.57685
6200.92,0.58909
6177.77,0.59883
6154.63,0.61621
6131.48,0.63324
6108.34,0.63908
6085.19,0.63748
6062.05,0.63871
6038.9,0.63338
6015.76,0.62680
5992.61,0.61974
5969.47,0.60743
5946.32,0.58687
5923.18,0.56048
5900.03,0.51002
5876.89,0.45910
5853.74,0.42171
5830.6,0.40521
5807.45,0.40770
5784.31,0.42335
5761.16,0.43608
5738.02,0.42868
5714.87,0.41842
5691.73,0.42508
5668.58,0.44514
5645.44,0.46705
5622.29,0.48630
5599.15,0.49193
5576,0.49631
5552.86,0.49910
5529.71,0.50292
5506.57,0.50922
5483.42,0.51249
5460.28,0.51512
5437.13,0.52121
5413.99,0.52713
5390.84,0.53307
5367.7,0.54247
5344.55,0.54509
5321.41,0.54737
5298.26,0.54182
5275.12,0.53368
5251.97,0.52702
5228.83,0.52008
5205.68,0.51032
5182.54,0.50111
5159.39,0.49013
5136.25,0.48396
5113.1,0.48386
5089.96,0.48972
5066.81,0.49287
5043.67,0.49381
5020.52,0.48556
4997.38,0.45883
4974.23,0.41692
4951.09,0.40545
4927.94,0.39934
4904.8,0.36054
4881.65,0.30721
4858.51,0.32395
4835.36,0.39993
4812.22,0.43420
4789.07,0.42937
4765.93,0.42206
4742.78,0.40741
4719.64,0.38820
4696.49,0.36278
4673.35,0.35841
4650.2,0.35822
4627.06,0.33851
4603.92,0.31961
4580.77,0.30961
4557.63,0.31411
4534.48,0.32224
4511.34,0.33414
4488.19,0.34502
4465.05,0.34363
4441.9,0.32828
4418.76,0.29470
4395.61,0.25648
4372.47,0.20585
4349.32,0.18727
4326.18,0.22328
4303.03,0.24426
4279.89,0.22872
4256.74,0.21026
4233.6,0.21472
4210.45,0.21330
4187.31,0.21673
4164.16,0.23459
4141.02,0.25310
4117.87,0.26100
4094.73,0.26090
4071.58,0.26134
4048.44,0.24347
4025.29,0.23292
4002.15,0.24220
3979,0.26628
3955.86,0.27791
3932.71,0.28925
3909.57,0.30735
3886.42,0.31775
3863.28,0.31952
3840.13,0.32140
3816.99,0.33078
3793.84,0.34245
3770.7,0.33820
3747.55,0.33467
3724.41,0.34628
3701.26,0.33205
3678.12,0.28836
3654.97,0.27188
3631.83,0.23536
3608.68,0.20398
3585.54,0.17261
3562.39,0.14250
3539.25,0.11498
3516.1,0.09380
3492.96,0.08100
3469.81,0.07358
3446.67,0.06474
3423.52,0.05627
3400.38,0.04453
3377.23,0.03280
3354.09,0.02446
3330.94,0.02172
3307.8,0.02208
3284.65,0.02348
3261.51,0.02505
3238.36,0.02724
3215.22,0.03046
3192.07,0.03380
3168.93,0.04182
3145.78,0.04702
3122.64,0.04103
3099.49,0.03124
3076.35,0.03004
3053.2,0.03687
3030.06,0.05209
3006.91,0.05492
2983.77,0.03949
2960.62,0.02282
2937.48,0.02245
2914.33,0.02432
2891.19,0.02598
2868.04,0.02488
2844.9,0.02995
2821.75,0.04981
2798.61,0.06640
2775.46,0.08072
2752.32,0.08776
2729.17,0.09739
2706.03,0.11393
2682.88,0.12335
2659.74,0.12881
2636.59,0.13712
2613.45,0.14485
2590.3,0.15188
2567.16,0.15670
2544.02,0.15897
2520.87,0.17772
2497.73,0.18743
2474.58,0.18493
2451.44,0.20096
2428.29,0.21415
2405.15,0.21720
2382,0.21892
2358.86,0.22504
2335.71,0.22122
2312.57,0.22283
2289.42,0.22874
2266.28,0.23311
2243.13,0.24210
2219.99,0.23561
2196.84,0.21945
2173.7,0.22566
2150.55,0.23024
2127.41,0.22851
2104.26,0.23884
2081.12,0.23309
2057.97,0.23387
2034.83,0.23479
2011.68,0.24682
1988.54,0.24656
1965.39,0.24935
1942.25,0.25327
1919.1,0.25245
1895.96,0.23726
1872.81,0.24156
1849.67,0.23435
1826.52,0.21643
1803.38,0.19523
1780.23,0.16435
1757.09,0.11272
1733.94,0.06535
1710.8,0.05681
1687.65,0.02575
1664.51,0.01604
1641.36,0.03210
1618.22,0.02628
1595.07,0.02436
1571.93,0.01942
1548.78,0.02534
1525.64,0.03047
1502.49,0.02964
1479.35,0.02617
1456.2,0.02590
1433.06,0.02657
1409.91,0.03003
1386.77,0.02636
1363.62,0.02620
1340.48,0.02937
1317.33,0.02838
1294.19,0.02693
1271.04,0.02471
1247.9,0.02832
1224.75,0.03310
1201.61,0.02916
1178.46,0.03314
1155.32,0.04977
1132.17,0.06362
1109.03,0.05519
1085.88,0.06512
1062.74,0.07378
1039.59,0.07253
1016.45,0.09567
993.304,0.08833
970.159,0.07224
947.014,0.09260
923.869,0.08137
900.724,0.12488
877.579,0.12773
854.434,0.12268
831.289,0.09484
808.144,0.08791
784.999,0.05796
761.854,0.04406
738.709,0.03089
715.565,0.02551
692.42,0.02792
669.275,0.03701
646.13,0.04954
622.985,0.04481
599.84,0.04407