File: 01_Data/Nylon_Carpet_Low_Pile/FTIR/IS/Nylon_Carpet_Low_Pile_IS_S_221122_R6.dpt
7497.03,0.73709
7473.89,0.73516
7450.74,0.72410
7427.6,0.73093
7404.45,0.71806
7381.31,0.70880
7358.16,0.71317
7335.02,0.69814
7311.87,0.67594
7288.73,0.66639
7265.58,0.65029
7242.44,0.63415
7219.29,0.62901
7196.15,0.62145
7173,0.63483
7149.86,0.62881
7126.71,0.62533
7103.57,0.61626
7080.42,0.61903
7057.28,0.61499
7034.13,0.62399
7010.99,0.62635
6987.84,0.62404
6964.7,0.63359
6941.55,0.64022
6918.41,0.64610
6895.26,0.64973
6872.12,0.64514
6848.97,0.66054
6825.83,0.65637
6802.68,0.64918
6779.54,0.63459
6756.39,0.62182
6733.25,0.62655
6710.1,0.62210
6686.96,0.61723
6663.82,0.60586
6640.67,0.58916
6617.53,0.57236
6594.38,0.56328
6571.24,0.56140
6548.09,0.55320
6524.95,0.53434
6501.8,0.52822
6478.66,0.54163
6455.51,0.57423
6432.37,0.59812
6409.22,0.59445
6386.08,0.57584
6362.93,0.56677
6339.79,0.56174
6316.64,0.57956
6293.5,0.58742
6270.35,0.58052
6247.21,0.57696
6224.06,0.57484
6200.92,0.58405
6177.77,0.59973
6154.63,0.62106
6131.48,0.63359
6108.34,0.64325
6085.19,0.64067
6062.05,0.63730
6038.9,0.63201
6015.76,0.63032
5992.61,0.62267
5969.47,0.60787
5946.32,0.59297
5923.18,0.55869
5900.03,0.50962
5876.89,0.46109
5853.74,0.42325
5830.6,0.40454
5807.45,0.40825
5784.31,0.42436
5761.16,0.43924
5738.02,0.42957
5714.87,0.41658
5691.73,0.42526
5668.58,0.44536
5645.44,0.46620
5622.29,0.48448
5599.15,0.49273
5576,0.49852
5552.86,0.50354
5529.71,0.50242
5506.57,0.51057
5483.42,0.51443
5460.28,0.51747
5437.13,0.51910
5413.99,0.52774
5390.84,0.53350
5367.7,0.54245
5344.55,0.54807
5321.41,0.54727
5298.26,0.54333
5275.12,0.53571
5251.97,0.52824
5228.83,0.52048
5205.68,0.51039
5182.54,0.50173
5159.39,0.49102
5136.25,0.48464
5113.1,0.48415
5089.96,0.48864
5066.81,0.49289
5043.67,0.49294
5020.52,0.48502
4997.38,0.46024
4974.23,0.41803
4951.09,0.40718
4927.94,0.39962
4904.8,0.36189
4881.65,0.30921
4858.51,0.32412
4835.36,0.40122
4812.22,0.43418
4789.07,0.42969
4765.93,0.42165
4742.78,0.40862
4719.64,0.38906
4696.49,0.36419
4673.35,0.35918
4650.2,0.35924
4627.06,0.34021
4603.92,0.32053
4580.77,0.30949
4557.63,0.31309
4534.48,0.32325
4511.34,0.33439
4488.19,0.34652
4465.05,0.34450
4441.9,0.32920
4418.76,0.29532
4395.61,0.25723
4372.47,0.20561
4349.32,0.18749
4326.18,0.22415
4303.03,0.24382
4279.89,0.22810
4256.74,0.21132
4233.6,0.21270
4210.45,0.21287
4187.31,0.21703
4164.16,0.23469
4141.02,0.25317
4117.87,0.26169
4094.73,0.26144
4071.58,0.26142
4048.44,0.24436
4025.29,0.23337
4002.15,0.24251
3979,0.26635
3955.86,0.27922
3932.71,0.28967
3909.57,0.30795
3886.42,0.31850
3863.28,0.32015
3840.13,0.32203
3816.99,0.33110
3793.84,0.34291
3770.7,0.33964
3747.55,0.33581
3724.41,0.34609
3701.26,0.33208
3678.12,0.28862
3654.97,0.27228
3631.83,0.23571
3608.68,0.20380
3585.54,0.17307
3562.39,0.14268
3539.25,0.11453
3516.1,0.09303
3492.96,0.08067
3469.81,0.07342
3446.67,0.06433
3423.52,0.05572
3400.38,0.04506
3377.23,0.03245
3354.09,0.02496
3330.94,0.02185
3307.8,0.02147
3284.65,0.02440
3261.51,0.02489
3238.36,0.02653
3215.22,0.03085
3192.07,0.03304
3168.93,0.04149
3145.78,0.04668
3122.64,0.04090
3099.49,0.03083
3076.35,0.02986
3053.2,0.03685
3030.06,0.05250
3006.91,0.05479
2983.77,0.03955
2960.62,0.02279
2937.48,0.02221
2914.33,0.02481
2891.19,0.02602
2868.04,0.02440
2844.9,0.03011
2821.75,0.04960
2798.61,0.06643
2775.46,0.08141
2752.32,0.08799
2729.17,0.09720
2706.03,0.11437
2682.88,0.12380
2659.74,0.12897
2636.59,0.13736
2613.45,0.14537
2590.3,0.15216
2567.16,0.15769
2544.02,0.15940
2520.87,0.17843
2497.73,0.18734
2474.58,0.18508
2451.44,0.20143
2428.29,0.21440
2405.15,0.21719
2382,0.21854
2358.86,0.22045
2335.71,0.21784
2312.57,0.22212
2289.42,0.22898
2266.28,0.23335
2243.13,0.24257
2219.99,0.23610
2196.84,0.22010
2173.7,0.22579
2150.55,0.23049
2127.41,0.22887
2104.26,0.23902
2081.12,0.23296
2057.97,0.23412
2034.83,0.23532
2011.68,0.24737
1988.54,0.24668
1965.39,0.24999
1942.25,0.25399
1919.1,0.25284
1895.96,0.23772
1872.81,0.24238
1849.67,0.23491
1826.52,0.21713
1803.38,0.19545
1780.23,0.16447
1757.09,0.11308
1733.94,0.06549
1710.8,0.05660
1687.65,0.02534
1664.51,0.01638
1641.36,0.03211
1618.22,0.02663
1595.07,0.02445
1571.93,0.01950
1548.78,0.02573
1525.64,0.02998
1502.49,0.02959
1479.35,0.02615
1456.2,0.02609
1433.06,0.02647
1409.91,0.03045
1386.77,0.02686
1363.62,0.02640
1340.48,0.02959
1317.33,0.02820
1294.19,0.02651
1271.04,0.02492
1247.9,0.02835
1224.75,0.03295
1201.61,0.02918
1178.46,0.03286
1155.32,0.04951
1132.17,0.06419
1109.03,0.05521
1085.88,0.06523
1062.74,0.07379
1039.59,0.07289
1016.45,0.09622
993.304,0.08882
970.159,0.07180
947.014,0.09238
923.869,0.08115
900.724,0.12439
877.579,0.12806
854.434,0.12240
831.289,0.09466
808.144,0.08851
784.999,0.05926
761.854,0.04361
738.709,0.03001
715.565,0.02604
692.42,0.02762
669.275,0.03681
646.13,0.04935
622.985,0.04442
599.84,0.04414