File: 01_Data/Nylon_Carpet_Low_Pile/FTIR/IS/Nylon_Carpet_Low_Pile_IS_S_221122_R5.dpt
7497.03,0.72824
7473.89,0.71844
7450.74,0.73044
7427.6,0.72501
7404.45,0.70930
7381.31,0.72390
7358.16,0.70693
7335.02,0.70170
7311.87,0.69850
7288.73,0.66410
7265.58,0.64736
7242.44,0.62908
7219.29,0.62725
7196.15,0.62624
7173,0.63210
7149.86,0.62639
7126.71,0.61985
7103.57,0.62288
7080.42,0.61209
7057.28,0.61289
7034.13,0.62218
7010.99,0.61935
6987.84,0.63155
6964.7,0.63786
6941.55,0.63805
6918.41,0.64658
6895.26,0.65545
6872.12,0.65328
6848.97,0.65389
6825.83,0.65285
6802.68,0.65022
6779.54,0.64046
6756.39,0.62523
6733.25,0.62417
6710.1,0.62397
6686.96,0.61974
6663.82,0.60597
6640.67,0.58236
6617.53,0.56490
6594.38,0.56380
6571.24,0.56173
6548.09,0.55047
6524.95,0.53592
6501.8,0.52516
6478.66,0.53901
6455.51,0.57616
6432.37,0.59264
6409.22,0.59563
6386.08,0.57940
6362.93,0.55914
6339.79,0.56449
6316.64,0.58005
6293.5,0.58760
6270.35,0.58029
6247.21,0.57497
6224.06,0.57733
6200.92,0.58319
6177.77,0.59844
6154.63,0.61772
6131.48,0.63528
6108.34,0.63685
6085.19,0.64186
6062.05,0.63622
6038.9,0.63000
6015.76,0.63038
5992.61,0.61588
5969.47,0.60936
5946.32,0.59096
5923.18,0.55743
5900.03,0.50866
5876.89,0.46266
5853.74,0.42564
5830.6,0.40400
5807.45,0.40884
5784.31,0.42444
5761.16,0.43676
5738.02,0.43107
5714.87,0.41895
5691.73,0.42579
5668.58,0.44353
5645.44,0.46872
5622.29,0.48485
5599.15,0.49367
5576,0.49774
5552.86,0.50167
5529.71,0.50282
5506.57,0.51004
5483.42,0.51236
5460.28,0.51473
5437.13,0.51840
5413.99,0.52448
5390.84,0.53267
5367.7,0.54128
5344.55,0.54808
5321.41,0.54665
5298.26,0.54342
5275.12,0.53402
5251.97,0.52601
5228.83,0.51755
5205.68,0.51029
5182.54,0.49910
5159.39,0.48998
5136.25,0.48530
5113.1,0.48227
5089.96,0.48808
5066.81,0.49194
5043.67,0.49068
5020.52,0.48550
4997.38,0.45980
4974.23,0.41603
4951.09,0.40605
4927.94,0.40005
4904.8,0.36122
4881.65,0.30830
4858.51,0.32419
4835.36,0.40082
4812.22,0.43278
4789.07,0.42882
4765.93,0.42281
4742.78,0.40880
4719.64,0.38862
4696.49,0.36379
4673.35,0.35876
4650.2,0.35831
4627.06,0.34017
4603.92,0.31988
4580.77,0.30941
4557.63,0.31376
4534.48,0.32238
4511.34,0.33334
4488.19,0.34595
4465.05,0.34407
4441.9,0.32815
4418.76,0.29514
4395.61,0.25677
4372.47,0.20535
4349.32,0.18668
4326.18,0.22415
4303.03,0.24384
4279.89,0.22901
4256.74,0.21059
4233.6,0.21373
4210.45,0.21350
4187.31,0.21745
4164.16,0.23512
4141.02,0.25310
4117.87,0.26150
4094.73,0.26103
4071.58,0.26213
4048.44,0.24429
4025.29,0.23319
4002.15,0.24294
3979,0.26620
3955.86,0.27868
3932.71,0.28963
3909.57,0.30787
3886.42,0.31871
3863.28,0.31993
3840.13,0.32180
3816.99,0.33119
3793.84,0.34286
3770.7,0.33915
3747.55,0.33508
3724.41,0.34653
3701.26,0.33181
3678.12,0.28720
3654.97,0.27085
3631.83,0.23429
3608.68,0.20210
3585.54,0.17037
3562.39,0.14108
3539.25,0.11333
3516.1,0.09225
3492.96,0.07960
3469.81,0.07185
3446.67,0.06390
3423.52,0.05598
3400.38,0.04413
3377.23,0.03216
3354.09,0.02532
3330.94,0.02156
3307.8,0.02118
3284.65,0.02395
3261.51,0.02506
3238.36,0.02715
3215.22,0.03050
3192.07,0.03384
3168.93,0.04118
3145.78,0.04648
3122.64,0.04070
3099.49,0.03096
3076.35,0.02999
3053.2,0.03701
3030.06,0.05197
3006.91,0.05570
2983.77,0.03924
2960.62,0.02309
2937.48,0.02242
2914.33,0.02465
2891.19,0.02632
2868.04,0.02371
2844.9,0.02959
2821.75,0.05019
2798.61,0.06630
2775.46,0.08115
2752.32,0.08802
2729.17,0.09691
2706.03,0.11386
2682.88,0.12337
2659.74,0.12901
2636.59,0.13754
2613.45,0.14534
2590.3,0.15252
2567.16,0.15721
2544.02,0.15847
2520.87,0.17802
2497.73,0.18734
2474.58,0.18493
2451.44,0.20114
2428.29,0.21442
2405.15,0.21702
2382,0.21933
2358.86,0.22985
2335.71,0.22462
2312.57,0.22423
2289.42,0.22897
2266.28,0.23294
2243.13,0.24142
2219.99,0.23544
2196.84,0.21935
2173.7,0.22538
2150.55,0.22992
2127.41,0.22864
2104.26,0.23886
2081.12,0.23280
2057.97,0.23401
2034.83,0.23503
2011.68,0.24717
1988.54,0.24635
1965.39,0.24933
1942.25,0.25352
1919.1,0.25256
1895.96,0.23728
1872.81,0.24185
1849.67,0.23432
1826.52,0.21660
1803.38,0.19546
1780.23,0.16452
1757.09,0.11319
1733.94,0.06515
1710.8,0.05663
1687.65,0.02566
1664.51,0.01636
1641.36,0.03167
1618.22,0.02634
1595.07,0.02438
1571.93,0.01944
1548.78,0.02541
1525.64,0.03027
1502.49,0.02947
1479.35,0.02590
1456.2,0.02593
1433.06,0.02677
1409.91,0.03023
1386.77,0.02655
1363.62,0.02602
1340.48,0.02930
1317.33,0.02806
1294.19,0.02659
1271.04,0.02490
1247.9,0.02850
1224.75,0.03299
1201.61,0.02886
1178.46,0.03321
1155.32,0.04966
1132.17,0.06379
1109.03,0.05531
1085.88,0.06510
1062.74,0.07367
1039.59,0.07298
1016.45,0.09630
993.304,0.08805
970.159,0.07186
947.014,0.09241
923.869,0.08189
900.724,0.12513
877.579,0.12813
854.434,0.12192
831.289,0.09589
808.144,0.08811
784.999,0.05911
761.854,0.04338
738.709,0.03143
715.565,0.02595
692.42,0.02869
669.275,0.03863
646.13,0.04954
622.985,0.04387
599.84,0.04491