File: 01_Data/FDNY_LDF/Cone/FDNY_LDF_Cone_HF75Scalar_220913_R2.csv
LABORATORY,FSRI
TEST IDENT,FDNY_LDF_HF75_R2
OPERATOR,Dow
MATERIAL,FDNY Low Density Fiberboard
ORIENTATION,Horizontal
HEAT FLUX,75
SURF AREA,0.01
C FACTOR,0.0415136
SPEC HOLDER DIFF,-566
SPECIMEN MASS,26.4
SCAN TIME,0.25
O2 DELAY TIME,11
CO DELAY TIME,11
CO2 DELAY TIME,8
FLOW FACTOR,1
SCAN COUNT,1228
TIME TO IGN,2.5
END OF TEST SCAN,748
END OF TEST TIME,187
TEST STATUS,1
PRE TEST CMT,Dimensions: 98.86 x 99.25 x 12.07 mm; with tie wires
POST TEST CMT,Sample shrank. See post test pictures.