File: 01_Data/FDNY_LDF/Cone/FDNY_LDF_HRRPUA_25.csv
Time after Ignition,FDNY_LDF_R1,FDNY_LDF_R2,FDNY_LDF_R3,FDNY_LDF_R4,Mean,Std. Dev.
0.0,16.7,11.6,8.6,19.9,14.2,5.1
1.5,47.3,30.9,37.2,48.9,41.0,8.5
3.0,91.2,63.8,69.9,83.1,77.0,12.4
4.5,128.9,95.0,95.5,104.0,105.9,15.9
6.0,155.8,119.1,111.1,121.5,126.9,19.8
7.5,169.0,136.7,122.5,130.8,139.7,20.3
9.0,174.3,144.1,132.0,135.9,146.6,19.2
10.5,179.4,149.4,133.3,137.9,150.0,20.7
12.0,179.4,150.7,133.2,138.8,150.5,20.6
13.5,177.3,150.5,135.5,138.0,150.3,19.1
15.0,173.6,146.7,133.1,137.2,147.7,18.2
16.5,167.7,144.3,132.1,136.5,145.1,15.9
18.0,160.5,143.0,129.4,133.4,141.6,13.8
19.5,158.0,142.1,129.0,131.9,140.3,13.1
21.0,154.2,142.6,128.1,128.0,138.2,12.7
22.5,147.2,142.1,126.8,125.8,135.5,10.8
24.0,145.3,138.8,123.5,126.6,133.6,10.3
25.5,144.9,136.0,125.2,125.5,132.9,9.4
27.0,139.5,134.8,123.7,122.1,130.0,8.4
28.5,138.5,132.0,121.9,121.6,128.5,8.2
30.0,136.3,131.1,119.8,118.9,126.5,8.6
31.5,133.3,130.6,118.8,118.8,125.4,7.7
33.0,129.8,126.9,116.4,115.1,122.1,7.4
34.5,129.3,126.3,115.0,115.1,121.5,7.5
36.0,124.6,123.6,113.2,113.8,118.8,6.1
37.5,124.1,123.0,113.4,111.7,118.0,6.4
39.0,121.6,123.8,112.0,109.0,116.6,7.2
40.5,121.0,120.7,112.3,108.3,115.6,6.3
42.0,118.2,118.0,110.5,109.6,114.1,4.6
43.5,118.3,117.5,109.3,106.4,112.9,5.9
45.0,117.4,116.2,109.2,105.8,112.1,5.6
46.5,116.4,114.0,106.1,106.0,110.6,5.4
48.0,112.5,112.7,105.1,104.8,108.8,4.4
49.5,111.2,110.1,104.6,104.2,107.5,3.6
51.0,109.0,111.6,103.9,103.2,106.9,4.1
52.5,108.7,110.3,103.2,101.2,105.9,4.4
54.0,108.3,108.8,100.8,100.1,104.5,4.7
55.5,105.7,107.8,100.6,98.9,103.3,4.2
57.0,104.0,106.3,98.4,98.7,101.9,3.9
58.5,104.3,104.9,98.0,98.0,101.3,3.8
60.0,102.9,104.3,99.3,97.6,101.0,3.1
61.5,99.8,104.1,97.5,96.9,99.6,3.3
63.0,98.7,102.2,98.4,94.2,98.4,3.3
64.5,97.0,101.1,97.1,95.2,97.6,2.5
66.0,96.5,101.7,96.3,94.5,97.2,3.1
67.5,95.3,101.2,95.0,93.4,96.2,3.4
69.0,94.5,98.5,93.8,92.0,94.7,2.8
70.5,94.3,96.6,93.2,92.2,94.1,1.9
72.0,94.0,97.5,92.2,91.6,93.8,2.6
73.5,92.8,97.5,92.9,91.6,93.7,2.6
75.0,91.8,96.4,92.3,91.5,93.0,2.3
76.5,91.1,95.1,92.9,89.6,92.2,2.3
78.0,91.5,95.3,91.4,90.2,92.1,2.2
79.5,89.0,93.1,90.2,87.7,90.0,2.3
81.0,89.4,92.5,89.2,88.7,89.9,1.7
82.5,89.8,92.6,90.5,88.7,90.4,1.6
84.0,88.3,91.1,88.7,87.2,88.8,1.7
85.5,87.7,90.9,89.0,87.4,88.8,1.6
87.0,87.8,90.4,88.9,86.4,88.4,1.7
88.5,88.0,90.1,88.0,86.0,88.0,1.7
90.0,86.0,89.0,87.5,85.6,87.0,1.6
91.5,87.1,89.1,83.9,83.7,85.9,2.6
93.0,85.4,87.1,83.8,83.5,84.9,1.6
94.5,85.3,86.6,83.2,83.0,84.5,1.7
96.0,84.5,85.9,81.8,83.7,84.0,1.7
97.5,83.8,84.4,83.3,82.0,83.4,1.0
99.0,83.1,84.2,79.6,81.1,82.0,2.0
100.5,83.7,84.8,80.4,79.6,82.1,2.5
102.0,82.5,83.6,80.8,78.9,81.5,2.0
103.5,82.6,83.0,78.6,79.8,81.0,2.2
105.0,83.3,81.2,79.3,78.6,80.6,2.1
106.5,80.8,80.1,77.1,77.3,78.8,1.9
108.0,79.5,79.4,76.1,77.0,78.0,1.7
109.5,78.6,80.3,76.3,76.9,78.0,1.8
111.0,78.6,79.5,75.1,74.1,76.8,2.6
112.5,77.6,79.8,76.1,74.6,77.0,2.2
114.0,77.0,79.2,76.4,74.8,76.8,1.8
115.5,76.3,79.6,76.3,74.2,76.6,2.3
117.0,75.6,78.9,76.2,73.6,76.1,2.2
118.5,75.7,77.6,75.4,72.8,75.3,2.0
120.0,75.7,77.8,76.0,72.5,75.5,2.2
121.5,75.5,78.0,74.1,71.6,74.8,2.7
123.0,74.4,76.9,74.7,71.1,74.3,2.4
124.5,74.2,77.0,73.3,70.6,73.8,2.6
126.0,74.0,75.7,72.3,69.5,72.9,2.6
127.5,73.9,74.1,73.3,70.0,72.8,1.9
129.0,73.6,75.9,72.4,68.9,72.7,2.9
130.5,74.9,76.0,70.7,69.7,72.8,3.1
132.0,74.5,74.6,69.1,67.7,71.5,3.6
133.5,74.9,73.0,70.1,68.0,71.5,3.0
135.0,74.1,73.6,71.0,68.0,71.7,2.8
136.5,73.6,73.8,69.4,67.2,71.0,3.3
138.0,74.9,74.5,68.8,66.1,71.1,4.3
139.5,74.6,72.9,67.3,65.4,70.1,4.4
141.0,74.6,72.8,66.7,65.8,70.0,4.4
142.5,74.2,73.2,68.4,65.3,70.3,4.1
144.0,73.6,73.4,69.1,64.1,70.0,4.5
145.5,73.1,74.1,67.2,64.9,69.8,4.5
147.0,73.5,73.0,67.1,63.1,69.2,5.0
148.5,74.3,72.9,65.4,63.0,68.9,5.6
150.0,74.3,74.0,65.3,62.6,69.1,6.0
151.5,74.7,73.5,65.8,62.7,69.2,5.8
153.0,74.9,73.2,66.1,62.4,69.1,5.9
154.5,73.9,74.2,64.5,61.8,68.6,6.4
156.0,75.8,72.3,65.3,61.7,68.8,6.4
157.5,74.0,73.7,64.6,62.0,68.6,6.2
159.0,74.6,73.6,64.6,61.8,68.7,6.4
160.5,75.4,73.6,64.7,60.8,68.6,7.0
162.0,75.6,73.9,64.9,61.5,69.0,6.9
163.5,75.9,74.2,65.4,60.6,69.0,7.3
165.0,78.4,74.5,65.3,60.3,69.6,8.3
166.5,77.6,73.8,64.5,60.2,69.1,8.1
168.0,78.6,73.5,65.0,59.7,69.2,8.4
169.5,79.9,72.9,64.3,59.7,69.2,9.0
171.0,81.1,73.8,63.6,59.2,69.4,9.9
172.5,80.9,73.9,62.7,60.0,69.4,9.8
174.0,81.8,73.3,63.0,59.4,69.4,10.1
175.5,82.1,74.3,62.7,59.6,69.7,10.4
177.0,82.0,74.9,63.0,59.3,69.8,10.5
178.5,82.2,76.2,64.0,60.1,70.6,10.3
180.0,83.6,76.9,63.4,60.3,71.1,11.0
181.5,84.9,77.4,63.4,60.5,71.6,11.5
183.0,85.6,78.3,64.7,59.7,72.1,12.0
184.5,89.3,78.2,67.5,60.8,74.0,12.5
186.0,91.1,77.3,65.9,61.4,73.9,13.3
187.5,88.6,78.9,66.1,61.3,73.7,12.4
189.0,91.0,79.5,66.1,62.8,74.8,13.0
190.5,91.1,81.8,66.7,63.1,75.7,13.1
192.0,90.5,81.2,67.3,62.9,75.5,12.7
193.5,94.9,81.9,67.1,63.3,76.8,14.5
195.0,95.0,83.2,67.7,63.6,77.4,14.5
196.5,95.6,82.4,67.8,64.0,77.5,14.5
198.0,98.2,83.1,68.7,64.8,78.7,15.2
199.5,97.6,83.8,67.5,65.7,78.6,15.0
201.0,99.4,84.0,68.7,65.5,79.4,15.6
202.5,101.7,85.3,69.3,66.4,80.7,16.3
204.0,102.6,85.7,68.7,65.2,80.6,17.2
205.5,105.3,87.3,69.8,66.9,82.3,17.8
207.0,105.8,86.6,70.3,66.7,82.4,17.9
208.5,107.5,85.5,72.3,67.7,83.2,17.9
210.0,108.4,89.3,70.7,66.7,83.8,19.2
211.5,109.5,88.7,72.0,67.9,84.5,18.9
213.0,111.2,89.8,72.1,66.9,85.0,20.0
214.5,114.2,90.4,73.4,67.3,86.3,21.0
216.0,115.3,91.2,73.6,68.1,87.0,21.2
217.5,115.6,92.9,74.0,69.3,88.0,21.0
219.0,115.2,93.1,75.1,69.2,88.1,20.7
220.5,115.6,93.6,76.1,68.8,88.5,20.8
222.0,117.4,93.6,76.8,69.1,89.2,21.4
223.5,119.7,94.8,77.1,70.5,90.5,22.0
225.0,119.9,96.5,76.7,70.0,90.8,22.4
226.5,120.9,95.7,78.6,71.5,91.7,22.0
228.0,121.3,96.0,77.5,72.5,91.8,22.1
229.5,120.8,97.3,79.4,71.8,92.3,21.8
231.0,122.2,98.9,78.6,73.2,93.2,22.3
232.5,122.7,100.6,78.2,73.0,93.6,22.8
234.0,125.7,98.7,78.7,73.7,94.2,23.6
235.5,124.5,102.5,78.6,75.9,95.3,22.8
237.0,126.6,103.4,79.2,77.0,96.6,23.4
238.5,129.5,103.4,79.9,77.6,97.6,24.3
240.0,131.1,103.0,81.9,77.1,98.3,24.6
241.5,129.5,104.7,82.3,76.1,98.1,24.2
243.0,131.1,106.3,81.9,78.5,99.4,24.5
244.5,132.2,106.2,83.4,77.4,99.8,24.9
246.0,130.9,105.5,83.3,79.3,99.8,23.8
247.5,135.2,108.7,83.6,79.2,101.7,25.8
249.0,137.9,109.0,84.3,79.3,102.6,26.9
250.5,136.0,108.1,85.7,78.5,102.1,25.9
252.0,138.9,109.2,86.3,79.5,103.5,26.8
253.5,140.5,109.2,87.2,79.9,104.2,27.2
255.0,142.1,109.4,88.9,81.3,105.4,27.2
256.5,142.7,110.8,88.6,81.3,105.9,27.6
258.0,145.1,111.3,88.6,84.3,107.3,27.8
259.5,147.6,112.4,89.3,84.4,108.4,28.8
261.0,148.1,112.2,90.4,84.5,108.8,28.8
262.5,148.5,113.2,91.3,84.2,109.3,28.9
264.0,151.3,113.3,91.3,84.4,110.1,30.1
265.5,151.3,114.3,92.1,84.0,110.4,30.1
267.0,151.6,114.8,94.5,85.9,111.7,29.2
268.5,151.6,115.3,94.1,86.7,111.9,29.1
270.0,151.2,114.3,95.5,86.3,111.8,28.7
271.5,152.4,115.8,95.5,86.8,112.6,29.2
273.0,153.9,116.8,96.6,87.6,113.7,29.4
274.5,154.8,117.7,95.7,88.0,114.1,29.9
276.0,151.6,120.4,97.1,90.0,114.8,27.8
277.5,150.7,120.7,97.2,90.5,114.8,27.2
279.0,152.2,122.2,99.7,91.3,116.4,27.2
280.5,151.6,121.6,97.4,93.3,116.0,26.8
282.0,150.6,124.5,99.3,93.3,116.9,26.2
283.5,149.5,124.2,101.3,93.9,117.2,25.1
285.0,148.4,125.6,101.4,94.1,117.4,24.7
286.5,148.3,127.0,101.2,95.5,118.0,24.4
288.0,143.6,127.7,102.5,95.8,117.4,22.2
289.5,143.4,127.8,102.7,96.0,117.5,22.0
291.0,142.3,128.2,103.3,96.1,117.5,21.5
292.5,139.2,130.0,101.5,97.9,117.1,20.5
294.0,137.0,130.6,103.7,96.7,117.0,19.8
295.5,138.2,130.9,103.7,100.2,118.2,19.1
297.0,137.4,130.7,104.9,99.6,118.2,18.7
298.5,138.8,132.3,102.7,101.2,118.7,19.6
300.0,139.8,133.6,102.8,100.7,119.2,20.3
301.5,139.4,132.1,103.6,103.0,119.5,19.0
303.0,141.9,130.9,105.0,101.7,119.9,19.6
304.5,142.8,131.5,104.2,103.1,120.4,19.9
306.0,154.6,131.4,106.1,104.6,124.2,23.7
307.5,164.8,131.9,105.2,104.6,126.6,28.5
309.0,165.2,132.0,106.5,108.5,128.0,27.3
310.5,170.1,128.8,108.3,107.8,128.7,29.2
312.0,168.5,127.0,106.7,110.7,128.2,28.3
313.5,161.0,125.5,108.6,111.2,126.6,24.1
315.0,154.4,124.8,108.3,113.2,125.2,20.7
316.5,144.7,120.5,109.3,114.0,122.1,15.7
318.0,134.2,118.8,110.2,113.3,119.1,10.7
319.5,122.3,114.6,111.2,114.7,115.7,4.7
321.0,112.9,111.5,114.2,117.1,113.9,2.4
322.5,103.7,105.2,115.3,118.7,110.7,7.4
324.0,98.4,101.4,113.9,117.6,107.8,9.3
325.5,94.7,96.2,114.1,117.9,105.7,12.0
327.0,91.8,93.3,117.1,118.1,105.1,14.5
328.5,89.7,86.9,116.0,116.9,102.4,16.3
330.0,88.7,83.3,117.2,120.1,102.3,19.1
331.5,86.2,76.8,116.8,119.0,99.7,21.4
333.0,85.7,72.0,117.7,121.0,99.1,24.1
334.5,84.2,68.1,117.2,118.3,97.0,24.9
336.0,83.9,63.8,119.6,122.5,97.5,28.5
337.5,83.9,60.7,116.8,122.4,95.9,29.0
339.0,83.3,57.1,115.7,120.6,94.2,29.8
340.5,82.4,54.7,114.1,120.7,93.0,30.5
342.0,81.3,52.2,115.1,123.3,93.0,32.7
343.5,78.8,50.2,112.1,121.0,90.5,32.4
345.0,77.8,47.1,110.1,119.1,88.5,32.8
346.5,78.1,45.6,107.9,118.0,87.4,32.6
348.0,78.1,44.2,106.6,116.1,86.2,32.3
349.5,76.6,42.3,103.5,114.7,84.3,32.2
351.0,75.0,41.0,99.6,111.0,81.6,31.0
352.5,75.9,39.5,98.1,110.1,80.9,31.0
354.0,74.2,38.3,97.3,109.2,79.7,31.2
355.5,75.0,37.0,92.4,107.0,77.8,30.2
357.0,72.4,36.9,89.7,105.5,76.1,29.4
358.5,73.0,35.1,88.5,101.8,74.6,28.8
359.5,73.2,34.3,86.9,98.5,73.2,27.9