File: 01_Data/FDNY_LDF/Cone/FDNY_LDF_HRRPUA_50.csv
Time after Ignition,FDNY_LDF_R1,FDNY_LDF_R2,FDNY_LDF_R3,Mean,Std. Dev.
0.0,46.8,27.8,38.1,37.6,9.5
1.5,84.4,59.4,78.2,74.0,13.0
3.0,119.4,101.1,108.5,109.7,9.2
4.5,148.4,129.3,138.0,138.6,9.5
6.0,166.1,153.6,158.5,159.4,6.3
7.5,180.4,173.4,173.8,175.9,3.9
9.0,190.0,183.9,185.9,186.6,3.1
10.5,192.5,191.8,194.6,193.0,1.5
12.0,194.3,193.0,200.1,195.8,3.8
13.5,195.8,196.4,202.3,198.2,3.6
15.0,195.6,193.5,198.7,195.9,2.6
16.5,194.9,195.1,199.1,196.4,2.4
18.0,196.7,199.0,199.6,198.5,1.5
19.5,193.4,196.3,193.8,194.5,1.6
21.0,192.7,195.3,194.0,194.0,1.3
22.5,194.1,191.9,192.3,192.7,1.2
24.0,190.3,193.6,193.7,192.6,1.9
25.5,184.9,188.5,189.8,187.7,2.5
27.0,185.7,189.5,188.4,187.9,2.0
28.5,182.7,186.8,182.9,184.1,2.3
30.0,177.9,184.6,182.2,181.6,3.4
31.5,176.4,181.4,176.6,178.1,2.8
33.0,172.4,178.7,177.4,176.2,3.3
34.5,171.6,177.6,174.8,174.6,3.0
36.0,168.2,175.8,170.6,171.5,3.9
37.5,166.0,171.1,174.6,170.6,4.3
39.0,165.0,169.2,170.6,168.3,2.9
40.5,159.9,166.1,166.7,164.2,3.8
42.0,161.9,168.4,163.0,164.4,3.5
43.5,156.9,167.3,166.1,163.4,5.7
45.0,154.3,159.8,162.3,158.8,4.1
46.5,153.8,161.2,163.9,159.6,5.2
48.0,152.0,157.6,159.5,156.4,3.9
49.5,153.9,157.1,157.0,156.0,1.8
51.0,148.5,152.5,153.2,151.4,2.5
52.5,148.2,149.9,153.1,150.4,2.5
54.0,149.4,150.3,153.0,150.9,1.9
55.5,145.9,146.8,151.1,147.9,2.8
57.0,143.2,144.7,148.8,145.6,2.9
58.5,143.3,142.2,146.2,143.9,2.1
60.0,142.3,142.0,143.1,142.5,0.5
61.5,138.6,141.1,140.6,140.1,1.3
63.0,134.5,138.1,139.3,137.3,2.5
64.5,135.6,137.9,136.5,136.7,1.2
66.0,135.1,135.1,136.2,135.5,0.6
67.5,132.0,131.6,133.8,132.5,1.1
69.0,130.9,131.2,131.8,131.3,0.5
70.5,131.7,128.8,128.8,129.8,1.7
72.0,128.9,127.9,130.4,129.1,1.2
73.5,126.6,124.8,127.8,126.4,1.5
75.0,125.6,123.0,123.7,124.1,1.3
76.5,125.7,123.3,123.8,124.3,1.2
78.0,121.6,120.7,122.1,121.5,0.7
79.5,119.0,120.6,123.4,121.0,2.2
81.0,119.2,119.0,123.1,120.4,2.3
82.5,118.2,118.5,119.2,118.6,0.5
84.0,117.1,119.0,117.0,117.7,1.1
85.5,113.4,116.9,116.3,115.5,1.9
87.0,113.8,115.8,115.9,115.1,1.2
88.5,113.0,113.1,114.1,113.4,0.6
90.0,113.3,112.1,114.3,113.2,1.1
91.5,110.1,111.5,112.0,111.2,1.0
93.0,112.7,111.0,110.9,111.5,1.0
94.5,109.4,110.9,110.4,110.2,0.8
96.0,108.8,109.5,109.4,109.2,0.4
97.5,107.8,108.5,108.4,108.2,0.4
99.0,106.6,107.5,107.3,107.1,0.5
100.5,107.5,107.0,109.4,107.9,1.3
102.0,106.7,104.5,104.4,105.2,1.3
103.5,104.9,105.4,104.5,104.9,0.4
105.0,102.7,104.0,102.7,103.1,0.8
106.5,101.5,104.3,103.5,103.1,1.4
108.0,101.6,104.6,102.9,103.0,1.5
109.5,100.3,101.9,102.3,101.5,1.1
111.0,101.6,103.6,100.9,102.0,1.4
112.5,99.4,104.0,100.3,101.3,2.4
114.0,99.7,101.6,101.1,100.8,1.0
115.5,99.1,102.3,101.1,100.8,1.6
117.0,99.2,102.6,100.6,100.8,1.7
118.5,99.2,100.4,100.8,100.1,0.8
120.0,101.1,101.7,100.5,101.1,0.6
121.5,98.9,102.5,99.0,100.1,2.1
123.0,99.3,102.7,99.4,100.4,1.9
124.5,98.5,102.3,100.9,100.5,1.9
126.0,97.4,102.8,99.3,99.8,2.7
127.5,97.8,103.1,100.2,100.3,2.7
129.0,98.2,103.1,101.5,101.0,2.5
130.5,98.3,103.7,101.8,101.3,2.7
132.0,98.6,103.2,105.0,102.3,3.3
133.5,98.9,104.4,104.4,102.6,3.2
135.0,101.3,105.2,105.6,104.0,2.4
136.5,100.2,106.5,106.5,104.4,3.6
138.0,102.6,107.8,105.9,105.4,2.6
139.5,101.9,109.5,107.3,106.2,3.9
141.0,102.5,109.2,108.8,106.8,3.7
142.5,104.5,111.2,111.4,109.0,3.9
144.0,107.0,112.5,111.8,110.4,3.0
145.5,108.0,114.6,114.2,112.3,3.7
147.0,109.8,116.3,116.2,114.1,3.7
148.5,110.9,118.0,121.3,116.7,5.3
150.0,110.6,121.5,122.1,118.1,6.5
151.5,112.8,123.9,124.7,120.5,6.6
153.0,118.3,125.0,128.7,124.0,5.3
154.5,120.2,131.4,131.3,127.6,6.4
156.0,123.4,130.4,136.0,129.9,6.3
157.5,122.6,132.5,136.5,130.5,7.2
159.0,126.9,133.3,141.8,134.0,7.5
160.5,128.5,135.8,144.4,136.2,8.0
162.0,132.3,138.3,148.5,139.7,8.2
163.5,135.9,142.5,148.2,142.2,6.1
165.0,137.8,145.0,154.6,145.8,8.4
166.5,141.8,146.5,155.4,147.9,6.9
168.0,143.1,151.1,161.0,151.8,9.0
169.5,145.6,158.0,161.5,155.0,8.4
171.0,146.9,162.4,165.6,158.3,10.0
172.5,149.4,165.6,167.5,160.8,10.0
174.0,154.6,166.4,171.5,164.2,8.7
175.5,155.2,171.0,171.7,166.0,9.3
177.0,159.7,170.4,176.0,168.7,8.3
178.5,161.9,172.0,178.2,170.7,8.2
180.0,162.2,173.0,181.0,172.1,9.4
181.5,166.1,175.4,180.2,173.9,7.2
183.0,166.1,174.5,184.1,174.9,9.0
184.5,166.9,174.8,187.8,176.5,10.6
186.0,168.6,175.4,186.5,176.8,9.0
187.5,167.4,178.6,190.2,178.7,11.4
189.0,166.9,176.3,193.1,178.7,13.2
190.5,169.5,178.8,194.7,181.0,12.7
192.0,169.1,178.6,196.5,181.4,13.9
193.5,168.2,179.2,198.3,181.9,15.2
195.0,171.4,181.9,203.1,185.4,16.1
196.5,172.3,181.8,203.5,185.8,16.0
198.0,170.7,182.3,205.0,186.0,17.4
199.5,171.6,188.5,205.5,188.5,16.9
201.0,175.6,188.2,211.3,191.7,18.1
202.5,176.2,188.1,208.4,190.9,16.3
204.0,176.2,190.6,208.9,191.9,16.4
205.5,178.9,192.0,205.2,192.0,13.2
207.0,180.5,191.9,208.8,193.7,14.3
208.5,179.6,191.3,208.9,193.3,14.8
210.0,184.0,192.3,209.0,195.1,12.7
211.5,183.6,189.3,207.5,193.5,12.5
213.0,186.4,193.6,205.3,195.1,9.5
214.5,186.9,188.3,197.8,191.0,5.9
216.0,184.9,189.1,195.1,189.7,5.2
217.5,187.5,188.6,189.7,188.6,1.1
219.0,188.5,191.4,182.6,187.5,4.5
220.5,188.3,181.5,179.3,183.0,4.7
222.0,189.9,178.1,168.9,179.0,10.5
223.5,186.3,174.1,161.6,174.0,12.4
225.0,184.0,169.8,149.4,167.7,17.4
226.5,179.8,164.8,140.7,161.8,19.8
228.0,177.1,161.5,127.3,155.3,25.5
229.5,173.8,155.0,108.8,145.9,33.4
231.0,168.5,143.2,95.0,135.6,37.3
232.5,164.3,130.5,83.0,125.9,40.8
234.0,153.9,119.5,74.0,115.8,40.1
235.5,145.4,107.5,65.0,105.9,40.2
237.0,133.2,94.3,58.0,95.2,37.6
238.5,128.2,83.8,52.7,88.2,37.9
240.0,115.0,77.5,48.9,80.4,33.2
241.5,103.6,69.1,44.7,72.5,29.6
243.0,91.4,63.8,42.3,65.8,24.6
244.5,82.3,59.5,40.4,60.7,21.0
246.0,72.2,55.8,39.4,55.8,16.4
247.5,64.8,52.4,38.8,52.0,13.0
249.0,57.2,49.7,40.1,49.0,8.6
250.5,52.2,49.0,39.8,47.0,6.4
252.0,48.3,47.1,38.9,44.8,5.1
253.5,46.4,45.6,39.2,43.7,4.0
255.0,42.9,43.1,39.8,41.9,1.9
256.5,41.0,42.5,39.0,40.8,1.8
258.0,39.5,41.0,38.8,39.8,1.2
259.5,38.7,40.4,37.8,39.0,1.3
261.0,38.7,39.5,37.2,38.5,1.2
262.5,38.2,39.0,37.2,38.2,0.9
264.0,37.8,38.0,36.9,37.6,0.6
265.5,38.1,38.6,36.7,37.8,1.0
267.0,38.1,37.5,36.1,37.2,1.0
268.5,37.7,37.2,36.4,37.1,0.7
270.0,37.7,36.3,36.1,36.7,0.9
271.5,37.5,35.5,35.7,36.2,1.1
273.0,36.9,35.5,36.0,36.2,0.7
274.5,36.0,35.2,34.8,35.3,0.6
276.0,35.9,34.8,35.3,35.3,0.5
277.5,36.2,35.2,36.8,36.1,0.8
279.0,36.2,35.7,41.3,37.7,3.1
280.5,35.0,35.5,44.1,38.2,5.1
282.0,35.7,35.2,45.7,38.9,5.9
283.5,35.4,34.7,44.8,38.3,5.6
285.0,36.0,34.7,43.6,38.1,4.8
286.5,35.4,34.7,42.3,37.4,4.2
288.0,35.9,34.1,41.9,37.3,4.1
289.5,34.9,33.7,40.1,36.2,3.4
291.0,34.7,34.3,39.4,36.2,2.8
292.5,34.7,33.6,39.4,35.9,3.1
294.0,34.3,33.2,36.8,34.8,1.9
295.5,34.3,33.6,35.3,34.4,0.9
297.0,34.7,33.9,34.2,34.3,0.4
298.5,34.8,33.8,33.8,34.1,0.6
300.0,33.8,33.3,32.8,33.3,0.5
301.5,33.1,33.6,32.7,33.1,0.4
303.0,33.2,33.0,32.0,32.8,0.6
304.5,33.3,33.6,32.3,33.1,0.7
306.0,33.5,33.1,31.9,32.8,0.8
307.5,33.6,33.2,32.3,33.0,0.7
309.0,33.1,33.2,33.3,33.2,0.1
310.5,32.5,32.9,33.0,32.8,0.3
312.0,31.6,33.3,32.9,32.6,0.9
313.5,31.8,32.9,32.7,32.5,0.6
315.0,31.7,32.8,31.8,32.1,0.6
316.5,31.5,32.9,31.3,31.9,0.9
318.0,31.6,33.0,30.5,31.7,1.2
319.5,31.8,32.8,30.2,31.6,1.3
321.0,31.7,32.1,31.0,31.6,0.6
322.5,31.6,32.6,30.1,31.4,1.3
324.0,31.7,33.1,30.2,31.7,1.5
325.5,31.6,31.6,30.5,31.2,0.7
327.0,31.2,32.4,29.8,31.1,1.3
328.5,30.9,32.4,30.1,31.1,1.2
330.0,30.9,32.1,30.2,31.1,0.9
331.5,31.1,32.2,30.0,31.1,1.1
333.0,30.8,32.6,29.5,31.0,1.5
334.5,30.6,32.6,29.3,30.9,1.6
336.0,30.0,32.2,29.3,30.5,1.5
337.5,30.2,32.6,28.4,30.4,2.1
339.0,30.2,32.0,28.1,30.1,1.9
340.5,30.0,31.4,28.4,29.9,1.5
342.0,29.9,31.4,28.6,30.0,1.4
343.5,29.9,31.1,28.6,29.9,1.3
345.0,29.8,31.4,28.7,30.0,1.4
346.5,30.4,30.6,28.6,29.9,1.1
348.0,29.7,31.0,28.3,29.7,1.3
349.5,30.4,30.9,28.9,30.0,1.0
351.0,30.4,,28.7,29.5,1.2
352.5,29.9,,28.6,29.2,0.9
354.0,29.5,,28.4,29.0,0.8
355.5,29.4,,28.8,29.1,0.4
357.0,29.3,,28.4,28.8,0.6
358.5,29.3,,28.1,28.7,0.8
360.0,29.3,,28.4,28.8,0.7
361.5,29.2,,27.7,28.5,1.0
363.0,28.2,,26.8,27.5,1.0
364.5,28.7,,27.1,27.9,1.1
366.0,28.7,,27.2,28.0,1.1
367.5,28.5,,26.9,27.7,1.1
369.0,28.7,,26.8,27.8,1.3
370.5,28.3,,26.8,27.5,1.0
372.0,28.4,,26.9,27.6,1.1
373.5,27.9,,26.6,27.2,0.9
375.0,28.0,,26.6,27.3,1.0
376.5,27.9,,26.4,27.1,1.0
376.75,27.9,,26.8,27.3,0.8