File: 01_Data/Basswood_Panel/Cone/Basswood_Panel_HRRPUA_50.csv
Time after Ignition,Basswood_Panel_R1,Basswood_Panel_R2,Basswood_Panel_R3,Mean,Std. Dev.
0.0,2.7,3.7,4.2,3.5,0.8
2.25,2.6,2.7,3.4,2.9,0.4
4.5,2.5,2.4,3.0,2.6,0.3
6.75,1.4,2.9,3.0,2.4,0.9
9.0,1.6,4.6,3.5,3.2,1.5
11.25,27.5,23.3,22.1,24.3,2.8
13.5,80.1,74.7,69.6,74.8,5.2
15.75,136.7,140.8,125.1,134.2,8.1
18.0,190.7,187.7,180.6,186.3,5.2
20.25,220.9,221.9,213.0,218.6,4.9
22.5,252.3,238.3,228.0,239.5,12.2
24.75,268.6,261.4,242.1,257.4,13.7
27.0,278.6,271.6,258.6,269.6,10.2
29.25,276.6,271.9,261.1,269.9,7.9
31.5,286.3,281.2,263.4,277.0,12.1
33.75,279.5,271.0,263.4,271.3,8.0
36.0,281.8,283.3,265.0,276.7,10.1
38.25,279.1,277.1,264.1,273.4,8.1
40.5,274.2,270.7,273.0,272.6,1.8
42.75,282.8,267.8,264.3,271.6,9.9
45.0,272.9,273.1,272.8,272.9,0.2
47.25,266.9,266.3,266.2,266.4,0.4
49.5,266.0,265.9,260.1,264.0,3.4
51.75,259.6,255.6,257.7,257.6,2.0
54.0,258.6,252.5,247.3,252.8,5.7
56.25,251.9,247.8,250.8,250.1,2.1
58.5,249.3,241.9,246.0,245.7,3.7
60.75,241.0,246.1,241.2,242.8,2.9
63.0,240.7,238.3,244.5,241.2,3.1
65.25,244.7,235.4,237.7,239.3,4.8
67.5,235.1,236.0,228.7,233.3,4.0
69.75,231.9,231.1,226.7,229.9,2.8
72.0,226.9,221.9,228.0,225.6,3.3
74.25,233.6,225.3,219.2,226.0,7.2
76.5,222.1,220.3,219.6,220.7,1.3
78.75,221.6,220.9,217.1,219.9,2.4
81.0,219.2,220.3,218.2,219.2,1.1
83.25,218.1,219.7,216.4,218.0,1.7
85.5,213.8,212.1,213.9,213.3,1.0
87.75,215.1,207.7,212.4,211.7,3.8
90.0,211.9,207.8,213.0,210.9,2.7
92.25,209.7,202.9,209.0,207.2,3.7
94.5,206.2,203.9,210.1,206.7,3.1
96.75,207.0,199.0,207.9,204.6,4.9
99.0,200.6,203.8,205.9,203.4,2.6
101.25,204.0,201.5,203.6,203.0,1.3
103.5,196.5,199.1,204.9,200.2,4.3
105.75,196.5,199.0,200.9,198.8,2.2
108.0,195.5,196.7,193.5,195.2,1.7
110.25,194.5,198.7,193.5,195.6,2.7
112.5,190.4,192.3,194.6,192.4,2.1
114.75,191.4,193.3,192.2,192.3,0.9
117.0,188.6,187.7,189.6,188.6,1.0
119.25,189.8,193.3,190.3,191.1,1.9
121.5,189.0,189.9,186.7,188.5,1.7
123.75,187.8,183.8,182.3,184.6,2.9
126.0,183.9,184.9,183.8,184.2,0.6
128.25,181.4,181.1,184.4,182.3,1.8
130.5,181.2,181.0,182.5,181.6,0.8
132.75,179.0,181.2,178.3,179.5,1.5
135.0,181.3,181.4,179.3,180.7,1.2
137.25,178.8,174.7,176.8,176.8,2.0
139.5,176.4,177.4,175.5,176.4,0.9
141.75,174.6,180.3,174.5,176.4,3.3
144.0,170.8,175.6,174.3,173.6,2.5
146.25,169.5,175.1,172.2,172.2,2.8
148.5,173.1,172.3,171.4,172.3,0.8
150.75,171.6,173.6,169.4,171.5,2.1
153.0,168.4,170.2,168.3,169.0,1.0
155.25,168.0,170.8,165.7,168.2,2.6
157.5,169.8,168.4,166.6,168.3,1.6
159.75,167.7,168.3,163.3,166.5,2.8
162.0,165.7,167.4,162.2,165.1,2.7
164.25,164.2,167.8,160.4,164.1,3.7
166.5,164.4,165.2,160.5,163.3,2.5
168.75,160.9,167.7,160.8,163.1,4.0
171.0,163.0,167.8,159.7,163.5,4.1
173.25,160.8,164.9,158.1,161.3,3.4
175.5,162.6,167.8,157.7,162.7,5.1
177.75,160.6,164.4,159.5,161.5,2.6
180.0,161.7,163.5,156.2,160.5,3.8
182.25,161.2,164.0,159.4,161.5,2.3
184.5,159.1,165.7,157.2,160.6,4.5
186.75,160.8,166.7,156.3,161.3,5.2
189.0,159.2,165.1,154.3,159.5,5.4
191.25,159.8,164.5,153.4,159.2,5.6
193.5,159.4,165.5,154.2,159.7,5.6
195.75,158.4,163.5,152.5,158.1,5.5
198.0,156.4,162.2,153.3,157.3,4.5
200.25,156.2,161.1,152.2,156.5,4.4
202.5,154.2,159.2,152.8,155.4,3.4
204.75,155.8,159.2,152.8,155.9,3.2
207.0,154.6,160.7,154.0,156.4,3.7
209.25,157.1,159.0,151.2,155.8,4.1
211.5,155.5,160.2,152.1,155.9,4.1
213.75,157.5,157.6,151.7,155.6,3.4
216.0,155.5,156.9,154.1,155.5,1.4
218.25,158.7,156.5,151.4,155.5,3.7
220.5,157.7,156.1,153.8,155.8,1.9
222.75,155.6,158.1,153.7,155.8,2.2
225.0,156.5,154.3,153.4,154.7,1.6
227.25,156.7,156.8,152.1,155.2,2.7
229.5,154.7,157.3,152.1,154.7,2.6
231.75,156.2,156.2,150.9,154.4,3.1
234.0,155.8,155.9,149.7,153.8,3.6
236.25,154.2,153.3,150.0,152.5,2.2
238.5,155.9,153.8,151.8,153.8,2.0
240.75,155.0,152.9,149.8,152.5,2.6
243.0,157.5,154.2,150.8,154.1,3.3
245.25,155.1,154.5,151.3,153.6,2.1
247.5,156.3,154.1,151.7,154.0,2.3
249.75,155.4,154.7,151.5,153.9,2.1
252.0,154.0,157.3,148.3,153.2,4.6
254.25,155.7,154.5,148.6,152.9,3.8
256.5,154.2,155.7,150.1,153.3,2.9
258.75,154.3,153.3,148.1,151.9,3.3
261.0,155.5,155.7,147.7,153.0,4.6
263.25,158.7,151.8,147.9,152.8,5.5
265.5,154.8,155.6,149.2,153.2,3.5
267.75,157.4,154.6,148.3,153.4,4.7
270.0,156.9,153.4,149.7,153.3,3.6
272.25,153.0,155.2,151.5,153.2,1.9
274.5,159.2,158.6,148.3,155.4,6.1
276.75,157.7,153.8,150.5,154.0,3.6
279.0,155.9,153.9,153.4,154.4,1.3
281.25,158.6,157.4,151.5,155.8,3.8
283.5,156.9,154.8,150.4,154.0,3.3
285.75,157.7,155.9,150.1,154.6,4.0
288.0,157.1,153.6,148.6,153.1,4.3
290.25,160.3,154.2,149.7,154.7,5.3
292.5,158.6,154.8,152.3,155.2,3.2
294.75,159.0,154.3,149.6,154.3,4.7
297.0,158.5,154.0,152.2,154.9,3.2
299.25,159.5,155.7,150.9,155.4,4.3
301.5,156.4,154.7,150.6,153.9,2.9
303.75,156.0,155.1,149.7,153.6,3.5
306.0,158.2,155.5,150.3,154.7,4.0
308.25,154.2,157.8,148.4,153.5,4.8
310.5,159.0,153.8,148.9,153.9,5.0
312.75,161.7,157.3,150.4,156.5,5.7
315.0,160.1,155.4,150.6,155.3,4.7
317.25,160.4,157.3,150.6,156.1,5.0
319.5,159.8,155.4,152.4,155.9,3.7
321.75,157.9,156.1,149.1,154.4,4.7
324.0,161.7,157.5,148.9,156.1,6.5
326.25,159.8,155.5,148.5,154.6,5.7
328.5,158.9,156.2,147.7,154.3,5.9
330.75,159.7,154.7,148.6,154.3,5.5
333.0,161.9,157.0,145.8,154.9,8.3
335.25,158.6,160.0,149.7,156.1,5.5
337.5,160.7,155.7,150.8,155.7,4.9
339.75,157.1,157.9,151.8,155.6,3.3
342.0,161.7,158.5,149.2,156.5,6.5
344.25,162.8,158.4,151.7,157.6,5.6
346.5,159.6,159.7,150.3,156.5,5.4
348.75,163.2,157.6,149.5,156.8,6.9
351.0,160.0,157.6,153.9,157.1,3.1
353.25,163.4,160.1,150.9,158.1,6.4
355.5,161.1,158.2,149.3,156.2,6.2
357.75,161.7,163.9,149.9,158.5,7.5
360.0,162.0,158.2,152.9,157.7,4.6
362.25,163.4,162.3,152.8,159.5,5.9
364.5,163.4,162.2,155.5,160.4,4.3
366.75,161.0,164.7,157.4,161.0,3.6
369.0,161.7,163.6,155.7,160.3,4.1
371.25,164.0,161.0,156.4,160.5,3.9
373.5,165.5,164.1,151.8,160.5,7.5
375.75,161.7,160.1,153.2,158.3,4.5
378.0,164.9,161.6,155.0,160.5,5.0
380.25,164.7,163.1,157.0,161.6,4.1
382.5,163.5,162.6,157.4,161.2,3.3
384.75,163.1,163.1,157.1,161.1,3.5
387.0,164.6,166.7,159.2,163.5,3.9
389.25,160.9,166.3,159.3,162.1,3.7
391.5,161.1,165.3,162.2,162.8,2.2
393.75,165.0,164.6,162.3,164.0,1.4
396.0,163.5,166.5,166.5,165.5,1.7
398.25,166.0,167.5,162.8,165.4,2.4
400.5,163.9,167.2,166.6,165.9,1.8
402.75,165.7,167.8,164.5,166.0,1.7
405.0,163.0,166.4,165.7,165.1,1.8
407.25,167.8,166.5,165.2,166.5,1.3
409.5,167.4,168.4,168.6,168.1,0.6
411.75,164.5,168.9,170.1,167.8,3.0
414.0,165.6,170.8,170.1,168.8,2.8
416.25,168.2,170.7,168.9,169.3,1.3
418.5,165.6,172.0,172.2,170.0,3.7
420.75,170.0,171.9,173.1,171.6,1.5
423.0,170.2,172.8,173.1,172.1,1.6
425.25,170.8,168.6,175.6,171.7,3.6
427.5,168.0,172.2,173.5,171.2,2.9
429.75,168.7,171.5,173.7,171.3,2.5
432.0,167.4,175.7,176.3,173.1,5.0
434.25,168.3,176.6,176.2,173.7,4.7
436.5,173.7,173.0,178.5,175.1,3.0
438.75,172.5,177.1,177.6,175.7,2.8
441.0,170.9,175.2,183.1,176.4,6.2
443.25,172.4,174.1,182.8,176.4,5.6
445.5,172.9,174.9,185.4,177.7,6.7
447.75,176.3,177.7,183.0,179.0,3.6
450.0,171.3,180.6,185.1,179.0,7.0
452.25,175.5,181.5,189.2,182.1,6.8
454.5,177.0,182.5,187.4,182.3,5.2
456.75,182.3,181.8,189.8,184.7,4.5
459.0,178.6,184.2,189.3,184.0,5.3
461.25,178.6,184.9,187.4,183.6,4.5
463.5,181.0,187.1,188.1,185.4,3.8
465.75,181.7,186.3,190.8,186.3,4.5
468.0,182.6,186.7,196.5,188.6,7.1
470.25,180.9,191.4,190.1,187.5,5.8
472.5,185.3,189.6,196.0,190.3,5.4
474.75,181.7,192.1,193.5,189.1,6.5
477.0,181.8,193.6,195.3,190.2,7.4
479.25,182.9,194.5,196.3,191.2,7.2
481.5,188.9,194.8,197.6,193.8,4.4
483.75,189.3,194.4,199.8,194.5,5.2
486.0,187.1,196.2,202.4,195.2,7.7
488.25,186.8,198.8,203.5,196.4,8.6
490.5,189.8,202.1,208.0,199.9,9.3
492.75,191.8,204.3,208.9,201.7,8.9
495.0,191.9,205.6,208.8,202.1,9.0
497.25,194.0,209.1,209.2,204.1,8.7
499.5,194.0,206.9,211.3,204.1,9.0
501.75,195.5,205.0,211.2,203.9,7.9
504.0,194.6,211.7,214.5,206.9,10.8
506.25,194.7,210.0,212.2,205.6,9.5
508.5,198.9,214.1,210.5,207.8,8.0
510.75,197.5,211.2,212.6,207.1,8.4
513.0,198.5,210.9,218.8,209.4,10.2
515.25,198.9,209.4,217.9,208.7,9.5
517.5,196.9,209.9,222.1,209.6,12.6
519.75,199.1,211.1,222.6,210.9,11.7
522.0,199.2,212.5,220.1,210.6,10.6
524.25,195.9,211.2,222.9,210.0,13.6
526.5,198.5,213.0,222.7,211.4,12.2
528.75,198.0,209.7,220.2,209.3,11.1
531.0,200.0,209.2,219.4,209.5,9.7
533.25,202.1,207.2,224.6,211.3,11.8
535.5,200.5,209.2,220.2,209.9,9.9
537.75,201.7,206.2,223.0,210.3,11.2
540.0,203.2,200.9,220.2,208.1,10.6
542.25,200.0,198.0,216.5,204.8,10.2
544.5,196.2,194.1,214.9,201.7,11.5
546.75,194.6,188.5,216.8,199.9,14.9
549.0,196.0,187.3,215.5,199.6,14.4
551.25,190.7,184.6,212.6,196.0,14.7
553.5,190.3,177.3,214.6,194.1,18.9
555.75,189.9,172.1,212.2,191.4,20.1
558.0,184.9,163.3,211.6,186.6,24.2
560.25,179.2,154.1,210.7,181.3,28.4
562.5,171.6,145.3,213.2,176.7,34.3
564.75,163.0,132.9,212.2,169.4,40.1
567.0,152.3,118.0,210.2,160.2,46.6
569.25,141.2,106.5,212.6,153.4,54.1
571.5,129.5,95.2,205.4,143.4,56.4
573.75,115.3,87.2,205.6,136.0,61.9
576.0,104.9,79.1,206.8,130.3,67.5
578.25,91.8,71.9,206.7,123.5,72.7
580.5,82.5,64.6,205.5,117.5,76.7
582.75,74.3,61.3,202.0,112.5,77.7
585.0,67.3,57.7,201.8,108.9,80.6
587.25,61.1,55.1,201.1,105.8,82.6
589.5,58.1,53.8,198.4,103.4,82.3
591.75,54.2,52.8,197.3,101.4,83.1
594.0,52.2,51.9,194.0,99.4,82.0
596.25,51.5,49.9,189.3,96.9,80.0
598.5,51.5,48.8,185.4,95.2,78.1
600.75,51.4,49.4,182.8,94.5,76.4
603.0,52.1,48.4,182.5,94.3,76.4
605.25,50.9,47.7,177.1,91.9,73.8
607.5,50.6,47.1,176.0,91.2,73.4
609.75,49.1,46.5,166.1,87.2,68.3
612.0,47.1,46.4,160.0,84.5,65.4
614.25,46.6,45.7,155.2,82.5,63.0
615.25,46.7,47.0,151.2,81.6,60.2