File: 01_Data/Basswood_Panel/Cone/Basswood_Panel_HRRPUA_25.csv
Time after Ignition,Basswood_Panel_R1,Basswood_Panel_R2,Basswood_Panel_R3,Basswood_Panel_R4,Mean,Std. Dev.
0.0,16.7,6.1,4.0,2.6,7.3,6.4
3.0,84.5,64.9,70.7,2.4,55.6,36.4
6.0,156.8,136.0,137.1,2.4,108.0,71.1
9.0,208.6,175.5,182.3,10.6,144.3,90.2
12.0,224.2,200.4,211.6,74.2,177.6,69.6
15.0,232.8,212.0,230.0,140.2,203.8,43.3
18.0,238.3,223.9,237.9,181.9,220.5,26.6
21.0,236.1,224.3,244.4,209.0,228.5,15.4
24.0,226.7,224.1,247.8,224.1,230.7,11.4
27.0,217.5,222.2,241.7,232.1,228.4,10.8
30.0,210.7,223.2,231.8,240.2,226.5,12.6
33.0,202.2,219.4,219.2,239.9,220.2,15.4
36.0,193.3,217.9,210.6,234.2,214.0,17.0
39.0,187.1,205.4,197.4,227.9,204.5,17.3
42.0,180.2,200.9,191.8,221.4,198.6,17.4
45.0,173.1,194.2,178.9,209.0,188.8,16.1
48.0,168.2,182.8,171.3,199.2,180.4,14.0
51.0,161.3,174.7,168.4,188.5,173.2,11.5
54.0,156.9,170.5,164.6,179.7,167.9,9.6
57.0,154.2,165.5,165.8,172.6,164.5,7.6
60.0,147.8,163.2,157.5,165.2,158.4,7.8
63.0,145.8,158.9,156.2,160.0,155.2,6.5
66.0,143.1,154.7,150.0,154.6,150.6,5.4
69.0,140.4,149.9,146.9,148.6,146.4,4.2
72.0,136.1,148.1,144.4,145.6,143.5,5.2
75.0,135.7,144.3,143.1,143.6,141.7,4.0
78.0,132.4,143.4,141.9,143.3,140.2,5.3
81.0,130.4,142.2,138.3,141.4,138.1,5.4
84.0,127.5,138.3,137.0,140.9,135.9,5.9
87.0,125.6,136.4,134.6,139.0,133.9,5.8
90.0,126.0,133.1,133.9,137.7,132.7,4.9
93.0,124.5,130.0,132.9,136.7,131.0,5.2
96.0,123.6,129.0,133.4,132.4,129.6,4.4
99.0,122.4,126.6,131.2,130.1,127.6,4.0
102.0,120.4,124.9,129.5,127.7,125.6,4.0
105.0,121.8,123.1,126.3,127.7,124.7,2.7
108.0,120.4,120.6,126.3,125.0,123.1,3.0
111.0,117.7,120.4,126.3,124.5,122.2,3.9
114.0,117.3,120.5,122.8,124.3,121.2,3.1
117.0,116.9,119.2,122.4,123.1,120.4,2.9
120.0,117.5,118.9,121.8,121.3,119.9,2.1
123.0,116.2,119.0,121.0,122.3,119.6,2.6
126.0,116.7,119.6,121.0,119.3,119.2,1.8
129.0,117.8,119.3,121.6,118.6,119.3,1.6
132.0,114.2,116.8,120.0,117.1,117.0,2.3
135.0,116.8,117.1,117.9,117.1,117.2,0.5
138.0,116.9,117.4,118.6,116.6,117.4,0.9
141.0,115.5,114.4,115.7,115.9,115.4,0.6
144.0,113.2,112.8,112.9,116.3,113.8,1.7
147.0,114.8,112.4,112.0,115.7,113.7,1.8
150.0,114.8,111.2,111.0,113.2,112.6,1.8
153.0,115.8,109.4,110.2,113.5,112.2,3.0
156.0,114.1,109.9,111.0,112.5,111.9,1.8
159.0,114.5,109.0,109.2,110.7,110.8,2.6
162.0,113.6,111.5,107.2,111.9,111.0,2.7
165.0,113.7,109.5,107.2,110.2,110.2,2.7
168.0,116.0,107.7,107.6,108.0,109.8,4.1
171.0,113.7,108.7,106.8,108.8,109.5,3.0
174.0,112.9,108.7,107.0,107.0,108.9,2.8
177.0,110.1,106.7,105.7,105.6,107.0,2.1
180.0,108.9,108.4,103.7,109.7,107.7,2.7
183.0,108.4,107.4,105.7,107.2,107.2,1.1
186.0,108.3,107.1,104.6,106.9,106.7,1.6
189.0,107.1,106.9,104.9,106.3,106.3,1.0
192.0,105.6,105.8,105.9,105.7,105.7,0.1
195.0,105.5,105.5,104.0,107.5,105.6,1.4
198.0,103.6,106.6,102.3,108.3,105.2,2.7
201.0,104.0,105.7,102.6,109.4,105.5,2.9
204.0,103.9,106.8,101.3,107.8,105.0,2.9
207.0,102.9,105.1,101.0,107.3,104.1,2.8
210.0,98.7,106.3,102.3,105.6,103.2,3.5
213.0,102.4,106.9,102.5,106.4,104.6,2.4
216.0,101.2,105.9,103.0,105.0,103.8,2.1
219.0,99.5,104.3,101.7,106.6,103.0,3.1
222.0,99.4,104.5,101.8,105.6,102.8,2.8
225.0,99.8,104.9,101.2,104.5,102.6,2.5
228.0,97.5,104.1,100.3,105.6,101.9,3.7
231.0,99.3,104.3,99.5,103.9,101.8,2.7
234.0,98.0,104.6,101.9,105.2,102.4,3.3
237.0,97.0,101.4,99.5,105.8,100.9,3.7
240.0,97.2,102.8,99.9,104.9,101.2,3.4
243.0,97.0,102.2,98.8,104.9,100.7,3.5
246.0,95.4,102.3,97.7,105.4,100.2,4.5
249.0,95.5,101.2,100.4,106.1,100.8,4.3
252.0,94.8,99.5,99.5,105.7,99.9,4.5
255.0,95.0,99.9,99.9,104.2,99.8,3.8
258.0,94.4,99.4,100.7,104.3,99.7,4.1
261.0,95.4,100.2,99.7,103.9,99.8,3.5
264.0,96.6,99.2,98.8,101.4,99.0,2.0
267.0,95.7,98.2,98.6,103.3,98.9,3.2
270.0,95.8,97.3,97.3,103.8,98.5,3.6
273.0,96.0,96.0,96.8,102.8,97.9,3.3
276.0,97.6,97.1,99.2,100.8,98.7,1.7
279.0,96.4,97.6,98.8,101.7,98.6,2.3
282.0,95.9,97.6,99.1,101.5,98.5,2.4
285.0,95.2,98.3,99.8,100.2,98.4,2.3
288.0,95.9,97.5,100.8,99.7,98.5,2.2
291.0,96.1,98.1,98.4,99.9,98.1,1.6
294.0,96.1,98.2,98.7,98.2,97.8,1.2
297.0,97.1,96.9,98.4,97.6,97.5,0.7
300.0,95.9,95.5,99.8,97.4,97.2,1.9
303.0,95.7,95.1,97.3,98.3,96.6,1.5
306.0,95.5,94.4,97.9,97.6,96.3,1.7
309.0,95.0,93.9,98.4,100.3,96.9,3.0
312.0,96.2,94.2,100.0,98.5,97.2,2.6
315.0,95.9,93.9,98.3,100.0,97.0,2.7
318.0,95.8,95.4,99.4,96.7,96.8,1.8
321.0,95.1,94.6,98.6,96.8,96.3,1.8
324.0,94.3,94.8,99.4,97.9,96.6,2.5
327.0,96.6,92.2,99.5,96.5,96.2,3.0
330.0,95.9,95.2,99.2,96.0,96.6,1.8
333.0,96.3,93.7,99.3,95.5,96.2,2.3
336.0,96.1,95.5,98.6,95.5,96.4,1.5
339.0,95.4,95.4,98.9,96.7,96.6,1.7
342.0,95.5,95.6,98.4,97.0,96.6,1.4
345.0,94.8,96.8,98.2,95.3,96.3,1.5
348.0,95.6,96.0,99.2,95.9,96.7,1.7
351.0,97.1,94.9,98.7,95.8,96.6,1.6
354.0,97.7,96.0,98.1,96.4,97.0,1.0
357.0,99.1,95.9,98.3,94.9,97.1,2.0
360.0,100.0,97.6,99.3,95.3,98.1,2.1
363.0,97.8,97.3,99.3,97.1,97.9,1.0
366.0,98.0,95.6,97.6,95.7,96.7,1.3
369.0,97.6,95.4,99.7,98.3,97.8,1.8
372.0,97.4,98.4,100.6,96.2,98.1,1.8
375.0,98.0,98.2,99.2,95.8,97.8,1.4
378.0,97.4,98.3,99.0,98.7,98.4,0.7
381.0,99.1,98.5,97.1,98.0,98.2,0.9
384.0,99.1,98.2,99.6,98.9,98.9,0.6
387.0,99.3,101.1,99.6,98.2,99.5,1.2
390.0,100.1,101.1,100.5,98.6,100.1,1.1
393.0,100.2,98.5,100.5,100.4,99.9,0.9
396.0,99.7,100.3,101.5,99.9,100.4,0.8
399.0,98.3,100.7,102.4,99.8,100.3,1.7
402.0,98.8,101.1,100.9,99.3,100.1,1.1
405.0,98.1,100.3,101.3,100.2,100.0,1.3
408.0,100.3,99.8,101.0,101.3,100.6,0.7
411.0,101.0,100.4,98.9,101.9,100.5,1.2
414.0,99.8,102.0,102.2,103.4,101.9,1.5
417.0,99.6,102.0,101.4,102.6,101.4,1.3
420.0,101.1,102.4,102.5,104.5,102.6,1.4
423.0,102.0,104.4,101.0,104.5,103.0,1.7
426.0,101.7,104.6,101.2,105.8,103.3,2.2
429.0,101.5,104.9,101.9,108.0,104.1,3.0
432.0,101.0,104.8,102.3,107.9,104.0,3.0
435.0,101.8,103.4,101.6,108.8,103.9,3.4
438.0,102.5,104.8,101.3,107.2,104.0,2.6
441.0,104.7,105.9,103.3,108.4,105.6,2.2
444.0,105.0,104.3,103.9,109.8,105.8,2.8
447.0,105.4,105.5,103.6,109.0,105.9,2.3
450.0,104.4,106.2,104.7,110.3,106.4,2.7
453.0,106.4,106.9,104.3,111.0,107.1,2.8
456.0,108.0,109.1,103.4,112.5,108.2,3.8
459.0,110.5,108.4,103.5,110.6,108.2,3.3
462.0,110.3,109.4,103.8,110.2,108.4,3.1
465.0,108.6,109.3,104.3,111.8,108.5,3.1
468.0,109.9,108.7,104.6,113.5,109.2,3.7
471.0,111.0,109.7,107.1,114.0,110.5,2.9
474.0,115.0,110.9,105.8,113.8,111.4,4.1
477.0,113.2,113.3,106.8,114.4,111.9,3.5
480.0,114.0,114.5,106.2,116.2,112.7,4.5
483.0,113.8,114.3,106.7,115.6,112.6,4.0
486.0,113.7,112.9,107.8,117.4,113.0,3.9
489.0,116.2,113.8,107.5,115.4,113.2,4.0
492.0,119.7,114.2,107.2,115.7,114.2,5.2
495.0,121.8,115.4,108.5,118.0,115.9,5.6
498.0,120.3,118.9,109.7,117.6,116.6,4.8
501.0,121.6,121.2,110.0,117.8,117.7,5.4
504.0,123.2,118.4,110.4,122.5,118.6,5.9
507.0,124.5,120.8,111.3,122.4,119.7,5.8
510.0,128.3,120.7,112.4,122.9,121.1,6.6
513.0,129.1,122.9,113.4,122.7,122.0,6.5
516.0,130.1,124.0,114.2,124.0,123.1,6.6
519.0,131.4,123.0,113.3,123.3,122.8,7.4
522.0,133.1,124.2,115.1,129.6,125.5,7.8
525.0,135.6,125.8,113.6,128.3,125.8,9.2
528.0,137.9,127.3,115.2,128.7,127.3,9.3
531.0,137.0,126.2,115.3,128.0,126.6,8.9
534.0,140.9,128.1,117.3,132.4,129.7,9.8
537.0,141.2,129.2,118.9,131.7,130.3,9.1
540.0,143.4,128.6,119.9,132.0,131.0,9.7
543.0,148.4,130.8,121.2,136.2,134.2,11.3
546.0,150.3,134.4,122.0,139.4,136.5,11.8
549.0,149.3,133.6,124.5,136.7,136.0,10.3
552.0,151.3,137.1,126.0,141.2,138.9,10.5
555.0,153.4,137.7,126.5,143.6,140.3,11.2
558.0,157.0,136.6,127.1,142.0,140.7,12.5
561.0,158.5,142.6,129.6,141.5,143.1,11.9
564.0,162.7,142.2,131.7,143.9,145.1,12.9
567.0,164.2,144.1,132.1,147.5,147.0,13.2
570.0,165.2,145.2,134.1,149.7,148.6,12.9
573.0,165.5,150.7,135.8,149.5,150.4,12.1
576.0,168.9,151.0,135.7,150.9,151.6,13.6
579.0,174.5,151.7,136.8,148.4,152.9,15.8
582.0,174.2,150.1,140.6,152.4,154.3,14.2
585.0,177.3,154.6,142.0,153.6,156.9,14.8
588.0,179.2,156.8,142.2,153.6,158.0,15.5
591.0,176.6,157.3,142.7,157.6,158.5,13.9
594.0,184.7,156.4,145.7,158.4,161.3,16.6
597.0,183.5,158.0,146.3,159.7,161.9,15.6
600.0,184.6,160.2,149.6,162.4,164.2,14.7
603.0,184.0,161.8,150.6,166.1,165.6,13.9
606.0,188.4,166.4,152.0,165.2,168.0,15.1
609.0,185.9,167.4,153.4,170.2,169.2,13.3
612.0,182.9,167.9,157.0,168.3,169.0,10.6
615.0,188.6,167.0,158.5,172.5,171.6,12.7
618.0,191.4,169.8,161.7,170.6,173.4,12.7
621.0,192.4,170.2,161.3,173.8,174.4,13.1
624.0,193.0,174.0,166.4,175.4,177.2,11.3
627.0,188.0,174.9,162.7,174.7,175.1,10.3
630.0,189.7,174.6,167.4,180.3,178.0,9.4
633.0,187.5,178.0,165.0,187.4,179.5,10.6
636.0,186.3,179.1,166.6,185.9,179.5,9.2
639.0,186.5,181.1,171.1,186.7,181.3,7.3
642.0,189.9,175.9,173.9,186.0,181.4,7.7
645.0,188.8,175.3,172.8,188.3,181.3,8.4
648.0,186.6,179.7,174.5,193.5,183.6,8.3
651.0,187.8,178.8,171.7,192.3,182.6,9.2
654.0,192.5,178.8,174.5,190.4,184.1,8.8
657.0,190.4,176.6,174.5,192.3,183.5,9.2
660.0,195.3,175.3,176.5,190.4,184.4,10.0
663.0,201.7,179.3,181.9,191.0,188.5,10.1
666.0,202.6,179.9,178.6,190.8,188.0,11.2
669.0,209.5,178.2,178.8,191.5,189.5,14.7
672.0,211.9,181.2,179.8,189.4,190.6,14.9
675.0,211.2,180.2,177.7,186.3,188.9,15.3
678.0,204.9,180.1,184.2,185.1,188.6,11.1
681.0,192.9,182.2,188.2,186.2,187.4,4.4
684.0,184.3,177.6,188.2,189.1,184.8,5.2
687.0,169.4,172.8,194.2,190.3,181.7,12.4
690.0,154.0,168.2,193.4,186.5,175.5,17.8
693.0,141.3,167.4,195.2,188.4,173.1,24.3
696.0,132.5,162.6,194.9,186.8,169.2,28.1
699.0,129.6,157.4,194.2,185.7,166.7,29.3
702.0,122.4,150.0,194.8,180.9,162.0,32.4
705.0,114.2,147.8,191.5,179.5,158.2,34.7
708.0,104.2,140.9,185.5,171.9,150.6,36.1
711.0,96.0,132.2,183.6,160.9,143.2,37.9
714.0,88.5,127.0,175.7,152.1,135.8,37.3
717.0,80.7,121.7,172.3,149.7,131.1,39.5
720.0,74.6,114.6,162.1,136.9,122.1,37.1
723.0,70.5,106.6,152.1,128.2,114.4,34.6
726.0,67.2,100.3,147.4,120.0,108.7,33.8
729.0,66.0,92.5,136.8,110.7,101.5,29.8
732.0,65.3,87.4,128.9,102.0,95.9,26.7
735.0,66.8,81.1,120.5,95.3,90.9,22.9
738.0,65.3,74.8,113.1,84.7,84.5,20.7
741.0,64.6,65.4,104.7,76.8,77.9,18.7
744.0,64.2,59.8,95.4,70.0,72.3,15.9
744.25,64.1,60.4,95.6,68.6,72.2,16.0