File: 01_Data/Eucalyptus_Flooring/FTIR/IS/Eucalyptus_Flooring_IS_S_220908_R6.dpt
7497.03,0.78858
7473.89,0.77273
7450.74,0.75427
7427.6,0.73498
7404.45,0.71690
7381.31,0.70380
7358.16,0.68931
7335.02,0.68168
7311.87,0.66411
7288.73,0.65776
7265.58,0.65899
7242.44,0.64574
7219.29,0.63958
7196.15,0.63089
7173,0.61219
7149.86,0.59392
7126.71,0.58134
7103.57,0.55610
7080.42,0.52559
7057.28,0.51195
7034.13,0.48379
7010.99,0.46910
6987.84,0.45439
6964.7,0.44968
6941.55,0.44562
6918.41,0.44342
6895.26,0.44682
6872.12,0.44979
6848.97,0.45281
6825.83,0.45912
6802.68,0.45852
6779.54,0.46502
6756.39,0.46863
6733.25,0.47571
6710.1,0.48288
6686.96,0.48802
6663.82,0.49556
6640.67,0.50344
6617.53,0.50937
6594.38,0.51398
6571.24,0.51796
6548.09,0.52179
6524.95,0.52511
6501.8,0.52802
6478.66,0.52760
6455.51,0.52538
6432.37,0.53061
6409.22,0.53372
6386.08,0.53772
6362.93,0.54075
6339.79,0.53839
6316.64,0.54454
6293.5,0.54833
6270.35,0.55204
6247.21,0.55834
6224.06,0.56617
6200.92,0.56550
6177.77,0.55357
6154.63,0.55047
6131.48,0.56023
6108.34,0.55878
6085.19,0.54739
6062.05,0.52179
6038.9,0.48800
6015.76,0.44465
5992.61,0.41086
5969.47,0.39985
5946.32,0.39653
5923.18,0.39378
5900.03,0.38761
5876.89,0.38323
5853.74,0.38508
5830.6,0.37348
5807.45,0.36565
5784.31,0.36945
5761.16,0.38461
5738.02,0.39792
5714.87,0.41313
5691.73,0.42157
5668.58,0.42696
5645.44,0.43425
5622.29,0.44165
5599.15,0.44644
5576,0.44738
5552.86,0.45441
5529.71,0.45947
5506.57,0.46658
5483.42,0.47064
5460.28,0.47762
5437.13,0.48492
5413.99,0.49161
5390.84,0.49627
5367.7,0.49310
5344.55,0.48744
5321.41,0.46943
5298.26,0.43305
5275.12,0.36610
5251.97,0.30289
5228.83,0.27310
5205.68,0.26766
5182.54,0.27497
5159.39,0.28776
5136.25,0.30232
5113.1,0.31976
5089.96,0.33897
5066.81,0.35563
5043.67,0.36866
5020.52,0.37844
4997.38,0.38153
4974.23,0.37402
4951.09,0.35809
4927.94,0.33445
4904.8,0.31504
4881.65,0.29821
4858.51,0.28636
4835.36,0.27508
4812.22,0.26434
4789.07,0.25880
4765.93,0.25453
4742.78,0.24306
4719.64,0.23914
4696.49,0.22975
4673.35,0.21934
4650.2,0.23841
4627.06,0.23551
4603.92,0.25914
4580.77,0.27448
4557.63,0.27795
4534.48,0.28267
4511.34,0.27026
4488.19,0.24298
4465.05,0.19825
4441.9,0.13594
4418.76,0.10823
4395.61,0.10921
4372.47,0.10264
4349.32,0.09911
4326.18,0.10225
4303.03,0.10846
4279.89,0.10972
4256.74,0.11254
4233.6,0.11537
4210.45,0.12030
4187.31,0.12210
4164.16,0.12071
4141.02,0.11913
4117.87,0.11750
4094.73,0.10924
4071.58,0.09543
4048.44,0.09335
4025.29,0.09330
4002.15,0.09634
3979,0.10085
3955.86,0.11023
3932.71,0.11691
3909.57,0.12419
3886.42,0.12996
3863.28,0.13704
3840.13,0.14516
3816.99,0.14764
3793.84,0.14775
3770.7,0.14448
3747.55,0.13977
3724.41,0.12954
3701.26,0.10523
3678.12,0.06638
3654.97,0.05523
3631.83,0.05382
3608.68,0.05382
3585.54,0.05333
3562.39,0.05230
3539.25,0.05282
3516.1,0.05165
3492.96,0.05246
3469.81,0.05284
3446.67,0.05283
3423.52,0.05271
3400.38,0.05323
3377.23,0.05313
3354.09,0.05328
3330.94,0.05303
3307.8,0.05370
3284.65,0.05379
3261.51,0.05401
3238.36,0.05399
3215.22,0.05324
3192.07,0.05395
3168.93,0.05352
3145.78,0.05362
3122.64,0.05399
3099.49,0.05324
3076.35,0.05341
3053.2,0.05271
3030.06,0.05249
3006.91,0.05149
2983.77,0.05053
2960.62,0.05107
2937.48,0.05314
2914.33,0.05852
2891.19,0.05558
2868.04,0.05567
2844.9,0.05935
2821.75,0.05691
2798.61,0.05556
2775.46,0.05616
2752.32,0.05621
2729.17,0.05579
2706.03,0.05733
2682.88,0.05750
2659.74,0.05840
2636.59,0.05970
2613.45,0.06014
2590.3,0.06026
2567.16,0.06095
2544.02,0.06052
2520.87,0.06212
2497.73,0.06325
2474.58,0.06462
2451.44,0.06604
2428.29,0.06580
2405.15,0.06770
2382,0.06833
2358.86,0.06858
2335.71,0.06786
2312.57,0.07047
2289.42,0.07230
2266.28,0.07395
2243.13,0.07453
2219.99,0.07479
2196.84,0.07428
2173.7,0.07129
2150.55,0.06774
2127.41,0.06408
2104.26,0.06218
2081.12,0.06085
2057.97,0.06116
2034.83,0.06116
2011.68,0.06018
1988.54,0.05932
1965.39,0.05862
1942.25,0.05965
1919.1,0.06036
1895.96,0.05744
1872.81,0.05582
1849.67,0.05396
1826.52,0.05027
1803.38,0.04606
1780.23,0.04303
1757.09,0.03628
1733.94,0.04843
1710.8,0.06767
1687.65,0.05986
1664.51,0.05721
1641.36,0.05590
1618.22,0.05469
1595.07,0.05545
1571.93,0.05352
1548.78,0.05265
1525.64,0.05137
1502.49,0.05189
1479.35,0.04771
1456.2,0.04887
1433.06,0.05009
1409.91,0.04822
1386.77,0.04803
1363.62,0.04830
1340.48,0.04639
1317.33,0.04406
1294.19,0.04293
1271.04,0.04241
1247.9,0.04561
1224.75,0.04764
1201.61,0.04757
1178.46,0.05501
1155.32,0.06532
1132.17,0.06521
1109.03,0.07108
1085.88,0.07648
1062.74,0.08170
1039.59,0.08221
1016.45,0.07868
993.304,0.07434
970.159,0.07489
947.014,0.07297
923.869,0.07210
900.724,0.07004
877.579,0.06979
854.434,0.06786
831.289,0.06631
808.144,0.06799
784.999,0.06817
761.854,0.06924
738.709,0.06771
715.565,0.06894
692.42,0.07052
669.275,0.07314
646.13,0.06989
622.985,0.06319
599.84,0.06430