File: 01_Data/Eucalyptus_Flooring/FTIR/IS/Eucalyptus_Flooring_IS_S_220908_R2.dpt
7497.03,0.78369
7473.89,0.77248
7450.74,0.75191
7427.6,0.75330
7404.45,0.71779
7381.31,0.70817
7358.16,0.68910
7335.02,0.67948
7311.87,0.67185
7288.73,0.65363
7265.58,0.65348
7242.44,0.64247
7219.29,0.64091
7196.15,0.63062
7173,0.61719
7149.86,0.60364
7126.71,0.58219
7103.57,0.55823
7080.42,0.52835
7057.28,0.50889
7034.13,0.48224
7010.99,0.46293
6987.84,0.46098
6964.7,0.45062
6941.55,0.44985
6918.41,0.44621
6895.26,0.44359
6872.12,0.45535
6848.97,0.45379
6825.83,0.45442
6802.68,0.45811
6779.54,0.46385
6756.39,0.46890
6733.25,0.47666
6710.1,0.48029
6686.96,0.48876
6663.82,0.49067
6640.67,0.50430
6617.53,0.50444
6594.38,0.51506
6571.24,0.51844
6548.09,0.52273
6524.95,0.52263
6501.8,0.52485
6478.66,0.52977
6455.51,0.53061
6432.37,0.53159
6409.22,0.53454
6386.08,0.53524
6362.93,0.53896
6339.79,0.54671
6316.64,0.54809
6293.5,0.54744
6270.35,0.55522
6247.21,0.55759
6224.06,0.56538
6200.92,0.56392
6177.77,0.55628
6154.63,0.55813
6131.48,0.56334
6108.34,0.56104
6085.19,0.54867
6062.05,0.52442
6038.9,0.48588
6015.76,0.44365
5992.61,0.41205
5969.47,0.40072
5946.32,0.39637
5923.18,0.39282
5900.03,0.38647
5876.89,0.38679
5853.74,0.38304
5830.6,0.37499
5807.45,0.36535
5784.31,0.37007
5761.16,0.38612
5738.02,0.39855
5714.87,0.41455
5691.73,0.42392
5668.58,0.42788
5645.44,0.43657
5622.29,0.44333
5599.15,0.44728
5576,0.45021
5552.86,0.45504
5529.71,0.45941
5506.57,0.46679
5483.42,0.47275
5460.28,0.47476
5437.13,0.48421
5413.99,0.49102
5390.84,0.49749
5367.7,0.49426
5344.55,0.48746
5321.41,0.46888
5298.26,0.43161
5275.12,0.36354
5251.97,0.30147
5228.83,0.27279
5205.68,0.26576
5182.54,0.27224
5159.39,0.28552
5136.25,0.30150
5113.1,0.31912
5089.96,0.33914
5066.81,0.35567
5043.67,0.36913
5020.52,0.37884
4997.38,0.38186
4974.23,0.37392
4951.09,0.35817
4927.94,0.33764
4904.8,0.31500
4881.65,0.29914
4858.51,0.28705
4835.36,0.27572
4812.22,0.26428
4789.07,0.25911
4765.93,0.25569
4742.78,0.24454
4719.64,0.24014
4696.49,0.22920
4673.35,0.21946
4650.2,0.23819
4627.06,0.23696
4603.92,0.26049
4580.77,0.27517
4557.63,0.27947
4534.48,0.28347
4511.34,0.27033
4488.19,0.24374
4465.05,0.19866
4441.9,0.13613
4418.76,0.10866
4395.61,0.10937
4372.47,0.10321
4349.32,0.09932
4326.18,0.10267
4303.03,0.10879
4279.89,0.10915
4256.74,0.11243
4233.6,0.11567
4210.45,0.12077
4187.31,0.12227
4164.16,0.12066
4141.02,0.11859
4117.87,0.11701
4094.73,0.10900
4071.58,0.09538
4048.44,0.09320
4025.29,0.09455
4002.15,0.09675
3979,0.10136
3955.86,0.10913
3932.71,0.11707
3909.57,0.12437
3886.42,0.13054
3863.28,0.13748
3840.13,0.14510
3816.99,0.14691
3793.84,0.14747
3770.7,0.14353
3747.55,0.13905
3724.41,0.12840
3701.26,0.10502
3678.12,0.06563
3654.97,0.05521
3631.83,0.05419
3608.68,0.05327
3585.54,0.05361
3562.39,0.05253
3539.25,0.05213
3516.1,0.05209
3492.96,0.05255
3469.81,0.05263
3446.67,0.05338
3423.52,0.05314
3400.38,0.05331
3377.23,0.05288
3354.09,0.05310
3330.94,0.05300
3307.8,0.05356
3284.65,0.05419
3261.51,0.05372
3238.36,0.05437
3215.22,0.05352
3192.07,0.05403
3168.93,0.05416
3145.78,0.05416
3122.64,0.05335
3099.49,0.05344
3076.35,0.05333
3053.2,0.05283
3030.06,0.05253
3006.91,0.05169
2983.77,0.05075
2960.62,0.05178
2937.48,0.05337
2914.33,0.05843
2891.19,0.05632
2868.04,0.05561
2844.9,0.05898
2821.75,0.05672
2798.61,0.05644
2775.46,0.05591
2752.32,0.05628
2729.17,0.05598
2706.03,0.05658
2682.88,0.05778
2659.74,0.05877
2636.59,0.05982
2613.45,0.05996
2590.3,0.06051
2567.16,0.06078
2544.02,0.06054
2520.87,0.06228
2497.73,0.06302
2474.58,0.06427
2451.44,0.06610
2428.29,0.06597
2405.15,0.06758
2382,0.06839
2358.86,0.06870
2335.71,0.06858
2312.57,0.07058
2289.42,0.07232
2266.28,0.07410
2243.13,0.07447
2219.99,0.07468
2196.84,0.07404
2173.7,0.07169
2150.55,0.06768
2127.41,0.06447
2104.26,0.06239
2081.12,0.06099
2057.97,0.06129
2034.83,0.06153
2011.68,0.06013
1988.54,0.05998
1965.39,0.05894
1942.25,0.05921
1919.1,0.06028
1895.96,0.05751
1872.81,0.05586
1849.67,0.05428
1826.52,0.05026
1803.38,0.04660
1780.23,0.04336
1757.09,0.03656
1733.94,0.04868
1710.8,0.06823
1687.65,0.06009
1664.51,0.05761
1641.36,0.05626
1618.22,0.05499
1595.07,0.05517
1571.93,0.05342
1548.78,0.05250
1525.64,0.05088
1502.49,0.05171
1479.35,0.04743
1456.2,0.04894
1433.06,0.05065
1409.91,0.04842
1386.77,0.04896
1363.62,0.04880
1340.48,0.04646
1317.33,0.04387
1294.19,0.04304
1271.04,0.04204
1247.9,0.04580
1224.75,0.04810
1201.61,0.04823
1178.46,0.05441
1155.32,0.06526
1132.17,0.06546
1109.03,0.07161
1085.88,0.07750
1062.74,0.08161
1039.59,0.08161
1016.45,0.07932
993.304,0.07416
970.159,0.07437
947.014,0.07296
923.869,0.07119
900.724,0.07067
877.579,0.06970
854.434,0.06729
831.289,0.06561
808.144,0.06693
784.999,0.06857
761.854,0.06841
738.709,0.06766
715.565,0.06818
692.42,0.07043
669.275,0.07287
646.13,0.06871
622.985,0.06330
599.84,0.06425