File: 01_Data/Eucalyptus_Flooring/FTIR/IS/Eucalyptus_Flooring_IS_S_220908_R4.dpt
7497.03,0.78262
7473.89,0.76430
7450.74,0.75445
7427.6,0.73637
7404.45,0.72403
7381.31,0.71203
7358.16,0.69947
7335.02,0.68132
7311.87,0.67709
7288.73,0.65612
7265.58,0.65491
7242.44,0.64877
7219.29,0.64071
7196.15,0.63355
7173,0.61585
7149.86,0.59768
7126.71,0.58383
7103.57,0.55902
7080.42,0.52835
7057.28,0.50761
7034.13,0.48182
7010.99,0.46657
6987.84,0.45521
6964.7,0.44682
6941.55,0.44546
6918.41,0.45404
6895.26,0.44852
6872.12,0.45407
6848.97,0.45714
6825.83,0.45506
6802.68,0.46357
6779.54,0.46967
6756.39,0.46503
6733.25,0.47554
6710.1,0.48200
6686.96,0.48876
6663.82,0.50085
6640.67,0.50010
6617.53,0.50973
6594.38,0.51337
6571.24,0.52031
6548.09,0.52549
6524.95,0.52557
6501.8,0.52834
6478.66,0.53270
6455.51,0.53124
6432.37,0.52593
6409.22,0.53444
6386.08,0.53299
6362.93,0.54180
6339.79,0.54302
6316.64,0.54644
6293.5,0.54853
6270.35,0.55353
6247.21,0.56057
6224.06,0.56579
6200.92,0.56107
6177.77,0.55377
6154.63,0.55383
6131.48,0.56033
6108.34,0.55997
6085.19,0.54985
6062.05,0.52441
6038.9,0.49102
6015.76,0.44615
5992.61,0.41119
5969.47,0.40067
5946.32,0.39655
5923.18,0.39164
5900.03,0.38851
5876.89,0.38719
5853.74,0.38663
5830.6,0.37432
5807.45,0.36711
5784.31,0.36970
5761.16,0.38439
5738.02,0.40054
5714.87,0.41348
5691.73,0.42385
5668.58,0.42846
5645.44,0.43548
5622.29,0.43958
5599.15,0.44662
5576,0.45199
5552.86,0.45639
5529.71,0.46138
5506.57,0.46697
5483.42,0.47096
5460.28,0.47828
5437.13,0.48585
5413.99,0.49458
5390.84,0.49596
5367.7,0.49549
5344.55,0.48907
5321.41,0.47128
5298.26,0.43178
5275.12,0.36510
5251.97,0.30424
5228.83,0.27288
5205.68,0.26728
5182.54,0.27352
5159.39,0.28692
5136.25,0.30434
5113.1,0.32163
5089.96,0.33879
5066.81,0.35621
5043.67,0.36947
5020.52,0.37904
4997.38,0.38172
4974.23,0.37518
4951.09,0.35768
4927.94,0.33610
4904.8,0.31494
4881.65,0.29876
4858.51,0.28618
4835.36,0.27461
4812.22,0.26528
4789.07,0.25977
4765.93,0.25599
4742.78,0.24472
4719.64,0.23771
4696.49,0.23002
4673.35,0.21833
4650.2,0.23935
4627.06,0.23541
4603.92,0.26099
4580.77,0.27498
4557.63,0.28018
4534.48,0.28354
4511.34,0.27023
4488.19,0.24390
4465.05,0.19864
4441.9,0.13619
4418.76,0.10869
4395.61,0.10995
4372.47,0.10381
4349.32,0.09983
4326.18,0.10224
4303.03,0.10813
4279.89,0.10872
4256.74,0.11182
4233.6,0.11580
4210.45,0.12072
4187.31,0.12216
4164.16,0.12109
4141.02,0.11937
4117.87,0.11684
4094.73,0.10915
4071.58,0.09589
4048.44,0.09281
4025.29,0.09478
4002.15,0.09598
3979,0.10046
3955.86,0.10984
3932.71,0.11714
3909.57,0.12518
3886.42,0.13066
3863.28,0.13739
3840.13,0.14545
3816.99,0.14784
3793.84,0.14773
3770.7,0.14450
3747.55,0.13940
3724.41,0.12834
3701.26,0.10504
3678.12,0.06597
3654.97,0.05572
3631.83,0.05344
3608.68,0.05336
3585.54,0.05285
3562.39,0.05223
3539.25,0.05252
3516.1,0.05241
3492.96,0.05229
3469.81,0.05206
3446.67,0.05219
3423.52,0.05299
3400.38,0.05326
3377.23,0.05338
3354.09,0.05280
3330.94,0.05283
3307.8,0.05370
3284.65,0.05362
3261.51,0.05404
3238.36,0.05404
3215.22,0.05426
3192.07,0.05390
3168.93,0.05349
3145.78,0.05402
3122.64,0.05328
3099.49,0.05384
3076.35,0.05296
3053.2,0.05317
3030.06,0.05249
3006.91,0.05173
2983.77,0.05116
2960.62,0.05128
2937.48,0.05272
2914.33,0.05858
2891.19,0.05620
2868.04,0.05614
2844.9,0.05909
2821.75,0.05655
2798.61,0.05672
2775.46,0.05600
2752.32,0.05610
2729.17,0.05643
2706.03,0.05688
2682.88,0.05779
2659.74,0.05890
2636.59,0.05969
2613.45,0.05989
2590.3,0.06029
2567.16,0.06078
2544.02,0.06096
2520.87,0.06201
2497.73,0.06289
2474.58,0.06461
2451.44,0.06620
2428.29,0.06592
2405.15,0.06776
2382,0.06860
2358.86,0.06869
2335.71,0.06849
2312.57,0.07044
2289.42,0.07212
2266.28,0.07432
2243.13,0.07439
2219.99,0.07445
2196.84,0.07454
2173.7,0.07184
2150.55,0.06768
2127.41,0.06432
2104.26,0.06249
2081.12,0.06096
2057.97,0.06122
2034.83,0.06150
2011.68,0.06019
1988.54,0.05997
1965.39,0.05915
1942.25,0.05954
1919.1,0.06069
1895.96,0.05751
1872.81,0.05604
1849.67,0.05397
1826.52,0.05059
1803.38,0.04644
1780.23,0.04329
1757.09,0.03680
1733.94,0.04875
1710.8,0.06801
1687.65,0.06033
1664.51,0.05742
1641.36,0.05582
1618.22,0.05529
1595.07,0.05514
1571.93,0.05392
1548.78,0.05266
1525.64,0.05099
1502.49,0.05188
1479.35,0.04748
1456.2,0.04885
1433.06,0.05061
1409.91,0.04824
1386.77,0.04864
1363.62,0.04883
1340.48,0.04654
1317.33,0.04460
1294.19,0.04280
1271.04,0.04235
1247.9,0.04584
1224.75,0.04773
1201.61,0.04830
1178.46,0.05467
1155.32,0.06527
1132.17,0.06431
1109.03,0.07111
1085.88,0.07676
1062.74,0.08131
1039.59,0.08127
1016.45,0.07935
993.304,0.07452
970.159,0.07419
947.014,0.07314
923.869,0.07206
900.724,0.07041
877.579,0.06960
854.434,0.06824
831.289,0.06591
808.144,0.06778
784.999,0.06847
761.854,0.06790
738.709,0.06791
715.565,0.06966
692.42,0.07028
669.275,0.07293
646.13,0.06900
622.985,0.06465
599.84,0.06408