File: 01_Data/Eucalyptus_Flooring/FTIR/IS/Eucalyptus_Flooring_IS_S_220908_R5.dpt
7497.03,0.78669
7473.89,0.77028
7450.74,0.76397
7427.6,0.73456
7404.45,0.72858
7381.31,0.70159
7358.16,0.69494
7335.02,0.68333
7311.87,0.66907
7288.73,0.66698
7265.58,0.64999
7242.44,0.65283
7219.29,0.64429
7196.15,0.63337
7173,0.61780
7149.86,0.59913
7126.71,0.58712
7103.57,0.55758
7080.42,0.52584
7057.28,0.51371
7034.13,0.47934
7010.99,0.46465
6987.84,0.45313
6964.7,0.45110
6941.55,0.44490
6918.41,0.45014
6895.26,0.45133
6872.12,0.45080
6848.97,0.45358
6825.83,0.46198
6802.68,0.45934
6779.54,0.46776
6756.39,0.47031
6733.25,0.47209
6710.1,0.48383
6686.96,0.48950
6663.82,0.49418
6640.67,0.49965
6617.53,0.51095
6594.38,0.51734
6571.24,0.51738
6548.09,0.52688
6524.95,0.52612
6501.8,0.52983
6478.66,0.52793
6455.51,0.53099
6432.37,0.53274
6409.22,0.53263
6386.08,0.53576
6362.93,0.54448
6339.79,0.53864
6316.64,0.54737
6293.5,0.55498
6270.35,0.55305
6247.21,0.55649
6224.06,0.56774
6200.92,0.57032
6177.77,0.55590
6154.63,0.55482
6131.48,0.56152
6108.34,0.56115
6085.19,0.55445
6062.05,0.52865
6038.9,0.48998
6015.76,0.44555
5992.61,0.41230
5969.47,0.40202
5946.32,0.39539
5923.18,0.39078
5900.03,0.38822
5876.89,0.38550
5853.74,0.38635
5830.6,0.37670
5807.45,0.36889
5784.31,0.37106
5761.16,0.38382
5738.02,0.40105
5714.87,0.41232
5691.73,0.42440
5668.58,0.42835
5645.44,0.43564
5622.29,0.44321
5599.15,0.44804
5576,0.45244
5552.86,0.45641
5529.71,0.46209
5506.57,0.46971
5483.42,0.47100
5460.28,0.47639
5437.13,0.48798
5413.99,0.49294
5390.84,0.49836
5367.7,0.49565
5344.55,0.48980
5321.41,0.47255
5298.26,0.43284
5275.12,0.36786
5251.97,0.30398
5228.83,0.27490
5205.68,0.26765
5182.54,0.27417
5159.39,0.28813
5136.25,0.30349
5113.1,0.32190
5089.96,0.34055
5066.81,0.35658
5043.67,0.37144
5020.52,0.37871
4997.38,0.38413
4974.23,0.37612
4951.09,0.35922
4927.94,0.33706
4904.8,0.31664
4881.65,0.30025
4858.51,0.28756
4835.36,0.27559
4812.22,0.26674
4789.07,0.25944
4765.93,0.25606
4742.78,0.24461
4719.64,0.23940
4696.49,0.23031
4673.35,0.21944
4650.2,0.23880
4627.06,0.23688
4603.92,0.26020
4580.77,0.27597
4557.63,0.28017
4534.48,0.28470
4511.34,0.27247
4488.19,0.24460
4465.05,0.19970
4441.9,0.13666
4418.76,0.10821
4395.61,0.10991
4372.47,0.10366
4349.32,0.10045
4326.18,0.10322
4303.03,0.10900
4279.89,0.10912
4256.74,0.11251
4233.6,0.11678
4210.45,0.12084
4187.31,0.12244
4164.16,0.12108
4141.02,0.11866
4117.87,0.11827
4094.73,0.10866
4071.58,0.09573
4048.44,0.09207
4025.29,0.09452
4002.15,0.09641
3979,0.10080
3955.86,0.11078
3932.71,0.11772
3909.57,0.12598
3886.42,0.13002
3863.28,0.13732
3840.13,0.14592
3816.99,0.14722
3793.84,0.14881
3770.7,0.14520
3747.55,0.14060
3724.41,0.12830
3701.26,0.10545
3678.12,0.06668
3654.97,0.05581
3631.83,0.05393
3608.68,0.05342
3585.54,0.05307
3562.39,0.05267
3539.25,0.05233
3516.1,0.05249
3492.96,0.05241
3469.81,0.05228
3446.67,0.05322
3423.52,0.05296
3400.38,0.05345
3377.23,0.05337
3354.09,0.05291
3330.94,0.05318
3307.8,0.05387
3284.65,0.05388
3261.51,0.05439
3238.36,0.05364
3215.22,0.05420
3192.07,0.05402
3168.93,0.05385
3145.78,0.05424
3122.64,0.05393
3099.49,0.05415
3076.35,0.05343
3053.2,0.05392
3030.06,0.05267
3006.91,0.05205
2983.77,0.05092
2960.62,0.05134
2937.48,0.05366
2914.33,0.05873
2891.19,0.05588
2868.04,0.05559
2844.9,0.05957
2821.75,0.05700
2798.61,0.05622
2775.46,0.05627
2752.32,0.05631
2729.17,0.05634
2706.03,0.05693
2682.88,0.05815
2659.74,0.05906
2636.59,0.05966
2613.45,0.06022
2590.3,0.06034
2567.16,0.06072
2544.02,0.06046
2520.87,0.06236
2497.73,0.06330
2474.58,0.06448
2451.44,0.06642
2428.29,0.06633
2405.15,0.06778
2382,0.06878
2358.86,0.06881
2335.71,0.06831
2312.57,0.07013
2289.42,0.07231
2266.28,0.07400
2243.13,0.07443
2219.99,0.07488
2196.84,0.07419
2173.7,0.07165
2150.55,0.06789
2127.41,0.06418
2104.26,0.06248
2081.12,0.06092
2057.97,0.06127
2034.83,0.06165
2011.68,0.06047
1988.54,0.05957
1965.39,0.05911
1942.25,0.05966
1919.1,0.06041
1895.96,0.05768
1872.81,0.05596
1849.67,0.05424
1826.52,0.05067
1803.38,0.04650
1780.23,0.04348
1757.09,0.03682
1733.94,0.04955
1710.8,0.06785
1687.65,0.05979
1664.51,0.05746
1641.36,0.05632
1618.22,0.05529
1595.07,0.05543
1571.93,0.05410
1548.78,0.05294
1525.64,0.05118
1502.49,0.05206
1479.35,0.04763
1456.2,0.04907
1433.06,0.05041
1409.91,0.04868
1386.77,0.04897
1363.62,0.04848
1340.48,0.04690
1317.33,0.04410
1294.19,0.04285
1271.04,0.04229
1247.9,0.04586
1224.75,0.04775
1201.61,0.04824
1178.46,0.05448
1155.32,0.06580
1132.17,0.06547
1109.03,0.07129
1085.88,0.07702
1062.74,0.08144
1039.59,0.08164
1016.45,0.07927
993.304,0.07402
970.159,0.07511
947.014,0.07356
923.869,0.07194
900.724,0.07124
877.579,0.07020
854.434,0.06731
831.289,0.06591
808.144,0.06849
784.999,0.06808
761.854,0.06826
738.709,0.06803
715.565,0.06987
692.42,0.07001
669.275,0.07308
646.13,0.06739
622.985,0.06518
599.84,0.06625