File: 01_Data/Eucalyptus_Flooring/FTIR/IS/Eucalyptus_Flooring_IS_S_220908_R8.dpt
7497.03,0.79324
7473.89,0.78434
7450.74,0.76336
7427.6,0.74998
7404.45,0.71763
7381.31,0.70521
7358.16,0.69090
7335.02,0.68491
7311.87,0.66646
7288.73,0.65816
7265.58,0.65874
7242.44,0.64741
7219.29,0.65106
7196.15,0.63072
7173,0.61718
7149.86,0.60589
7126.71,0.58145
7103.57,0.55539
7080.42,0.52948
7057.28,0.51203
7034.13,0.48663
7010.99,0.46824
6987.84,0.45102
6964.7,0.45293
6941.55,0.44863
6918.41,0.44496
6895.26,0.45430
6872.12,0.44834
6848.97,0.45193
6825.83,0.45672
6802.68,0.46631
6779.54,0.46547
6756.39,0.46703
6733.25,0.47724
6710.1,0.48343
6686.96,0.49093
6663.82,0.49459
6640.67,0.50504
6617.53,0.51014
6594.38,0.51497
6571.24,0.51890
6548.09,0.52580
6524.95,0.52935
6501.8,0.52716
6478.66,0.52932
6455.51,0.53249
6432.37,0.53155
6409.22,0.53742
6386.08,0.53831
6362.93,0.54212
6339.79,0.54658
6316.64,0.54958
6293.5,0.55155
6270.35,0.55713
6247.21,0.56023
6224.06,0.56725
6200.92,0.56666
6177.77,0.55580
6154.63,0.55707
6131.48,0.56194
6108.34,0.56631
6085.19,0.55122
6062.05,0.52723
6038.9,0.49060
6015.76,0.44514
5992.61,0.41388
5969.47,0.40365
5946.32,0.39678
5923.18,0.39590
5900.03,0.38964
5876.89,0.38718
5853.74,0.38556
5830.6,0.37609
5807.45,0.36741
5784.31,0.37223
5761.16,0.38777
5738.02,0.40165
5714.87,0.41577
5691.73,0.42527
5668.58,0.43029
5645.44,0.43638
5622.29,0.44419
5599.15,0.44809
5576,0.45441
5552.86,0.45714
5529.71,0.46141
5506.57,0.46767
5483.42,0.47466
5460.28,0.47972
5437.13,0.48659
5413.99,0.49544
5390.84,0.50037
5367.7,0.49665
5344.55,0.49006
5321.41,0.47268
5298.26,0.43283
5275.12,0.36863
5251.97,0.30704
5228.83,0.27727
5205.68,0.26986
5182.54,0.27565
5159.39,0.28758
5136.25,0.30611
5113.1,0.32346
5089.96,0.34016
5066.81,0.35761
5043.67,0.37079
5020.52,0.38016
4997.38,0.38421
4974.23,0.37729
4951.09,0.36127
4927.94,0.33731
4904.8,0.31741
4881.65,0.29977
4858.51,0.28862
4835.36,0.27636
4812.22,0.26585
4789.07,0.26117
4765.93,0.25572
4742.78,0.24498
4719.64,0.23955
4696.49,0.23149
4673.35,0.22002
4650.2,0.23996
4627.06,0.23746
4603.92,0.26058
4580.77,0.27612
4557.63,0.28061
4534.48,0.28475
4511.34,0.27172
4488.19,0.24560
4465.05,0.20047
4441.9,0.13650
4418.76,0.10827
4395.61,0.11042
4372.47,0.10350
4349.32,0.09948
4326.18,0.10266
4303.03,0.10947
4279.89,0.11025
4256.74,0.11260
4233.6,0.11602
4210.45,0.12113
4187.31,0.12319
4164.16,0.12126
4141.02,0.11936
4117.87,0.11824
4094.73,0.10938
4071.58,0.09622
4048.44,0.09428
4025.29,0.09466
4002.15,0.09639
3979,0.10113
3955.86,0.11066
3932.71,0.11784
3909.57,0.12517
3886.42,0.13013
3863.28,0.13779
3840.13,0.14598
3816.99,0.14829
3793.84,0.14872
3770.7,0.14586
3747.55,0.14086
3724.41,0.12935
3701.26,0.10604
3678.12,0.06667
3654.97,0.05593
3631.83,0.05365
3608.68,0.05360
3585.54,0.05281
3562.39,0.05253
3539.25,0.05276
3516.1,0.05170
3492.96,0.05242
3469.81,0.05290
3446.67,0.05297
3423.52,0.05239
3400.38,0.05400
3377.23,0.05312
3354.09,0.05320
3330.94,0.05350
3307.8,0.05347
3284.65,0.05359
3261.51,0.05396
3238.36,0.05412
3215.22,0.05437
3192.07,0.05400
3168.93,0.05379
3145.78,0.05382
3122.64,0.05324
3099.49,0.05346
3076.35,0.05308
3053.2,0.05277
3030.06,0.05271
3006.91,0.05203
2983.77,0.05070
2960.62,0.05095
2937.48,0.05364
2914.33,0.05860
2891.19,0.05580
2868.04,0.05596
2844.9,0.05910
2821.75,0.05688
2798.61,0.05621
2775.46,0.05612
2752.32,0.05612
2729.17,0.05635
2706.03,0.05690
2682.88,0.05795
2659.74,0.05917
2636.59,0.05970
2613.45,0.06043
2590.3,0.06049
2567.16,0.06094
2544.02,0.06051
2520.87,0.06240
2497.73,0.06259
2474.58,0.06488
2451.44,0.06646
2428.29,0.06577
2405.15,0.06769
2382,0.06852
2358.86,0.06859
2335.71,0.06893
2312.57,0.07067
2289.42,0.07279
2266.28,0.07387
2243.13,0.07515
2219.99,0.07504
2196.84,0.07433
2173.7,0.07167
2150.55,0.06798
2127.41,0.06455
2104.26,0.06279
2081.12,0.06081
2057.97,0.06154
2034.83,0.06160
2011.68,0.06097
1988.54,0.05959
1965.39,0.05935
1942.25,0.05992
1919.1,0.06060
1895.96,0.05762
1872.81,0.05590
1849.67,0.05385
1826.52,0.05071
1803.38,0.04636
1780.23,0.04368
1757.09,0.03615
1733.94,0.04900
1710.8,0.06776
1687.65,0.05976
1664.51,0.05741
1641.36,0.05643
1618.22,0.05516
1595.07,0.05524
1571.93,0.05418
1548.78,0.05299
1525.64,0.05119
1502.49,0.05231
1479.35,0.04752
1456.2,0.04867
1433.06,0.05043
1409.91,0.04820
1386.77,0.04841
1363.62,0.04851
1340.48,0.04674
1317.33,0.04402
1294.19,0.04312
1271.04,0.04207
1247.9,0.04591
1224.75,0.04798
1201.61,0.04800
1178.46,0.05487
1155.32,0.06561
1132.17,0.06450
1109.03,0.07081
1085.88,0.07732
1062.74,0.08180
1039.59,0.08194
1016.45,0.07944
993.304,0.07454
970.159,0.07457
947.014,0.07374
923.869,0.07177
900.724,0.07108
877.579,0.07054
854.434,0.06694
831.289,0.06613
808.144,0.06756
784.999,0.06886
761.854,0.06830
738.709,0.06694
715.565,0.06905
692.42,0.06896
669.275,0.07471
646.13,0.06910
622.985,0.06425
599.84,0.06100