File: 01_Data/Eucalyptus_Flooring/FTIR/IS/Eucalyptus_Flooring_IS_S_220908_R1.dpt
7497.03,0.78371
7473.89,0.78887
7450.74,0.75805
7427.6,0.73796
7404.45,0.72801
7381.31,0.70311
7358.16,0.69128
7335.02,0.68434
7311.87,0.67598
7288.73,0.66680
7265.58,0.66283
7242.44,0.64946
7219.29,0.64874
7196.15,0.62753
7173,0.61038
7149.86,0.59868
7126.71,0.57863
7103.57,0.55949
7080.42,0.53016
7057.28,0.50409
7034.13,0.48262
7010.99,0.46784
6987.84,0.45561
6964.7,0.45262
6941.55,0.44863
6918.41,0.45202
6895.26,0.44978
6872.12,0.45054
6848.97,0.45677
6825.83,0.45675
6802.68,0.46231
6779.54,0.46826
6756.39,0.47084
6733.25,0.47401
6710.1,0.48452
6686.96,0.49387
6663.82,0.49701
6640.67,0.50529
6617.53,0.51090
6594.38,0.51605
6571.24,0.51958
6548.09,0.52430
6524.95,0.52555
6501.8,0.52668
6478.66,0.53148
6455.51,0.53128
6432.37,0.53257
6409.22,0.53651
6386.08,0.53890
6362.93,0.54379
6339.79,0.54659
6316.64,0.54754
6293.5,0.55046
6270.35,0.55506
6247.21,0.56090
6224.06,0.56399
6200.92,0.56736
6177.77,0.55561
6154.63,0.55847
6131.48,0.56584
6108.34,0.56620
6085.19,0.54949
6062.05,0.52598
6038.9,0.49021
6015.76,0.44339
5992.61,0.41062
5969.47,0.40278
5946.32,0.39540
5923.18,0.39351
5900.03,0.38849
5876.89,0.38605
5853.74,0.38680
5830.6,0.37490
5807.45,0.36568
5784.31,0.37215
5761.16,0.38901
5738.02,0.40140
5714.87,0.41628
5691.73,0.42291
5668.58,0.42860
5645.44,0.43661
5622.29,0.44348
5599.15,0.44897
5576,0.44960
5552.86,0.45584
5529.71,0.46112
5506.57,0.46645
5483.42,0.47476
5460.28,0.47973
5437.13,0.48666
5413.99,0.49337
5390.84,0.50007
5367.7,0.49668
5344.55,0.49053
5321.41,0.47126
5298.26,0.43152
5275.12,0.36460
5251.97,0.30081
5228.83,0.27295
5205.68,0.26538
5182.54,0.27202
5159.39,0.28630
5136.25,0.30330
5113.1,0.32074
5089.96,0.34087
5066.81,0.35521
5043.67,0.36828
5020.52,0.37913
4997.38,0.38265
4974.23,0.37515
4951.09,0.36040
4927.94,0.33850
4904.8,0.31610
4881.65,0.30157
4858.51,0.28733
4835.36,0.27624
4812.22,0.26560
4789.07,0.25990
4765.93,0.25583
4742.78,0.24562
4719.64,0.24059
4696.49,0.23009
4673.35,0.22011
4650.2,0.23922
4627.06,0.23688
4603.92,0.26226
4580.77,0.27637
4557.63,0.27981
4534.48,0.28510
4511.34,0.27091
4488.19,0.24447
4465.05,0.19919
4441.9,0.13703
4418.76,0.10900
4395.61,0.10935
4372.47,0.10399
4349.32,0.09951
4326.18,0.10263
4303.03,0.10868
4279.89,0.10992
4256.74,0.11253
4233.6,0.11649
4210.45,0.12094
4187.31,0.12278
4164.16,0.12149
4141.02,0.11920
4117.87,0.11725
4094.73,0.10960
4071.58,0.09588
4048.44,0.09323
4025.29,0.09477
4002.15,0.09694
3979,0.10156
3955.86,0.11031
3932.71,0.11767
3909.57,0.12516
3886.42,0.13065
3863.28,0.13759
3840.13,0.14587
3816.99,0.14784
3793.84,0.14781
3770.7,0.14459
3747.55,0.13967
3724.41,0.12825
3701.26,0.10494
3678.12,0.06644
3654.97,0.05470
3631.83,0.05404
3608.68,0.05405
3585.54,0.05349
3562.39,0.05229
3539.25,0.05224
3516.1,0.05188
3492.96,0.05230
3469.81,0.05270
3446.67,0.05326
3423.52,0.05343
3400.38,0.05294
3377.23,0.05303
3354.09,0.05335
3330.94,0.05373
3307.8,0.05379
3284.65,0.05438
3261.51,0.05378
3238.36,0.05413
3215.22,0.05397
3192.07,0.05441
3168.93,0.05503
3145.78,0.05365
3122.64,0.05379
3099.49,0.05369
3076.35,0.05364
3053.2,0.05287
3030.06,0.05290
3006.91,0.05235
2983.77,0.05085
2960.62,0.05157
2937.48,0.05340
2914.33,0.05883
2891.19,0.05598
2868.04,0.05638
2844.9,0.05923
2821.75,0.05702
2798.61,0.05639
2775.46,0.05613
2752.32,0.05638
2729.17,0.05703
2706.03,0.05722
2682.88,0.05850
2659.74,0.05936
2636.59,0.05971
2613.45,0.06020
2590.3,0.06067
2567.16,0.06079
2544.02,0.06101
2520.87,0.06254
2497.73,0.06376
2474.58,0.06497
2451.44,0.06601
2428.29,0.06618
2405.15,0.06815
2382,0.06873
2358.86,0.06881
2335.71,0.06897
2312.57,0.07058
2289.42,0.07232
2266.28,0.07412
2243.13,0.07426
2219.99,0.07504
2196.84,0.07452
2173.7,0.07190
2150.55,0.06750
2127.41,0.06474
2104.26,0.06239
2081.12,0.06110
2057.97,0.06147
2034.83,0.06148
2011.68,0.06061
1988.54,0.05960
1965.39,0.05897
1942.25,0.05984
1919.1,0.06078
1895.96,0.05773
1872.81,0.05621
1849.67,0.05417
1826.52,0.05071
1803.38,0.04650
1780.23,0.04346
1757.09,0.03636
1733.94,0.04904
1710.8,0.06797
1687.65,0.06007
1664.51,0.05786
1641.36,0.05655
1618.22,0.05544
1595.07,0.05557
1571.93,0.05391
1548.78,0.05297
1525.64,0.05135
1502.49,0.05182
1479.35,0.04757
1456.2,0.04933
1433.06,0.05063
1409.91,0.04832
1386.77,0.04817
1363.62,0.04885
1340.48,0.04702
1317.33,0.04382
1294.19,0.04279
1271.04,0.04222
1247.9,0.04564
1224.75,0.04821
1201.61,0.04788
1178.46,0.05434
1155.32,0.06539
1132.17,0.06556
1109.03,0.07122
1085.88,0.07711
1062.74,0.08144
1039.59,0.08220
1016.45,0.07940
993.304,0.07461
970.159,0.07465
947.014,0.07403
923.869,0.07176
900.724,0.07114
877.579,0.06996
854.434,0.06775
831.289,0.06570
808.144,0.06722
784.999,0.06828
761.854,0.06854
738.709,0.06718
715.565,0.06881
692.42,0.06990
669.275,0.07389
646.13,0.06842
622.985,0.06553
599.84,0.06351