File: 01_Data/Eucalyptus_Flooring/FTIR/IS/Eucalyptus_Flooring_IS_S_220908_R3.dpt
7497.03,0.77893
7473.89,0.76832
7450.74,0.75125
7427.6,0.74273
7404.45,0.71627
7381.31,0.71297
7358.16,0.70004
7335.02,0.68735
7311.87,0.67881
7288.73,0.65600
7265.58,0.65239
7242.44,0.64725
7219.29,0.63969
7196.15,0.63899
7173,0.62352
7149.86,0.60272
7126.71,0.58349
7103.57,0.56170
7080.42,0.53061
7057.28,0.50361
7034.13,0.48520
7010.99,0.46500
6987.84,0.45789
6964.7,0.45447
6941.55,0.44497
6918.41,0.45019
6895.26,0.45136
6872.12,0.45784
6848.97,0.45790
6825.83,0.46016
6802.68,0.46389
6779.54,0.46532
6756.39,0.47078
6733.25,0.47999
6710.1,0.47661
6686.96,0.49085
6663.82,0.49520
6640.67,0.50401
6617.53,0.51113
6594.38,0.51802
6571.24,0.52319
6548.09,0.52752
6524.95,0.53091
6501.8,0.52968
6478.66,0.53226
6455.51,0.52795
6432.37,0.53367
6409.22,0.53742
6386.08,0.54099
6362.93,0.54309
6339.79,0.54474
6316.64,0.54641
6293.5,0.54855
6270.35,0.55535
6247.21,0.55957
6224.06,0.56468
6200.92,0.56676
6177.77,0.55518
6154.63,0.55429
6131.48,0.56375
6108.34,0.56187
6085.19,0.55323
6062.05,0.52758
6038.9,0.48797
6015.76,0.44546
5992.61,0.41348
5969.47,0.40204
5946.32,0.39684
5923.18,0.39394
5900.03,0.38983
5876.89,0.38813
5853.74,0.38453
5830.6,0.37718
5807.45,0.36562
5784.31,0.37106
5761.16,0.38671
5738.02,0.40341
5714.87,0.41419
5691.73,0.42490
5668.58,0.42812
5645.44,0.43835
5622.29,0.44370
5599.15,0.44790
5576,0.45169
5552.86,0.45644
5529.71,0.46046
5506.57,0.46683
5483.42,0.47260
5460.28,0.47902
5437.13,0.48672
5413.99,0.49645
5390.84,0.49805
5367.7,0.49629
5344.55,0.49135
5321.41,0.47138
5298.26,0.43350
5275.12,0.36704
5251.97,0.30252
5228.83,0.27397
5205.68,0.26672
5182.54,0.27392
5159.39,0.28691
5136.25,0.30523
5113.1,0.32190
5089.96,0.33916
5066.81,0.35585
5043.67,0.37090
5020.52,0.37956
4997.38,0.38351
4974.23,0.37587
4951.09,0.36063
4927.94,0.33797
4904.8,0.31618
4881.65,0.30108
4858.51,0.28796
4835.36,0.27622
4812.22,0.26570
4789.07,0.25962
4765.93,0.25567
4742.78,0.24525
4719.64,0.23955
4696.49,0.23023
4673.35,0.21986
4650.2,0.23881
4627.06,0.23676
4603.92,0.26161
4580.77,0.27594
4557.63,0.27993
4534.48,0.28505
4511.34,0.27129
4488.19,0.24435
4465.05,0.19992
4441.9,0.13685
4418.76,0.10907
4395.61,0.11033
4372.47,0.10349
4349.32,0.10015
4326.18,0.10336
4303.03,0.10961
4279.89,0.11033
4256.74,0.11200
4233.6,0.11632
4210.45,0.12141
4187.31,0.12261
4164.16,0.12106
4141.02,0.11979
4117.87,0.11749
4094.73,0.10980
4071.58,0.09581
4048.44,0.09314
4025.29,0.09500
4002.15,0.09659
3979,0.10134
3955.86,0.11001
3932.71,0.11739
3909.57,0.12523
3886.42,0.13050
3863.28,0.13765
3840.13,0.14597
3816.99,0.14730
3793.84,0.14821
3770.7,0.14476
3747.55,0.14028
3724.41,0.12855
3701.26,0.10592
3678.12,0.06663
3654.97,0.05565
3631.83,0.05479
3608.68,0.05417
3585.54,0.05280
3562.39,0.05204
3539.25,0.05251
3516.1,0.05279
3492.96,0.05214
3469.81,0.05261
3446.67,0.05236
3423.52,0.05269
3400.38,0.05333
3377.23,0.05331
3354.09,0.05310
3330.94,0.05320
3307.8,0.05408
3284.65,0.05351
3261.51,0.05427
3238.36,0.05314
3215.22,0.05461
3192.07,0.05371
3168.93,0.05432
3145.78,0.05370
3122.64,0.05419
3099.49,0.05305
3076.35,0.05347
3053.2,0.05308
3030.06,0.05275
3006.91,0.05181
2983.77,0.05023
2960.62,0.05107
2937.48,0.05397
2914.33,0.05881
2891.19,0.05591
2868.04,0.05629
2844.9,0.05959
2821.75,0.05697
2798.61,0.05629
2775.46,0.05663
2752.32,0.05578
2729.17,0.05636
2706.03,0.05729
2682.88,0.05808
2659.74,0.05898
2636.59,0.06017
2613.45,0.06046
2590.3,0.06029
2567.16,0.06111
2544.02,0.06111
2520.87,0.06208
2497.73,0.06343
2474.58,0.06459
2451.44,0.06617
2428.29,0.06619
2405.15,0.06805
2382,0.06862
2358.86,0.06872
2335.71,0.06859
2312.57,0.07073
2289.42,0.07256
2266.28,0.07375
2243.13,0.07474
2219.99,0.07496
2196.84,0.07435
2173.7,0.07187
2150.55,0.06783
2127.41,0.06483
2104.26,0.06254
2081.12,0.06117
2057.97,0.06143
2034.83,0.06149
2011.68,0.06074
1988.54,0.05954
1965.39,0.05907
1942.25,0.06006
1919.1,0.06046
1895.96,0.05740
1872.81,0.05617
1849.67,0.05408
1826.52,0.05021
1803.38,0.04610
1780.23,0.04355
1757.09,0.03662
1733.94,0.04909
1710.8,0.06792
1687.65,0.06010
1664.51,0.05758
1641.36,0.05636
1618.22,0.05540
1595.07,0.05499
1571.93,0.05350
1548.78,0.05263
1525.64,0.05117
1502.49,0.05187
1479.35,0.04745
1456.2,0.04878
1433.06,0.05062
1409.91,0.04848
1386.77,0.04871
1363.62,0.04861
1340.48,0.04681
1317.33,0.04407
1294.19,0.04307
1271.04,0.04218
1247.9,0.04571
1224.75,0.04813
1201.61,0.04801
1178.46,0.05493
1155.32,0.06526
1132.17,0.06505
1109.03,0.07108
1085.88,0.07714
1062.74,0.08184
1039.59,0.08190
1016.45,0.07890
993.304,0.07498
970.159,0.07473
947.014,0.07329
923.869,0.07184
900.724,0.07063
877.579,0.06952
854.434,0.06825
831.289,0.06665
808.144,0.06763
784.999,0.06817
761.854,0.06826
738.709,0.06697
715.565,0.06926
692.42,0.06859
669.275,0.07288
646.13,0.06846
622.985,0.06521
599.84,0.06513