File: 01_Data/Latex_Pillow_Foam/Cone/Latex_Pillow_Foam_Cone_HF75Scalar_230630_R4.csv
LABORATORY,FSRI
TEST IDENT,LPC_HF75_R4
OPERATOR,Marino
MATERIAL,Engineered Wood Table
ORIENTATION,Horizontal
HEAT FLUX,75
SURF AREA,0.01
C FACTOR,0.0403601
SPEC HOLDER DIFF,-566
SPECIMEN MASS,21.73
SCAN TIME,0.25
O2 DELAY TIME,11
CO DELAY TIME,11
CO2 DELAY TIME,8
FLOW FACTOR,1
SCAN COUNT,800
TIME TO IGN,1.25
END OF TEST SCAN,320
END OF TEST TIME,80
TEST STATUS,1
PRE TEST CMT,Dimensions: 106.72 x 99.36 x 34.29 mm
POST TEST CMT,"Sample melted and shrank."