File: 01_Data/Latex_Pillow_Foam/Cone/Latex_Pillow_Foam_Cone_HF50Scalar_230628_R1.csv
LABORATORY,FSRI
TEST IDENT,LPC_HF50_R1
OPERATOR,Marino
MATERIAL,Engineered Wood Table
ORIENTATION,Horizontal
HEAT FLUX,50
SURF AREA,0.01
C FACTOR,0.0403601
SPEC HOLDER DIFF,-566
SPECIMEN MASS,20.87
SCAN TIME,0.25
O2 DELAY TIME,11
CO DELAY TIME,11
CO2 DELAY TIME,8
FLOW FACTOR,1
SCAN COUNT,849
TIME TO IGN,4.25
END OF TEST SCAN,369
END OF TEST TIME,92.25
TEST STATUS,1
PRE TEST CMT,Dimensions: 97.67 x 104.40 x 36.66 mm
POST TEST CMT,Sample melted and shrank.