File: 01_Data/Latex_Pillow_Foam/Cone/Latex_Pillow_Foam_Cone_HF50Scan_230630_R4.csv
Names,Time,Stack TC,Smoke TC,Exh Press,Smoke Comp,Smoke Meas,CO Meter,CO2 Meter,O2 Meter,Sample Mass,Ext Coeff,Start Test,Flame Verif
Chan Gain,,500,500,1,1,1,1,1,1,1,1,1.0,1.0
Offset,,0,0,0.13804,0,0,0,0,0,0,0,0.0,0.0
Gain,,1,1,25.011,12.8632,68.4336,1,1,1,1.00091,0.969894,1.0,1.0
Units,sec,C,C,Pa,%,%,%,%,%,g,/m,,
Baseline,,61.391,62.6495,155.793,100.147,100.107,0.000747823,0.0435669,20.9339,-445.507,0.00341574,,
9,2,57.9988,58.4933,149.254,99.4124,95.46,0.000381599,0.0466869,20.9273,67.1313,0.345163,0.0,1.0
18,4.25,59.5348,62.1302,132.359,99.3822,65.2696,0.000514202,0.0460093,20.9285,66.8411,3.57709,0.0,1.0
27,6.5,62.9419,69.1373,121.242,99.3539,56.9055,0.00060494,0.0459717,20.929,66.3006,4.74139,0.0,1.0
36,8.75,67.2584,76.9491,122.561,99.348,45.5256,0.000667714,0.0488488,20.9289,65.9503,6.63912,0.0,0.0
45,11,72.8437,85.9042,121.171,99.352,50.6172,0.00116638,0.102681,20.9255,65.4398,5.73749,0.0,0.0
54,13.25,77.2806,93.6858,113.609,99.3335,47.9482,0.00370562,0.264209,20.9104,64.9694,6.19678,0.0,0.0
63,15.5,82.3789,101.775,122.281,99.3284,46.9855,0.0102368,0.504403,20.7259,64.4088,6.36891,0.0,0.0
72,17.75,87.021,109.256,116.766,99.3312,46.9165,0.0194237,0.709636,20.3485,63.8283,6.38164,0.0,0.0
81,20,91.8197,115.667,110.356,99.3143,45.0432,0.0292688,0.886595,19.9541,63.3779,6.72687,0.0,0.0
90,22.25,96.3123,121.983,106.047,99.308,44.0262,0.037311,1.01366,19.5726,62.8274,6.92064,0.0,0.0
99,24.5,100.572,128.429,110.939,99.3268,43.1072,0.0431278,1.10614,19.3187,62.3069,7.10171,0.0,0.0
108,26.75,105.099,134.897,98.9843,99.3076,41.6934,0.0470209,1.17081,19.1529,61.6864,7.38378,0.0,0.0
117,29,109.162,140.117,106.79,99.3516,38.8636,0.0497766,1.21468,19.0272,61.256,7.98553,0.0,0.0
126,31.25,113.842,146.819,103.965,99.3684,38.2976,0.0524209,1.26036,18.9313,60.5653,8.11178,0.0,0.0
135,33.5,117.469,151.593,94.9024,99.3673,37.1531,0.0555231,1.31202,18.8588,59.9648,8.3698,0.0,0.0
144,35.75,121.39,156.61,102.868,99.3543,40.7599,0.059337,1.35482,18.7784,59.2942,7.58044,0.0,0.0
153,38,125.071,161.112,104.971,99.372,40.2586,0.0636884,1.40154,18.7018,58.8538,7.68722,0.0,0.0
162,40.25,128.058,163.747,106.164,99.3736,37.3641,0.067539,1.43465,18.6336,58.2032,8.32217,0.0,0.0
171,42.5,130.924,166.663,105.6,99.3732,41.4824,0.0692314,1.4685,18.5555,57.6527,7.43255,0.0,0.0
180,44.75,132.875,169.152,105.929,99.3684,39.4337,0.0700692,1.49213,18.4942,57.0821,7.86307,0.0,0.0
189,47,134.812,170.883,111.451,99.3712,39.8932,0.0707686,1.48411,18.44,56.6217,7.76474,0.0,0.0
198,49.25,137.214,173.846,108.947,99.3692,40.409,0.0708984,1.47012,18.4255,56.0212,7.65527,0.0,0.0
207,51.5,139.315,175.345,103.811,99.3818,35.238,0.0701695,1.45187,18.4542,55.5007,8.82129,0.0,0.0
216,53.75,141.836,177.366,110.553,99.3747,36.3386,0.0694157,1.43214,18.4838,54.9702,8.55902,0.0,0.0
225,56,144.249,180.576,98.0066,99.3692,34.8809,0.069505,1.41908,18.5118,54.2996,8.90688,0.0,0.0
234,58.25,145.588,182.263,103.627,99.3359,32.9282,0.0697923,1.41717,18.5324,53.7291,9.39415,0.0,0.0
243,60.5,147.869,184.618,105.441,99.3296,32.2975,0.0699542,1.42768,18.543,53.1486,9.55815,0.0,0.0
252,62.75,149.773,187.043,101.415,99.3327,31.7441,0.0705409,1.45196,18.5382,52.528,9.70547,0.0,0.0
261,65,151.467,189.515,108.124,99.3143,28.7952,0.0717118,1.47205,18.4995,51.8874,10.5334,0.0,0.0
270,67.25,153.358,191.167,96.864,99.3237,26.0719,0.0734953,1.48109,18.4541,51.1467,11.3794,0.0,0.0
279,69.5,155.412,193.547,103.435,99.3347,31.9446,0.076157,1.49678,18.4317,50.7664,9.65207,0.0,0.0
288,71.75,157.309,194.714,114.501,99.3469,33.4629,0.0786945,1.51586,18.3987,50.2359,9.25807,0.0,0.0
297,74,157.265,193.657,117.615,99.3783,35.8688,0.0808792,1.53259,18.3658,49.8155,8.67006,0.0,0.0
306,76.25,156.446,189.824,126.771,99.4046,38.9638,0.0833221,1.5603,18.3293,49.4452,7.96814,0.0,0.0
315,78.5,153.622,183.929,123.963,99.3959,43.8612,0.0856763,1.57444,18.2825,49.1949,6.96011,0.0,0.0
324,80.75,150.877,177.478,133.177,99.4489,63.5425,0.0855605,1.50553,18.2495,49.0548,3.81096,0.0,0.0
333,83,146.782,170.505,145.098,99.5043,88.3906,0.0801516,1.34234,18.2626,48.9547,1.00762,0.0,0.0
342,85.25,143.032,163.053,148.338,99.5573,97.2727,0.0702732,1.11625,18.5089,49.0048,0.197505,0.0,0.0
351,87.5,138.34,155.326,148.59,99.5887,100.854,0.0595389,0.920313,18.9112,48.9147,-0.107448,0.0,0.0
360,89.75,133.428,148.341,145.082,99.6248,99.7997,0.0458712,0.697749,19.2787,48.9547,-0.0149261,0.0,0.0
369,92,130.022,142.38,148.573,99.7092,100.593,0.0348456,0.531663,19.6058,48.9447,-0.075108,0.0,0.0
378,94.25,126.821,136.361,149.504,99.7351,100.963,0.0244012,0.385445,19.9398,48.9347,-0.104104,0.0,0.0
387,96.5,123.195,132.444,150.011,99.7838,100.639,0.0173403,0.272434,20.2489,48.8947,-0.0726312,0.0,0.0
396,98.75,120.145,127.37,154.684,99.8591,101.159,0.0144399,0.198373,20.4919,48.9047,-0.110056,0.0,0.0
405,101,117.523,123.496,149.828,99.9129,100.961,0.0136473,0.156616,20.6487,48.9147,-0.0887722,0.0,0.0
414,103.25,114.685,119.757,149.191,99.9341,101.082,0.0129112,0.129026,20.7371,48.8947,-0.0971683,0.0,0.0
423,105.5,112.313,116.307,154.007,99.9906,100.969,0.01146,0.109384,20.7954,48.9047,-0.0828598,0.0,0.0
432,107.75,109.887,113.373,148.668,100.066,101.5,0.0100555,0.0963865,20.8251,48.9047,-0.121064,0.0,0.0
441,110,107.933,111.094,152.939,100.064,101.253,0.00828618,0.0844556,20.8485,48.9047,-0.100515,0.0,0.0
450,112.25,105.809,107.648,152.197,100.108,100.689,0.00664419,0.0749915,20.8682,48.9147,-0.0492663,0.0,0.0
459,114.5,104.064,105.801,150.141,100.148,101.111,0.00529463,0.06719,20.8847,48.8947,-0.0814681,0.0,0.0
468,116.75,102.021,103.423,152.007,100.162,101.182,0.00419193,0.0615529,20.8968,48.9147,-0.0862068,0.0,0.0
477,119,100.445,100.967,152.138,100.189,100.988,0.00317442,0.0572745,20.9058,48.8947,-0.0675928,0.0,0.0
486,121.25,98.6816,99.5453,149.06,100.2,100.712,0.00241793,0.0539332,20.9136,48.9047,-0.0433701,0.0,0.0
495,123.5,97.5167,97.8438,152.213,100.205,100.798,0.00193029,0.0511602,20.9186,48.9047,-0.0502008,0.0,0.0
504,125.75,95.711,96.2611,155.187,100.196,101.211,0.00162742,0.0492104,20.923,48.8947,-0.0857648,0.0,0.0
513,128,94.281,94.6845,148.166,100.171,100.322,0.00137593,0.0478625,20.9265,48.8947,-0.0127821,0.0,0.0
522,130.25,92.8028,93.1991,148.443,100.178,101.458,0.00122271,0.0466609,20.9267,48.9047,-0.107988,0.0,0.0
531,132.5,91.7641,91.9109,151.333,100.146,100.927,0.00114808,0.0458831,20.9274,48.9147,-0.0661571,0.0,0.0
540,134.75,91.1271,90.7086,150.628,100.089,101.195,0.000984379,0.0456333,20.9287,48.9447,-0.0934986,0.0,0.0
549,137,89.8133,89.9161,148.386,100.081,100.927,0.000820281,0.0453299,20.9292,48.9247,-0.0716948,0.0,0.0
558,139.25,88.4818,88.2275,154.287,100.01,100.291,0.000753029,0.0450615,20.9294,48.8947,-0.0238395,0.0,0.0
567,141.5,87.3253,87.6546,151.708,99.9871,100.813,0.000711562,0.044943,20.9295,48.9147,-0.0699521,0.0,0.0
576,143.75,87.0677,86.2529,150.602,99.9365,101.579,0.000625481,0.044771,20.9295,48.9047,-0.138701,0.0,0.0
585,146,85.741,85.6248,153.8,99.9007,100.362,0.000612308,0.0446811,20.9295,48.8747,-0.0391498,0.0,0.0
594,148.25,85.5532,84.841,149.289,99.7834,99.9417,0.000678987,0.0445576,20.9295,48.8747,-0.0134911,0.0,0.0
603,150.5,84.3555,84.4835,155.116,99.7504,100.449,0.000633647,0.044358,20.9307,48.8847,-0.0593948,0.0,0.0
612,152.75,83.4368,83.5752,151.039,99.6876,100.443,0.000448574,0.04421,20.9311,48.8947,-0.0642235,0.0,0.0
621,155,83.0278,83.2487,149.205,99.5781,100.222,0.000365522,0.0441771,20.931,48.9047,-0.0548037,0.0,0.0
630,157.25,82.1621,82.109,148.543,99.5157,100.401,0.000405268,0.044105,20.931,48.9147,-0.075371,0.0,0.0
639,159.5,81.7231,81.903,156.046,99.4254,99.7621,0.000435749,0.0440939,20.931,48.9047,-0.0287681,0.0,0.0
648,161.75,81.0477,81.2483,152.626,99.3347,99.6473,0.000521343,0.0440824,20.931,48.8947,-0.0267295,0.0,0.0
657,164,80.537,80.6535,150.086,99.253,99.357,0.00052402,0.0439583,20.9308,48.8847,-0.00890438,0.0,0.0
666,166.25,79.9415,79.9386,149.956,99.1753,99.7371,0.000495876,0.0439268,20.9317,48.8847,-0.048055,0.0,0.0
675,168.5,79.215,79.6459,150.96,99.0709,99.4405,0.000456994,0.043969,20.9322,48.8346,-0.0316826,0.0,0.0
684,170.75,79.0167,79.2175,151.164,98.9947,99.4092,0.000438717,0.0439758,20.9309,48.8246,-0.0355448,0.0,0.0
693,173,78.7546,79.075,150.593,98.8856,99.121,0.000466207,0.0438858,20.9304,48.8446,-0.0202267,0.0,0.0
702,175.25,78.4286,78.5527,151.124,98.7773,99.9417,0.000471128,0.0439068,20.9299,48.8947,-0.0997113,0.0,0.0
711,177.5,77.9894,78.1652,155.561,98.7298,98.8495,0.000493041,0.0439502,20.9303,48.8646,-0.0103112,0.0,0.0
720,179.75,77.5039,78.1451,152.82,98.6858,100.228,0.000503608,0.0439303,20.9308,48.8646,-0.131914,0.0,0.0
729,182,77.4073,77.5078,152.348,98.6371,100.384,0.000425782,0.0441043,20.9311,48.9247,-0.149398,0.0,0.0
738,184.25,76.9793,77.2409,149.956,98.559,99.3779,0.000369463,0.0443209,20.9308,48.8747,-0.0703939,0.0,0.0
747,186.5,76.2189,76.6803,151.239,98.519,100.253,0.000434272,0.044388,20.9307,48.9047,-0.148437,0.0,0.0
756,188.75,76.2809,76.7748,150.916,98.4738,99.2755,0.000602532,0.0443874,20.9313,48.8847,-0.0689853,0.0,0.0
765,191,76.2462,76.082,151.519,98.4251,98.5822,0.000706869,0.0442972,20.9315,48.8947,-0.0135627,0.0,0.0
774,193.25,75.5178,76.1185,155.596,98.3773,99.1523,0.000709881,0.0441636,20.9316,48.8246,-0.0667653,0.0,0.0
783,195.5,75.3855,75.4018,151.572,98.3702,99.4697,0.000679279,0.0439002,20.9316,48.8546,-0.0945722,0.0,0.0
792,197.75,74.9802,75.6284,150.543,98.316,99.0917,0.000567456,0.043965,20.9305,48.8346,-0.066865,0.0,0.0
801,200,74.7385,75.1915,149.087,98.2983,97.4774,0.000511224,0.0440377,20.9317,48.8646,0.0713531,0.0,0.0
810,202.25,74.4485,75.0437,148.883,98.2952,98.1164,0.000635623,0.0439127,20.9323,48.8747,0.0154861,0.0,0.0
819,204.5,74.1352,74.7586,149.819,98.2901,98.436,0.000709801,0.0438401,20.9325,48.8446,-0.012617,0.0,0.0
828,206.75,74.2876,74.101,152.456,98.2819,98.3316,0.000701233,0.0436894,20.9326,48.8947,-0.00430085,0.0,0.0