File: 01_Data/Latex_Pillow_Foam/Cone/Latex_Pillow_Foam_Cone_HF25Scan_230628_R3.csv
Names,Time,Stack TC,Smoke TC,Exh Press,Smoke Comp,Smoke Meas,CO Meter,CO2 Meter,O2 Meter,Sample Mass,Ext Coeff,Start Test,Flame Verif
Chan Gain,,500,500,1,1,1,1,1,1,1,1,1.0,1.0
Offset,,0,0,0.13804,0,0,0,0,0,0,0,0.0,0.0
Gain,,1,1,25.011,12.9078,45.9244,1,1,1,1.00091,0.969894,1.0,1.0
Units,sec,C,C,Pa,%,%,%,%,%,g,/m,,
Baseline,,45.3962,46.2293,158.983,99.6681,99.7548,0.00121721,0.0482931,20.9331,-443.247,-0.0073724,,
12,2.75,44.2435,44.0306,158.944,100.033,99.819,0.00136941,0.0527038,20.9328,72.6163,0.018214,0.0,0.0
24,5.75,44.1974,44.5227,160.916,100.066,97.6972,0.00139394,0.0548279,20.9278,72.6063,0.203831,0.0,0.0
36,8.75,44.8119,45.1994,155.819,100.067,97.365,0.00140598,0.0536215,20.9263,72.5863,0.232871,0.0,0.0
48,11.75,44.071,45.2474,161.339,100.09,97.0483,0.00130079,0.0519067,20.9271,72.5663,0.262604,0.0,0.0
60,14.75,44.8809,45.7574,160.641,100.084,96.9207,0.00127178,0.0506728,20.9286,72.5062,0.273222,0.0,0.0
72,17.75,44.9575,45.4862,160.738,100.085,97.358,0.00141796,0.0498103,20.9273,72.4662,0.235025,0.0,0.0
84,20.75,44.8395,46.1579,155.719,100.094,97.6243,0.00163864,0.049168,20.9268,72.3461,0.212523,0.0,0.0
96,23.75,46.5039,49.5018,144.439,100.09,68.0022,0.00190395,0.0488284,20.9258,71.9557,3.28854,0.0,1.0
108,26.75,49.7358,57.3818,129.52,100.072,66.6609,0.00200559,0.0487309,20.9268,71.5454,3.45645,0.0,1.0
120,29.75,54.3087,65.5244,142.699,100.062,56.7047,0.00230097,0.0848104,20.9272,71.0749,4.83189,0.0,0.0
132,32.75,58.2353,72.2906,130.35,100.034,55.2583,0.00594781,0.287883,20.8511,70.5845,5.0493,0.0,0.0
144,35.75,62.4596,78.0256,140.82,99.9904,61.9463,0.0125977,0.456872,20.5656,70.094,4.07361,0.0,0.0
156,38.75,65.7992,82.5342,128.199,99.9565,58.0754,0.0206314,0.590232,20.226,69.6536,4.61971,0.0,0.0
168,41.75,68.4666,86.0095,139.542,99.8982,53.8877,0.027548,0.673052,19.9822,69.1432,5.25147,0.0,0.0
180,44.75,70.9878,89.4538,131.121,99.8344,55.4602,0.0313751,0.697475,19.8433,68.7528,5.00132,0.0,0.0
192,47.75,74.4018,93.8161,140.929,99.7939,58.1272,0.0329545,0.702792,19.8019,68.1823,4.59826,0.0,0.0
204,50.75,76.7389,96.1519,121.652,99.706,57.6087,0.0337681,0.710028,19.7965,67.6718,4.667,0.0,0.0
216,53.75,79.6659,100.14,119.325,99.6284,50.2928,0.0344451,0.733079,19.7857,67.1313,5.81583,0.0,0.0
228,56.75,82.1702,102.795,119.974,99.5595,49.2249,0.0347557,0.758585,19.7443,66.6909,5.99255,0.0,0.0
240,59.75,85.0358,106.193,127.722,99.4622,51.6495,0.0352054,0.777246,19.7092,66.1705,5.57517,0.0,0.0
252,62.75,87.452,108.803,123.658,99.3885,54.4623,0.0361281,0.811087,19.6613,65.65,5.1177,0.0,0.0
264,65.75,89.4604,110.893,130.865,99.3342,57.0929,0.0370968,0.828414,19.613,65.1195,4.71172,0.0,0.0
276,68.75,91.0915,112.621,122.53,99.2605,58.1721,0.0381547,0.835948,19.593,64.629,4.5461,0.0,0.0
288,71.75,93.39,114.243,123.222,99.186,59.7123,0.0383005,0.833447,19.578,64.1486,4.31738,0.0,0.0
300,74.75,95.2158,116.118,131.194,99.1203,58.8027,0.0376983,0.830795,19.58,63.6982,4.44233,0.0,0.0
312,77.75,96.4522,116.291,124.936,99.071,56.4146,0.0378697,0.82852,19.5862,63.2378,4.79085,0.0,0.0
324,80.75,96.9182,116.538,129.693,99.0119,53.9479,0.0375691,0.825526,19.5912,62.7073,5.16614,0.0,0.0
336,83.75,98.349,117.708,128.612,98.9733,49.7701,0.0366147,0.812162,19.5995,62.2068,5.8486,0.0,0.0
348,86.75,99.2421,117.871,126.984,98.9221,48.7778,0.0360065,0.780657,19.6222,61.7064,6.01553,0.0,0.0
360,89.75,99.7354,118.222,120.861,98.9115,43.8459,0.0355637,0.770206,19.6637,61.286,6.9215,0.0,0.0
372,92.75,100.624,119.961,127.623,98.88,48.1429,0.0357779,0.774768,19.6786,60.6854,6.12337,0.0,0.0
384,95.75,102.685,122.004,124.081,98.8678,47.6272,0.0367218,0.774467,19.6745,60.195,6.21395,0.0,0.0
396,98.75,104.063,124.374,115.127,98.8481,47.4856,0.0385373,0.788564,19.6661,59.6445,6.23758,0.0,0.0
408,101.75,105.936,126.287,130.532,98.8284,47.0343,0.0408988,0.832018,19.6391,59.134,6.31713,0.0,0.0
420,104.75,107.1,127.41,121.178,98.8181,42.4486,0.0426686,0.872012,19.5539,58.5435,7.18901,0.0,0.0
432,107.75,108.519,129.542,115.375,98.841,45.8487,0.0435941,0.897009,19.4948,58.033,6.53543,0.0,0.0
444,110.75,110.413,131.534,118.858,98.8079,43.6932,0.044849,0.896803,19.4538,57.4625,6.94228,0.0,0.0
456,113.75,111.906,132.823,117.54,98.8288,42.8298,0.0456814,0.913086,19.4489,56.8619,7.11386,0.0,0.0
468,116.75,112.448,134.845,113.7,98.8339,43.3274,0.0469105,0.946762,19.4311,56.3815,7.01604,0.0,0.0
480,119.75,114.002,135.579,124.183,98.8666,43.1326,0.0479491,0.955512,19.3756,55.8811,7.05719,0.0,0.0
492,122.75,114.618,135.64,126.581,98.9005,46.6433,0.0477186,0.956171,19.3559,55.3506,6.39436,0.0,0.0
504,125.75,114.105,134.74,128.964,98.9379,49.8149,0.0478987,0.961718,19.3541,54.9402,5.83789,0.0,0.0
516,128.75,114.254,133.374,136.724,98.9686,48.0813,0.0487808,0.951934,19.3513,54.5098,6.1419,0.0,0.0
528,131.75,112.195,129.299,129.964,99.0151,49.6383,0.0479367,0.903335,19.371,54.0894,5.87474,0.0,0.0
540,134.75,111,125.906,132.933,99.075,48.5045,0.0454051,0.8424,19.4539,53.7891,6.07647,0.0,0.0
552,137.75,109.786,123.432,136.621,99.1289,52.5562,0.0423442,0.752249,19.5385,53.4388,5.39854,0.0,0.0
564,140.75,107.901,120.318,137.897,99.1916,54.1007,0.0392471,0.663408,19.6948,53.0985,5.1575,0.0,0.0
576,143.75,106.249,117.042,143.528,99.2562,68.6637,0.0364008,0.609187,19.8456,52.9183,3.135,0.0,0.0
588,146.75,103.513,113.052,146.076,99.3145,89.9623,0.0344372,0.591741,19.9423,52.8383,0.841432,0.0,0.0
600,149.75,100.182,107.011,150.506,99.3751,95.1422,0.0333851,0.565929,19.9774,52.8683,0.370337,0.0,0.0
612,152.75,97.2705,102.375,153.465,99.4098,98.7301,0.0305879,0.484294,20.0286,52.8283,0.0583732,0.0,0.0
624,155.75,93.6969,97.2996,154.701,99.4866,99.5583,0.0235961,0.366118,20.1765,52.8283,-0.00613364,0.0,0.0
636,158.75,90.7946,93.3339,150.463,99.5366,99.8947,0.016487,0.266043,20.4111,52.7782,-0.0305522,0.0,0.0
648,161.75,87.5281,88.8811,154.579,99.6028,100.392,0.0130056,0.196791,20.5717,52.7882,-0.067166,0.0,0.0
660,164.75,84.9314,85.5212,156.438,99.6903,100.396,0.0116617,0.148857,20.6877,52.7682,-0.0600562,0.0,0.0
672,167.75,82.1425,82.6094,154.157,99.7363,100.552,0.0107815,0.117647,20.7812,52.7682,-0.0692967,0.0,0.0
684,170.75,79.2676,79.5965,150.479,99.7844,100.343,0.00989957,0.0969318,20.828,52.7882,-0.0475109,0.0,0.0
696,173.75,77.9942,77.4376,149.402,99.8525,100.035,0.00843539,0.0825678,20.8625,52.7082,-0.01552,0.0,0.0
708,176.75,76.451,75.4253,152.768,99.9053,99.9942,0.00688015,0.0732815,20.8851,52.7482,-0.00756636,0.0,0.0
720,179.75,74.715,73.5297,156.47,99.955,100.144,0.00548427,0.0655971,20.8996,52.7882,-0.0160905,0.0,0.0
732,182.75,73.3087,71.5323,157.474,100.022,100.464,0.00417366,0.060094,20.9109,52.7682,-0.0375295,0.0,0.0
744,185.75,71.3904,70.0805,152.456,100.071,100.228,0.0031777,0.0563338,20.9177,52.7782,-0.0133794,0.0,0.0
756,188.75,70.5296,68.4448,157.577,100.117,100.349,0.00271639,0.054072,20.9228,52.7882,-0.0196538,0.0,0.0
768,191.75,69.3979,67.1579,155.036,100.153,100.211,0.00230749,0.052827,20.9254,52.8082,-0.00492137,0.0,0.0
780,194.75,68.4574,67.0566,157.094,100.155,100.815,0.00206805,0.0520361,20.9268,52.7782,-0.0558838,0.0,0.0
792,197.75,66.971,65.4806,154.263,100.186,100.604,0.00200637,0.0513999,20.9282,52.7882,-0.0353966,0.0,0.0
804,200.75,65.3404,64.5892,150.363,100.2,100.646,0.00197507,0.0508923,20.9286,52.7682,-0.0377801,0.0,0.0
816,203.75,65.2524,63.8777,152.724,100.208,100.831,0.00195322,0.0506425,20.928,52.7582,-0.0527354,0.0,0.0
828,206.75,64.0599,63.0555,153.033,100.216,100.893,0.00177952,0.0503836,20.9279,52.7882,-0.0572345,0.0,0.0
840,209.75,63.6192,62.5488,154.917,100.254,100.258,0.00156902,0.0498049,20.929,52.8082,-0.000318469,0.0,0.0
852,212.75,62.8513,61.9564,153.862,100.258,100.375,0.00150822,0.0496961,20.9308,52.7982,-0.00993546,0.0,0.0
864,215.75,62.0781,61.2858,155.272,100.289,100.806,0.00144949,0.0496934,20.9316,52.7882,-0.0437524,0.0,0.0
876,218.75,61.9459,60.392,153.317,100.333,100.794,0.00134311,0.0495536,20.9318,52.8082,-0.0390653,0.0,0.0
888,221.75,61.2843,60.0319,153.178,100.339,100.454,0.00125524,0.0494352,20.9317,52.7882,-0.00976843,0.0,0.0
900,224.75,60.4935,59.9665,151.647,100.361,100.858,0.00109224,0.0491679,20.9308,52.7882,-0.0419487,0.0,0.0
912,227.75,60.1765,59.1311,155.686,100.368,100.268,0.00107518,0.0490891,20.9304,52.7682,0.00853742,0.0,0.0
924,230.75,59.7852,58.5625,152.32,100.408,100.645,0.00128142,0.0489185,20.9314,52.7782,-0.0200533,0.0,0.0
936,233.75,59.3096,58.2138,161.166,100.421,101.406,0.00158959,0.0488433,20.9318,52.8082,-0.0830416,0.0,0.0
948,236.75,59.0822,57.7161,153.707,100.448,100.509,0.00165328,0.0487155,20.9332,52.7982,-0.00511622,0.0,0.0
960,239.75,58.602,57.5656,156.189,100.466,100.242,0.00158223,0.0486298,20.9335,52.7882,0.0189558,0.0,0.0
972,242.75,58.2146,57.625,155.642,100.5,101.324,0.00161325,0.0484362,20.9336,52.7682,-0.0695129,0.0,0.0
984,245.75,57.5921,57.3759,157.306,100.5,100.106,0.0015956,0.0485645,20.9331,52.7382,0.0334024,0.0,0.0
996,248.75,57.324,56.7775,157.941,100.495,100.52,0.00145248,0.0486215,20.9329,52.8183,-0.0021291,0.0,0.0
1008,251.75,57.2975,56.2477,154.336,100.527,101.006,0.00124158,0.0484301,20.9328,52.7882,-0.0404577,0.0,0.0
1020,254.75,56.9159,56.1903,155.758,100.538,101.128,0.00106133,0.0484013,20.9329,52.7582,-0.0497886,0.0,0.0
1032,257.75,57.0322,55.844,153.955,100.59,100.993,0.00109023,0.0484423,20.933,52.7682,-0.0340961,0.0,0.0
1044,260.75,56.684,55.6367,158.081,100.598,101.292,0.00116912,0.0484024,20.933,52.7582,-0.0584731,0.0,0.0
1056,263.75,56.1804,55.6874,158.347,100.626,100.865,0.00144086,0.0483471,20.933,52.7882,-0.0201291,0.0,0.0
1068,266.75,55.8341,55.7649,159.869,100.623,101.183,0.00146482,0.0484692,20.9322,52.7682,-0.047155,0.0,0.0
1080,269.75,55.5557,54.6577,157.547,100.629,100.87,0.00125692,0.0484182,20.9311,52.8183,-0.0203349,0.0,0.0
1092,272.75,55.4531,54.8063,154.816,100.645,100.758,0.00103005,0.0483963,20.932,52.7982,-0.00954098,0.0,0.0
1104,275.75,55.022,54.9257,153.868,100.653,100.502,0.000893002,0.048659,20.9322,52.8082,0.0127756,0.0,0.0
1114,278.25,54.7523,54.2782,157.637,100.65,100.532,0.000913112,0.0487752,20.9329,52.7782,0.00996591,0.0,0.0