File: 01_Data/Latex_Pillow_Foam/Cone/Latex_Pillow_Foam_Cone_HF50Scan_230628_R2.csv
Names,Time,Stack TC,Smoke TC,Exh Press,Smoke Comp,Smoke Meas,CO Meter,CO2 Meter,O2 Meter,Sample Mass,Ext Coeff,Start Test,Flame Verif
Chan Gain,,500,500,1,1,1,1,1,1,1,1,1.0,1.0
Offset,,0,0,0.13804,0,0,0,0,0,0,0,0.0,0.0
Gain,,1,1,25.011,12.9078,45.9244,1,1,1,1.00091,0.969894,1.0,1.0
Units,sec,C,C,Pa,%,%,%,%,%,g,/m,,
Baseline,,58.5101,60.0361,155.629,100.324,67.0257,0.000786396,0.0474711,20.932,-444.978,3.43152,,
10,2.25,54.9932,56.2239,155.806,99.3515,63.9154,0.000954877,0.0513796,20.9294,70.3443,3.75284,0.0,0.0
20,4.75,55.3555,56.9078,151.143,99.4165,61.5146,0.00127004,0.0519456,20.9272,70.2842,4.08413,0.0,0.0
30,7.25,55.9036,57.6356,137.74,99.4618,38.3268,0.00164057,0.0517491,20.9264,69.8638,8.11328,0.0,1.0
40,9.75,59.6555,65.8055,125.183,99.5043,36.5105,0.00192246,0.0511237,20.926,69.4635,8.52998,0.0,1.0
50,12.25,65.0421,76.1553,114.097,99.5874,31.6809,0.00181856,0.0502837,20.9259,68.9029,9.74422,0.0,1.0
60,14.75,71.3557,86.5991,117.502,99.5969,28.8232,0.00217945,0.0935786,20.9232,68.2323,10.5493,0.0,1.0
70,17.25,77.3641,95.9927,110.882,99.6536,31.1525,0.00659591,0.314609,20.8912,67.8019,9.89296,0.0,0.0
80,19.75,83.3023,105.426,114.436,99.6891,30.0145,0.0155528,0.615986,20.5079,67.0913,10.2126,0.0,0.0
90,22.25,88.9027,112.941,109.524,99.7166,28.8765,0.0271075,0.856197,20.0092,66.4507,10.5438,0.0,0.0
100,24.75,93.8836,120.495,108.953,99.76,27.6236,0.0378598,1.02978,19.5795,65.9603,10.9249,0.0,0.0
110,27.25,98.7875,126.978,107.672,99.7816,28.4799,0.0459403,1.13728,19.2658,65.3097,10.667,0.0,0.0
120,29.75,103.059,132.978,104.561,99.8187,27.4778,0.0507553,1.19275,19.0698,64.7291,10.9749,0.0,0.0
130,32.25,107.906,138.2,117.543,99.8321,27.6628,0.0546496,1.24586,18.971,64.1386,10.919,0.0,0.0
140,34.75,111.826,144.316,109.937,99.8502,29.4581,0.0573965,1.27226,18.866,63.5781,10.3855,0.0,0.0
150,37.25,115.816,148.695,98.8134,99.851,26.5416,0.0590876,1.28859,18.8163,62.9675,11.2726,0.0,0.0
160,39.75,119.636,153.517,114.809,99.8908,25.1401,0.0602192,1.31133,18.7905,62.337,11.7375,0.0,0.0
170,42.25,122.96,157.436,101.023,99.8927,26.6019,0.0610495,1.34173,18.7499,61.7064,11.2569,0.0,0.0
180,44.75,125.771,161.031,115.845,99.8821,25.1289,0.0617468,1.36249,18.7079,61.1959,11.7406,0.0,0.0
190,47.25,129.103,164.252,104.831,99.9053,25.0098,0.0617858,1.37734,18.6624,60.4152,11.783,0.0,0.0
200,49.75,132.231,168.75,103.517,99.8644,27.503,0.0611254,1.37966,18.6476,59.8447,10.971,0.0,0.0
210,52.25,135.396,172.423,107.15,99.8455,27.8198,0.0609238,1.39054,18.6358,59.2842,10.872,0.0,0.0
220,54.75,138.121,174.375,101.481,99.8155,24.1689,0.0611536,1.41326,18.623,58.6336,12.0663,0.0,0.0
230,57.25,140.305,177.09,104.482,99.7962,29.1176,0.0618853,1.43762,18.5849,58.043,10.4799,0.0,0.0
240,59.75,142.379,179.542,109.52,99.771,28.8513,0.0627045,1.45098,18.5432,57.4925,10.5559,0.0,0.0
250,62.25,144.463,180.749,111.547,99.7478,28.4168,0.0634599,1.4373,18.5222,56.882,10.683,0.0,0.0
260,64.75,146.003,181.802,103.564,99.7178,27.5114,0.0640739,1.41892,18.5291,56.3215,10.9559,0.0,0.0
270,67.25,147.443,183.106,94.8596,99.6773,27.845,0.0641387,1.41274,18.5563,55.7509,10.8499,0.0,0.0
280,69.75,149.072,184.441,102.4,99.6343,23.8199,0.0638055,1.39301,18.5661,55.0703,12.1746,0.0,0.0
290,72.25,150.835,186.545,106.445,99.6032,23.7624,0.0634676,1.35711,18.5976,54.5398,12.1925,0.0,0.0
300,74.75,153.224,189.679,98.8286,99.589,22.41,0.0635885,1.33918,18.6488,53.8092,12.6898,0.0,0.0
310,77.25,156.121,193.863,101.684,99.5804,21.5761,0.0642507,1.35015,18.6785,53.1285,13.0117,0.0,0.0
320,79.75,158.92,197.444,104.136,99.5677,22.9902,0.0656464,1.39235,18.6734,52.518,12.4705,0.0,0.0
330,82.25,160.588,198.908,105.274,99.5681,21.7695,0.0687199,1.47641,18.618,51.8874,12.9347,0.0,0.0
340,84.75,161.287,198.378,127.583,99.552,25.241,0.0733588,1.57264,18.4866,51.3769,11.6745,0.0,0.0
350,87.25,160.762,196.198,119.729,99.5571,25.8619,0.0775832,1.62141,18.312,50.9065,11.4682,0.0,0.0
360,89.75,159.629,192.259,123.259,99.5213,33.308,0.0792209,1.59253,18.2119,50.4961,9.31245,0.0,0.0
370,92.25,156.307,185.668,132.71,99.5236,39.2658,0.0768447,1.48083,18.2196,50.2259,7.91264,0.0,0.0
380,94.75,152.829,178.06,133.173,99.5035,43.6133,0.0717895,1.34323,18.3811,50.0057,7.01754,0.0,0.0
390,97.25,148.818,170.415,139.742,99.5,55.6998,0.0644863,1.16213,18.6003,49.9056,4.93609,0.0,0.0
400,99.75,144.379,162.353,140.628,99.4941,62.1916,0.0559226,0.962749,18.8204,49.9156,3.99765,0.0,0.0
410,102.25,139.019,154.344,147.915,99.4882,65.9798,0.0460407,0.751461,19.198,49.9456,3.49409,0.0,0.0
420,104.75,134.587,147.302,147.545,99.4957,66.6722,0.0360956,0.58097,19.5942,49.8856,3.40591,0.0,0.0
430,107.25,130.188,140.505,145.769,99.4724,67.0618,0.0262982,0.43012,19.9076,49.8255,3.35435,0.0,0.0
440,109.75,125.885,134.572,147.115,99.4791,66.3891,0.0185697,0.315871,20.2108,49.8255,3.4407,0.0,0.0
450,112.25,121.982,129.151,153.639,99.4661,67.3617,0.0139713,0.234302,20.4091,49.8455,3.31585,0.0,0.0
460,114.75,118.916,124.638,149.678,99.4578,67.1697,0.0124008,0.176219,20.5933,49.8656,3.33943,0.0,0.0
470,117.25,115.75,119.912,148.255,99.4322,67.4738,0.0120577,0.140871,20.7153,50.0357,3.2988,0.0,0.0
480,119.75,112.917,116.304,151.385,99.4232,67.0744,0.0114121,0.118645,20.7821,49.8355,3.34854,0.0,0.0
490,122.25,110.31,113.041,148.561,99.4031,66.745,0.0104841,0.103403,20.8188,49.8555,3.3887,0.0,0.0
500,124.75,107.842,109.613,148.271,99.3999,67.3729,0.00900713,0.0918351,20.8438,49.8355,3.30877,0.0,0.0
510,127.25,105.464,106.994,146.605,99.3885,67.0295,0.0073491,0.0824396,20.8636,49.8355,3.35127,0.0,0.0
520,129.75,103.392,104.461,145.375,99.3822,66.539,0.00596285,0.0747155,20.8801,49.8055,3.41322,0.0,0.0
530,132.25,101.354,101.653,153.603,99.3645,66.8487,0.00489399,0.0687092,20.8918,49.8656,3.37219,0.0,0.0
540,134.75,99.2273,99.6892,147.887,99.3542,66.5096,0.00383033,0.064033,20.9008,49.8555,3.41459,0.0,0.0
550,137.25,97.7626,97.7523,147.417,99.3495,66.4395,0.00290757,0.0606021,20.908,49.8455,3.42315,0.0,0.0
560,139.75,96.3999,96.2899,146.074,99.3117,67.2874,0.0021947,0.0583059,20.9134,49.8555,3.31202,0.0,0.0
570,142.25,94.8834,94.2672,145.929,99.3109,66.2377,0.00168426,0.056615,20.9184,49.8255,3.44573,0.0,0.0
580,144.75,92.7382,93.5645,151.269,99.2861,66.5194,0.00138955,0.0549695,20.9198,49.8555,3.40749,0.0,0.0
590,147.25,91.3719,91.786,145.878,99.2727,66.2419,0.00121209,0.0530885,20.9214,49.8255,3.44191,0.0,0.0
600,149.75,90.1478,91.0202,149.838,99.2684,66.6511,0.00111184,0.0514142,20.9234,49.8155,3.38914,0.0,0.0
610,152.25,89.5545,89.1329,149.01,99.2534,66.902,0.00101222,0.0500789,20.9257,49.8155,3.3559,0.0,0.0
620,154.75,87.9604,88.3088,148.47,99.2534,66.9791,0.000987041,0.049069,20.9286,49.8355,3.3461,0.0,0.0
630,157.25,87.461,86.8494,145.939,99.2443,66.738,0.00103053,0.0483788,20.9311,49.7855,3.376,0.0,0.0
640,159.75,86.4372,86.1754,150.22,99.2428,66.326,0.00107977,0.0479322,20.932,49.8155,3.42855,0.0,0.0
650,162.25,85.7389,85.374,151.096,99.2601,66.5656,0.00105945,0.0477709,20.9323,49.7354,3.39935,0.0,0.0
660,164.75,84.2031,83.9351,151.823,99.2786,66.4605,0.00092304,0.0474826,20.9324,49.7755,3.41438,0.0,0.0
670,167.25,83.4792,83.6706,146.406,99.3302,66.6133,0.000810204,0.0473466,20.9321,49.8055,3.39927,0.0,0.0
680,169.75,82.9493,82.5398,147.774,99.3854,66.6035,0.000790894,0.0471281,20.9317,49.8055,3.40525,0.0,0.0
690,172.25,82.1519,82.2212,151.05,99.4102,66.9426,0.000858638,0.047009,20.9316,49.8155,3.36416,0.0,0.0
700,174.75,81.5986,81.547,150.858,99.4622,66.4956,0.00108028,0.0467933,20.9328,49.7955,3.42562,0.0,0.0
710,177.25,80.5495,80.9255,150.632,99.5733,66.5895,0.00108494,0.0467188,20.9335,49.8055,3.42311,0.0,0.0
720,179.75,80.275,80.4962,149.402,99.5717,66.4087,0.000962182,0.04663,20.933,49.8055,3.4461,0.0,0.0
730,182.25,79.6998,79.8651,153.483,99.6505,66.6946,0.000889671,0.0465763,20.9336,49.7755,3.41628,0.0,0.0
740,184.75,79.2275,79.1109,149.908,99.6989,67.2538,0.000852891,0.0465246,20.9336,49.7354,3.34938,0.0,0.0
750,187.25,78.5057,78.5544,154.511,99.7454,66.483,0.000777981,0.0464716,20.9332,49.7454,3.45142,0.0,0.0
760,189.75,78.2457,78.4746,149.268,99.8175,67.0253,0.000685929,0.0463825,20.9319,49.7655,3.38844,0.0,0.0
770,192.25,77.7645,78.0407,146.47,99.8612,67.5425,0.000579533,0.0464966,20.9326,49.7855,3.32677,0.0,0.0
780,194.75,77.4758,77.2674,150.272,99.9002,67.1655,0.0006843,0.0466466,20.933,49.7655,3.37772,0.0,0.0
790,197.25,76.4548,77.4141,150.966,99.9242,67.0464,0.000814541,0.0467014,20.9329,49.7454,3.39487,0.0,0.0
800,199.75,76.3739,76.7524,152.798,99.9735,67.5313,0.000790333,0.046617,20.9316,49.7855,3.33775,0.0,0.0
810,202.25,76.0209,76.6849,150.513,100.042,67.0295,0.000709217,0.0465841,20.9312,49.7655,3.40699,0.0,0.0
820,204.75,75.9359,75.9315,149.546,100.04,67.1403,0.000864775,0.0465489,20.931,49.8155,3.39278,0.0,0.0
830,207.25,75.5235,75.6419,150.847,100.047,67.4402,0.00102904,0.0464929,20.931,49.8055,3.3555,0.0,0.0
840,209.75,75.1379,75.8629,150.48,100.058,67.6406,0.00102469,0.0464481,20.9309,49.7354,3.33119,0.0,0.0
850,212.25,74.8511,75.56,150.612,100.061,66.8572,0.000890826,0.0464352,20.9321,49.7054,3.43057,0.0,0.0
860,214.75,74.3574,75.2545,148.049,100.048,66.9062,0.00076075,0.0464555,20.9341,49.7655,3.42323,0.0,0.0
870,217.25,74.1675,74.856,152.465,100.077,67.1024,0.000575582,0.0463745,20.934,49.7454,3.40073,0.0,0.0
880,219.75,74.1733,74.5701,154.562,100.073,66.7212,0.000609592,0.0463696,20.9341,49.7555,3.4489,0.0,0.0
890,222.25,74.0738,74.3803,146.433,100.081,67.2664,0.000809986,0.0464266,20.9341,49.7354,3.3803,0.0,0.0
898,224.25,73.7123,74.4425,151.498,100.081,67.4374,0.000866429,0.0463964,20.9341,49.7254,3.35873,0.0,0.0