File: 01_Data/Latex_Pillow_Foam/Cone/Latex_Pillow_Foam_Cone_HF50Scalar_230630_R4.csv
LABORATORY,FSRI
TEST IDENT,LPC_HF50_R4
OPERATOR,Marino
MATERIAL,Engineered Wood Table
ORIENTATION,Horizontal
HEAT FLUX,50
SURF AREA,0.01
C FACTOR,0.0403601
SPEC HOLDER DIFF,-566
SPECIMEN MASS,20.8
SCAN TIME,0.25
O2 DELAY TIME,11
CO DELAY TIME,11
CO2 DELAY TIME,8
FLOW FACTOR,1
SCAN COUNT,828
TIME TO IGN,1.75
END OF TEST SCAN,348
END OF TEST TIME,87
TEST STATUS,1
PRE TEST CMT,Dimensions: 99.58 x 99.72 x 37.47 mm
POST TEST CMT,"Sample melted and shrank."