File: 01_Data/Latex_Pillow_Foam/Cone/Latex_Pillow_Foam_Cone_HF25Scan_230613_R1.csv
Names,Time,Stack TC,Smoke TC,Exh Press,Smoke Comp,Smoke Meas,CO Meter,CO2 Meter,O2 Meter,Sample Mass,Ext Coeff,Start Test,Flame Verif
Chan Gain,,500,500,1,1,1,1,1,1,1,1,1.0,1.0
Offset,,0,0,0.142142,0,0,0,0,0,0,0,0.0,0.0
Gain,,1,1,25.011,13.2542,15.984,1,1,1,1.00097,1.04429,1.0,1.0
Units,sec,C,C,Pa,%,%,%,%,%,g,/m,,
Baseline,,27.7336,28.9258,157.47,98.6674,98.4259,0.000222229,0.0454855,20.9564,-445.152,0.0224519,,
15,3.5,24.0842,24.9028,156.235,99.4741,97.9211,0.000440726,0.0483144,20.9579,65.283,0.144141,0.0,0.0
30,7.25,24.9889,25.2672,157.849,99.3556,95.7402,0.00029866,0.049863,20.9552,65.283,0.339551,0.0,0.0
45,11,24.629,25.9079,154.705,99.2488,95.4265,0.00012053,0.0492957,20.9535,65.2029,0.359759,0.0,1.0
60,14.75,26.9477,29.1827,141.864,99.1465,69.2023,-1.742e-05,0.0476562,20.9526,64.8625,3.29376,0.0,1.0
75,18.5,29.4859,33.8488,138.274,99.0943,62.1132,0.000113932,0.0488439,20.9523,64.4021,4.27895,0.0,0.0
90,22.25,33.8157,40.6504,133.041,99.2225,56.5796,0.000997619,0.133856,20.9438,63.9617,5.14555,0.0,0.0
105,26,38.1458,46.3469,131.275,99.3329,53.8007,0.00722146,0.330084,20.7406,63.4312,5.61708,0.0,0.0
120,29.75,41.957,51.6003,141.416,99.4118,53.1387,0.0154,0.464898,20.4132,62.9007,5.73776,0.0,0.0
135,33.5,45.4503,55.1127,133.823,99.4401,53.7553,0.0214878,0.547294,20.229,62.3701,5.63469,0.0,0.0
150,37.25,48.7377,59.4257,131,99.4632,52.8202,0.0255696,0.595022,20.0796,61.8396,5.79756,0.0,0.0
165,41,51.1375,62.1219,132.167,99.4777,54.3343,0.0276103,0.617458,20.0122,61.2891,5.54001,0.0,0.0
180,44.75,53.3638,65.4792,134.685,99.4753,54.9294,0.0286316,0.633951,19.9756,60.7886,5.44,0.0,0.0
195,48.5,56.3559,68.202,126.863,99.483,52.3061,0.0295987,0.644132,19.9481,60.2481,5.88899,0.0,0.0
210,52.25,58.7849,71.2122,121.616,99.498,51.731,0.030458,0.651579,19.9343,59.6775,5.99164,0.0,0.0
225,56,60.9238,73.1686,128.504,99.4911,57.8903,0.0314435,0.672338,19.9225,59.117,4.96052,0.0,0.0
240,59.75,63.018,75.5722,133.721,99.5012,49.0218,0.0324013,0.6879,19.8823,58.5765,6.4847,0.0,0.0
255,63.5,65.043,77.3209,128.977,99.4915,56.2353,0.0323844,0.684801,19.8658,58.116,5.22627,0.0,0.0
270,67.25,67.1715,80.7383,132.619,99.4895,51.8232,0.0326188,0.685689,19.8707,57.5155,5.97455,0.0,0.0
285,71,68.5452,81.7158,120.986,99.4935,53.2822,0.0331568,0.692382,19.8671,56.9349,5.72059,0.0,0.0
300,74.75,70.2501,83.1347,131.558,99.4875,53.61,0.0339557,0.707315,19.8506,56.3343,5.66385,0.0,0.0
315,78.5,71.8439,84.4112,123.993,99.4846,49.7622,0.0348109,0.704317,19.8297,55.8539,6.34584,0.0,0.0
330,82.25,73.0374,85.9778,129.523,99.5182,53.0422,0.0350371,0.712847,19.8311,55.2333,5.76422,0.0,0.0
345,86,75.2835,88.1619,131.753,99.4988,54.1719,0.0354885,0.724634,19.8176,54.7028,5.56937,0.0,0.0
360,89.75,75.6824,89.3446,124.596,99.4887,51.231,0.0363747,0.729854,19.7951,54.1022,6.07975,0.0,0.0
375,93.5,76.8011,90.2864,128.454,99.4777,55.0953,0.0365719,0.72723,19.7911,53.5216,5.41261,0.0,0.0
390,97.25,78.2057,91.1287,131.525,99.4757,59.1225,0.0362758,0.731763,19.7927,52.9411,4.76618,0.0,0.0
405,101,79.8688,93.5916,128.414,99.4705,59.3679,0.0360407,0.729126,19.7861,52.4806,4.72776,0.0,0.0
420,104.75,80.6932,94.1077,120.692,99.4502,52.1744,0.0367984,0.742043,19.7862,51.9201,5.90907,0.0,0.0
435,108.5,81.2892,94.2406,127.68,99.4122,49.2691,0.0364903,0.750729,19.7633,51.3195,6.43041,0.0,0.0
450,112.25,81.9414,94.4887,118.245,99.3698,53.5914,0.0363161,0.734021,19.7605,50.7389,5.65617,0.0,0.0
465,116,82.6807,96.0703,120.894,99.3155,56.4201,0.0367696,0.729294,19.7826,50.1484,5.17999,0.0,0.0
480,119.75,83.0295,96.3142,126.376,99.2795,46.6306,0.0373826,0.729173,19.7823,49.5378,6.92236,0.0,0.0
495,123.5,83.572,96.2523,122.075,99.2035,48.5471,0.0372624,0.7392,19.7806,49.0773,6.54637,0.0,0.0
510,127.25,83.5524,96.5238,123.919,99.1198,53.4958,0.0369287,0.723945,19.7747,48.5368,5.64946,0.0,0.0
525,131,84.158,96.193,125.785,99.1509,56.6865,0.0365595,0.70108,19.803,47.9763,5.12165,0.0,0.0
540,134.75,84.1331,96.1932,135.408,99.1881,46.9999,0.0360603,0.694228,19.8354,47.4157,6.84167,0.0,0.0
555,138.5,83.2226,96.6198,119.831,99.2403,51.4066,0.0357467,0.689333,19.8406,46.8652,6.02551,0.0,0.0
570,142.25,84.7539,97.7228,125.444,99.2707,49.7905,0.0351864,0.677005,19.8513,46.2946,6.32091,0.0,0.0
585,146,85.2171,97.6286,142.369,99.3131,54.3138,0.035164,0.687832,19.8575,45.7541,5.52829,0.0,0.0
600,149.75,85.9096,98.8941,119.702,99.3827,51.0895,0.036322,0.707831,19.843,45.1636,6.09532,0.0,0.0
615,153.5,86.7711,99.1952,121.23,99.4595,47.9779,0.0372272,0.712865,19.8102,44.633,6.67803,0.0,0.0
630,157.25,87.8412,100.248,129.543,99.5117,45.6784,0.0375128,0.722569,19.8034,44.0124,7.13274,0.0,0.0
645,161,88.2076,101.202,120.837,99.5732,50.83,0.0384195,0.732084,19.7823,43.4519,6.15951,0.0,0.0
660,164.75,88.745,101.687,131.858,99.6739,53.0324,0.0392286,0.743183,19.7639,42.8713,5.78023,0.0,0.0
675,168.5,88.1879,101.001,128.118,99.7378,48.731,0.0403033,0.754291,19.739,42.3709,6.56095,0.0,0.0
690,172.25,88.3515,100.668,129.83,99.8248,49.5261,0.0408665,0.7446,19.7247,41.9004,6.42067,0.0,0.0
705,176,87.5894,99.8412,133.926,99.8923,50.5403,0.0397866,0.713171,19.7528,41.3899,6.24119,0.0,0.0
720,179.75,86.9479,98.4,131.96,99.9809,47.8579,0.0384626,0.677858,19.805,40.9595,6.74887,0.0,0.0
735,183.5,85.8374,97.1892,129.642,100.017,45.1697,0.0366046,0.647824,19.8671,40.479,7.28177,0.0,0.0
750,187.25,84.5824,95.6661,132.736,100.037,54.7758,0.0347365,0.621145,19.914,40.0186,5.51722,0.0,0.0
765,191,83.2175,93.922,131.239,99.9927,56.5357,0.0329696,0.592127,19.9722,39.6382,5.22348,0.0,0.0
780,194.75,82.5442,92.5939,132.633,99.915,55.5226,0.031328,0.564281,20.0094,39.2779,5.38201,0.0,0.0
795,198.5,80.542,90.5683,131.689,99.7908,58.1123,0.0289505,0.53046,20.058,39.0276,4.95302,0.0,0.0
810,202.25,79.507,88.9907,134.15,99.6302,59.8522,0.0268791,0.509595,20.1215,38.6773,4.66802,0.0,0.0
825,206,78.4641,86.728,136.626,99.4033,66.4116,0.024945,0.473034,20.1572,38.4571,3.69452,0.0,0.0
840,209.75,76.1528,83.2241,146.074,99.1675,78.8674,0.0217547,0.44625,20.2379,38.2369,2.09812,0.0,0.0
855,213.5,73.7841,81.7113,142.994,98.9333,90.4301,0.0202445,0.415585,20.2726,38.0867,0.823239,0.0,0.0
870,217.25,71.8567,78.3513,144.686,98.7153,96.1558,0.017409,0.369083,20.3377,37.9566,0.240645,0.0,0.0
885,221,69.4982,75.1273,147.675,98.5349,97.9523,0.0141174,0.332486,20.4202,37.9066,0.0543199,0.0,0.0
900,224.75,67.4125,72.1742,145.812,98.3961,98.6401,0.0106224,0.281632,20.5049,37.9066,-0.0226845,0.0,0.0
915,228.5,65.5973,69.9756,148.745,98.3508,98.9074,0.00732784,0.235147,20.602,37.8665,-0.0516937,0.0,0.0
930,232.25,62.672,67.0934,151.447,98.3589,99.345,0.0054394,0.19643,20.6871,37.7964,-0.0913752,0.0,0.0
945,236,61.0202,63.691,149.382,98.4382,99.5947,0.00570859,0.162544,20.7462,37.8165,-0.106995,0.0,0.0
960,239.75,58.6999,61.8279,150.645,98.5555,99.9025,0.00677976,0.133465,20.7997,37.8065,-0.124352,0.0,0.0
975,243.5,55.6758,58.0482,148.905,98.6995,100.123,0.00727899,0.110146,20.8354,37.8165,-0.131127,0.0,0.0
990,247.25,53.8812,56.026,150.448,98.8811,99.8294,0.00675812,0.0922201,20.8706,37.8365,-0.0874258,0.0,0.0
1005,251,51.961,54.1056,147.533,99.047,100.483,0.00580521,0.0799648,20.8933,37.7964,-0.131903,0.0,0.0
1020,254.75,51.1161,52.889,153.076,99.1558,100.504,0.00489933,0.0711778,20.9092,37.8165,-0.123757,0.0,0.0
1035,258.5,49.9286,51.2038,151.976,99.2439,100.434,0.00376571,0.0644387,20.9201,37.7764,-0.109211,0.0,0.0
1050,262.25,48.7694,49.6229,152.016,99.3677,100.699,0.00314023,0.0592862,20.9303,37.7964,-0.121875,0.0,0.0
1065,266,47.3788,48.9282,151.697,99.4798,100.831,0.00232745,0.0553224,20.9371,37.8365,-0.123614,0.0,0.0
1080,269.75,46.7024,47.2733,151.672,99.5481,100.753,0.00165758,0.0523446,20.9443,37.8465,-0.110184,0.0,0.0
1095,273.5,46.2755,46.3023,149.918,99.5663,100.606,0.00131819,0.0497928,20.9508,37.8265,-0.0951938,0.0,0.0
1110,277.25,44.8818,45.5043,148.463,99.5514,100.781,0.000960151,0.0482107,20.9544,37.8265,-0.112458,0.0,0.0
1125,281,44.0369,45.2645,155.911,99.5283,100.608,0.000831331,0.0473506,20.9561,37.8365,-0.0988706,0.0,0.0
1140,284.75,43.1661,44.1444,152.961,99.4373,100.365,0.000649229,0.0467261,20.9574,37.8265,-0.0850613,0.0,0.0
1155,288.5,42.8781,44.1443,158.155,99.3815,100.24,0.000348695,0.0460158,20.9584,37.7264,-0.0788008,0.0,0.0
1170,292.25,41.9517,42.9102,154.194,99.3091,99.985,0.00043707,0.0455296,20.9582,37.8165,-0.0621335,0.0,0.0
1185,296,41.281,42.1026,149.578,99.2617,100.247,0.000419274,0.0450575,20.9595,37.8465,-0.0904669,0.0,0.0
1200,299.75,41.1537,40.7321,153.5,99.1768,99.9664,0.000401249,0.0447472,20.9601,37.8465,-0.072643,0.0,0.0
1215,303.5,39.8653,40.4771,151.107,99.1331,99.8498,0.000326821,0.0443459,20.9601,37.6363,-0.0659895,0.0,0.0
1230,307.25,39.6871,40.0821,150.636,99.085,99.663,0.000242213,0.0443305,20.9593,37.6663,-0.0532835,0.0,0.0
1245,311,38.5796,39.9076,153.058,99.049,99.5547,0.000188016,0.0446182,20.9574,37.8365,-0.0466533,0.0,0.0
1260,314.75,38.682,39.0414,149.633,99.0344,99.6157,3.97692e-05,0.044718,20.9599,37.7864,-0.0536086,0.0,0.0
1275,318.5,38.9265,38.8187,151.346,99.015,99.6616,-0.000110835,0.045001,20.96,37.7264,-0.05962,0.0,0.0
1290,322.25,37.8843,37.7689,149.73,99.0235,99.8703,-2.9262e-05,0.0449352,20.9594,37.7664,-0.0780044,0.0,0.0
1305,326,38.0482,38.4618,155.105,99.0288,99.7162,4.19191e-05,0.044682,20.9601,37.8265,-0.0633683,0.0,0.0
1320,329.75,37.6709,37.0949,151.248,99.0449,99.5913,0.000317085,0.0446335,20.9633,37.7664,-0.050393,0.0,0.0
1335,333.5,37.4075,36.8494,152.433,99.0316,99.7396,0.000266198,0.0446722,20.9628,37.7864,-0.065257,0.0,0.0
1350,337.25,36.9733,36.7677,152.751,99.0704,99.5338,9.78884e-05,0.0443289,20.9621,37.8565,-0.0427407,0.0,0.0
1365,341,36.8232,36.529,151.897,99.0862,99.5191,-0.00016498,0.0443945,20.9617,37.9166,-0.0399353,0.0,0.0
1380,344.75,36.523,36.2167,155.63,99.1307,99.6767,-0.0003296,0.0444192,20.9617,37.8965,-0.0503134,0.0,0.0
1395,348.5,36.167,36.0934,151.552,99.1869,99.6659,2.34414e-05,0.0445402,20.9616,37.9066,-0.0441342,0.0,0.0
1410,352.25,36.0694,35.7976,153.453,99.2484,99.6762,0.000134243,0.044657,20.961,37.8065,-0.0393984,0.0,0.0
1425,356,35.8048,36.1743,153.191,99.3111,99.5825,-2.40157e-05,0.0446753,20.9608,37.8665,-0.0250033,0.0,0.0
1440,359.75,35.716,35.6589,152.335,99.3835,99.6738,4.03355e-05,0.0449765,20.9607,37.9166,-0.0267144,0.0,0.0
1448,361.75,35.4409,35.7098,149.837,99.4138,99.7586,-6.41229e-05,0.045267,20.9605,37.9066,-0.0317143,0.0,0.0