File: 01_Data/Latex_Pillow_Foam/Cone/Latex_Pillow_Foam_HRRPUA_25.csv
Time after Ignition,Latex_Pillow_Foam_R1,Latex_Pillow_Foam_R2,Latex_Pillow_Foam_R3,Latex_Pillow_Foam_R4,Mean,Std. Dev.
0.0,1.5,2.0,3.2,3.1,2.5,0.9
1.0,1.5,2.3,3.1,3.6,2.6,0.9
2.0,1.7,2.5,3.5,4.1,2.9,1.1
3.0,1.8,2.6,3.7,4.5,3.1,1.2
4.0,1.9,2.8,3.6,4.8,3.3,1.3
5.0,1.9,3.2,3.1,5.3,3.3,1.4
6.0,1.9,3.4,2.7,5.7,3.4,1.6
7.0,2.0,3.7,2.5,6.3,3.6,1.9
8.0,2.2,4.0,2.6,7.1,4.0,2.2
9.0,2.9,4.5,4.1,7.7,4.8,2.0
10.0,3.4,4.0,7.4,8.1,5.7,2.3
11.0,5.6,7.5,26.8,13.6,13.4,9.6
12.0,10.6,24.5,64.8,32.1,33.0,23.0
13.0,25.2,74.9,102.4,68.2,67.7,32.0
14.0,57.0,131.9,149.8,129.3,117.0,41.0
15.0,101.3,190.0,202.5,179.0,168.2,45.6
16.0,147.7,231.9,259.2,222.6,215.3,47.7
17.0,196.5,276.7,310.1,269.3,263.2,47.8
18.0,234.2,305.4,339.9,302.3,295.4,44.2
19.0,258.8,345.3,383.3,332.5,330.0,52.1
20.0,292.1,369.8,407.8,347.7,354.4,48.3
21.0,302.9,387.5,439.4,367.1,374.2,56.5
22.0,332.2,410.5,464.0,383.0,397.4,55.0
23.0,332.9,426.5,471.8,410.8,410.5,57.8
24.0,365.1,426.7,483.7,417.0,423.1,48.6
25.0,382.4,449.9,478.1,423.8,433.6,40.7
26.0,395.7,459.7,506.7,423.4,446.4,48.0
27.0,402.2,469.6,503.9,443.9,454.9,42.9
28.0,428.4,480.7,492.7,450.0,463.0,29.2
29.0,424.7,468.9,499.9,452.1,461.4,31.5
30.0,429.8,473.5,483.6,443.6,457.6,25.1
31.0,429.5,474.7,494.8,452.1,462.8,28.2
32.0,438.3,460.2,470.7,451.6,455.2,13.7
33.0,437.5,477.5,488.7,462.1,466.4,22.2
34.0,437.0,468.2,513.4,468.5,471.8,31.4
35.0,444.4,454.7,504.3,464.7,467.0,26.2
36.0,458.2,471.8,516.6,476.0,480.6,25.2
37.0,465.1,471.0,512.1,500.3,487.1,22.7
38.0,446.7,458.9,520.3,474.6,475.1,32.2
39.0,438.6,455.4,530.4,496.8,480.3,41.4
40.0,458.2,454.3,509.1,510.1,482.9,30.8
41.0,454.0,467.9,547.7,501.4,492.8,41.7
42.0,449.3,471.1,548.6,509.0,494.5,43.7
43.0,457.1,477.8,546.5,514.6,499.0,39.6
44.0,459.1,501.5,553.2,518.4,508.0,39.1
45.0,456.5,497.9,549.4,505.5,502.3,38.1
46.0,456.9,497.2,569.0,519.1,510.5,46.7
47.0,466.4,498.2,555.0,559.6,519.8,45.3
48.0,474.7,503.0,558.3,558.2,523.6,41.7
49.0,482.1,514.8,552.4,544.4,523.4,32.0
50.0,483.3,499.7,560.2,544.4,521.9,36.3
51.0,486.1,518.9,551.4,538.7,523.8,28.5
52.0,468.3,524.3,567.4,562.8,530.7,45.9
53.0,468.7,510.5,577.0,549.8,526.5,47.2
54.0,474.0,522.5,581.3,550.1,532.0,45.5
55.0,480.8,533.8,579.4,560.0,538.5,42.8
56.0,468.1,537.1,557.7,562.4,531.3,43.6
57.0,477.2,531.3,573.3,558.7,535.1,42.4
58.0,472.9,549.1,551.2,545.2,529.6,37.9
59.0,474.5,551.2,567.3,574.6,541.9,46.0
60.0,460.9,560.3,574.2,567.6,540.8,53.5
61.0,476.2,567.8,564.6,557.8,541.6,43.8
62.0,473.1,578.4,579.2,541.5,543.0,49.8
63.0,463.5,592.5,552.2,563.5,543.0,55.6
64.0,471.6,578.4,541.8,549.8,535.4,45.3
65.0,475.3,589.8,550.5,566.4,545.5,49.5
66.0,502.3,598.8,549.9,569.4,555.1,40.5
67.0,474.5,585.0,554.4,554.8,542.2,47.3
68.0,470.1,587.4,525.7,563.2,536.6,51.1
69.0,485.7,601.2,515.6,551.1,538.4,49.7
70.0,485.4,570.5,514.6,553.6,531.0,38.4
71.0,497.9,584.0,515.3,566.4,540.9,40.9
72.0,489.5,571.9,500.3,549.5,527.8,39.3
73.0,486.3,567.5,525.6,576.4,539.0,41.5
74.0,486.8,576.3,504.1,569.3,534.1,45.3
75.0,497.6,572.2,497.3,563.9,532.7,40.9
76.0,477.0,567.8,526.6,605.8,544.3,55.3
77.0,493.5,574.4,548.7,566.8,545.9,36.5
78.0,490.2,570.5,510.4,587.0,539.5,46.5
79.0,499.8,566.3,521.8,588.5,544.1,40.5
80.0,502.2,550.9,537.2,574.9,541.3,30.4
81.0,516.6,548.2,517.0,585.3,541.8,32.6
82.0,493.9,541.8,553.2,614.5,550.9,49.6
83.0,495.4,504.2,553.1,633.5,546.6,63.3
84.0,492.4,507.0,566.7,651.9,554.5,72.5
85.0,479.3,522.2,547.1,621.2,542.4,59.5
86.0,488.8,497.2,574.9,648.7,552.4,75.0
87.0,511.1,493.8,568.8,629.6,550.8,61.5
88.0,499.3,474.2,576.7,617.2,541.8,66.5
89.0,499.7,480.6,597.2,629.0,551.6,72.6
90.0,501.2,465.9,602.8,627.4,549.3,78.0
91.0,491.1,466.6,601.6,679.3,559.6,99.1
92.0,505.7,471.1,596.5,668.4,560.4,89.3
93.0,494.8,475.1,588.0,691.5,562.3,99.2
94.0,493.7,479.4,590.3,703.4,566.7,103.6
95.0,511.1,481.1,595.1,700.9,572.0,98.5
96.0,512.8,474.7,583.6,706.6,569.4,101.9
97.0,496.6,474.5,627.1,736.4,583.6,122.1
98.0,498.4,472.8,627.7,729.0,582.0,119.2
99.0,494.6,489.4,644.6,740.4,592.2,122.2
100.0,505.5,463.0,619.9,734.9,580.9,122.2
101.0,503.0,462.2,653.1,737.4,588.9,128.6
102.0,498.8,472.1,651.4,749.5,592.9,130.9
103.0,494.1,463.4,616.4,763.6,584.4,136.5
104.0,502.8,465.6,640.5,761.6,592.7,135.5
105.0,485.8,453.1,648.4,756.4,585.9,142.2
106.0,500.6,476.1,645.4,784.3,601.6,142.9
107.0,498.0,481.1,649.0,752.8,595.2,129.4
108.0,500.6,481.5,667.1,743.7,598.2,127.9
109.0,501.3,486.3,651.0,746.8,596.3,124.9
110.0,502.6,503.8,650.4,721.8,594.7,109.5
111.0,488.0,514.7,656.7,696.3,588.9,103.0
112.0,513.4,535.4,640.6,694.1,595.9,85.9
113.0,491.3,562.8,626.6,690.6,592.8,85.5
114.0,513.9,580.4,637.9,672.3,601.1,69.4
115.0,501.3,603.4,609.3,652.5,591.6,64.1
116.0,500.5,651.9,605.8,647.1,601.3,70.3
117.0,505.5,676.9,583.1,608.6,593.5,70.8
118.0,501.5,697.1,543.2,572.3,578.5,84.2
119.0,494.8,727.3,524.3,553.6,575.0,104.3
120.0,486.1,732.9,512.3,549.6,570.2,111.5
121.0,485.6,739.9,498.9,522.5,561.7,119.8
122.0,487.2,745.6,474.2,501.1,552.0,129.5
123.0,472.9,730.9,478.9,487.7,542.6,125.7
124.0,464.8,711.7,456.0,487.9,530.1,121.8
125.0,477.5,694.5,447.3,463.6,520.7,116.5
126.0,474.1,648.4,442.9,461.0,506.6,95.4
127.0,455.4,651.2,433.1,437.7,494.3,105.0
128.0,462.6,613.3,441.2,428.3,486.3,85.8
129.0,465.2,567.8,443.5,417.0,473.4,66.0
130.0,479.5,549.6,433.6,417.3,470.0,59.3
131.0,458.6,519.5,418.2,404.3,450.2,51.7
132.0,484.1,491.9,410.0,390.4,444.1,51.4
133.0,472.0,454.0,391.3,373.3,422.7,47.7
134.0,465.2,454.9,358.0,354.3,408.1,60.1
135.0,492.5,435.1,326.6,334.3,397.1,80.5
136.0,469.1,412.8,291.4,301.5,368.7,86.6
137.0,451.0,401.0,253.5,268.4,343.5,97.6
138.0,471.6,388.0,,229.2,362.9,123.1
139.0,460.1,376.0,,194.9,343.7,135.5
140.0,473.3,371.6,,165.0,336.6,157.1
141.0,479.2,373.4,,143.7,332.1,171.5
142.0,466.7,371.3,,126.7,321.6,175.4
143.0,464.9,364.5,,111.7,313.7,182.0
144.0,471.0,365.9,,100.5,312.5,190.9
145.0,487.3,358.5,,88.4,311.4,203.6
146.0,480.4,354.3,,77.5,304.1,206.1
147.0,479.4,325.1,,67.8,290.8,207.9
148.0,485.2,304.5,,60.7,283.5,213.0
149.0,475.4,278.5,,54.4,269.4,210.7
150.0,482.1,235.2,,48.3,255.2,217.6
151.0,485.1,205.6,,43.1,244.6,223.6
152.0,491.4,176.7,,38.9,235.6,231.9
153.0,503.5,157.8,,34.5,231.9,243.1
154.0,496.5,140.9,,31.5,223.0,243.1
155.0,502.9,122.9,,,312.9,268.7
156.0,507.4,107.6,,,307.5,282.7
157.0,511.4,92.0,,,301.7,296.5
158.0,513.2,79.5,,,296.3,306.7
159.0,514.5,,,,514.5,
160.0,527.5,,,,527.5,
161.0,518.3,,,,518.3,
162.0,517.8,,,,517.8,
163.0,539.5,,,,539.5,
164.0,515.9,,,,515.9,
165.0,520.4,,,,520.4,
166.0,504.5,,,,504.5,
167.0,492.7,,,,492.7,
168.0,499.2,,,,499.2,
169.0,490.6,,,,490.6,
170.0,493.7,,,,493.7,
171.0,477.8,,,,477.8,
172.0,471.0,,,,471.0,
173.0,464.1,,,,464.1,
174.0,469.9,,,,469.9,
175.0,453.2,,,,453.2,
176.0,450.4,,,,450.4,
177.0,448.1,,,,448.1,
178.0,436.1,,,,436.1,
179.0,441.3,,,,441.3,
180.0,425.6,,,,425.6,
181.0,422.6,,,,422.6,
182.0,412.7,,,,412.7,
183.0,408.9,,,,408.9,
184.0,411.0,,,,411.0,
185.0,410.9,,,,410.9,
186.0,408.4,,,,408.4,
187.0,406.7,,,,406.7,
188.0,392.9,,,,392.9,
189.0,390.0,,,,390.0,
190.0,375.2,,,,375.2,
191.0,367.9,,,,367.9,
192.0,369.6,,,,369.6,
193.0,363.2,,,,363.2,
194.0,363.1,,,,363.1,
195.0,356.2,,,,356.2,
196.0,357.4,,,,357.4,
197.0,346.7,,,,346.7,
198.0,335.5,,,,335.5,
199.0,328.3,,,,328.3,
200.0,311.0,,,,311.0,
201.0,317.3,,,,317.3,
202.0,319.0,,,,319.0,
203.0,312.9,,,,312.9,
204.0,305.0,,,,305.0,
205.0,295.8,,,,295.8,
206.0,286.0,,,,286.0,
207.0,280.8,,,,280.8,
208.0,275.9,,,,275.9,
209.0,264.6,,,,264.6,
210.0,252.9,,,,252.9,
211.0,237.2,,,,237.2,
212.0,232.3,,,,232.3,
213.0,224.6,,,,224.6,
214.0,209.7,,,,209.7,
215.0,192.8,,,,192.8,
216.0,186.3,,,,186.3,
217.0,175.2,,,,175.2,
218.0,164.2,,,,164.2,
219.0,154.1,,,,154.1,
220.0,141.4,,,,141.4,
221.0,132.2,,,,132.2,
222.0,122.2,,,,122.2,
223.0,115.4,,,,115.4,
224.0,108.2,,,,108.2,
225.0,101.6,,,,101.6,
226.0,94.8,,,,94.8,
227.0,86.1,,,,86.1,
228.0,81.3,,,,81.3,
229.0,74.8,,,,74.8,
230.0,70.9,,,,70.9,
231.0,67.0,,,,67.0,