File: 01_Data/Latex_Pillow_Foam/Cone/Latex_Pillow_Foam_HRRPUA_50.csv
Time after Ignition,Latex_Pillow_Foam_R1,Latex_Pillow_Foam_R2,Latex_Pillow_Foam_R3,Latex_Pillow_Foam_R4,Mean,Std. Dev.
0.0,-0.2,2.6,1.0,3.4,1.7,1.6
0.5,-0.1,2.7,1.4,3.1,1.8,1.4
1.0,-0.0,2.6,1.7,2.9,1.8,1.3
1.5,0.1,2.6,2.2,2.7,1.9,1.2
2.0,0.1,2.7,2.3,2.6,1.9,1.2
2.5,0.2,2.7,2.6,2.5,2.0,1.2
3.0,0.2,2.7,2.8,2.4,2.0,1.2
3.5,0.2,2.6,2.8,2.3,2.0,1.2
4.0,0.2,2.6,3.0,2.3,2.0,1.2
4.5,0.3,2.5,3.1,2.2,2.0,1.2
5.0,0.3,2.6,3.1,2.2,2.0,1.2
5.5,0.3,2.6,3.1,2.2,2.0,1.2
6.0,0.3,2.7,3.1,2.1,2.1,1.2
6.5,0.3,2.7,3.2,2.1,2.1,1.3
7.0,0.5,3.0,3.2,2.2,2.2,1.3
7.5,0.6,3.2,3.2,2.3,2.3,1.2
8.0,0.9,3.8,3.3,2.6,2.6,1.3
8.5,1.0,4.2,3.6,3.1,3.0,1.4
9.0,1.6,4.5,3.9,3.4,3.4,1.2
9.5,2.2,6.1,5.8,4.0,4.5,1.8
10.0,8.2,6.8,8.5,4.8,7.1,1.7
10.5,13.6,16.9,16.3,5.4,13.0,5.3
11.0,26.0,25.6,27.2,5.8,21.2,10.3
11.5,40.5,58.7,38.6,9.8,36.9,20.2
12.0,64.8,89.9,61.4,12.8,57.2,32.2
12.5,91.8,135.2,79.3,26.2,83.1,44.9
13.0,128.3,175.3,107.9,36.8,112.0,57.6
13.5,168.9,224.3,131.1,70.4,148.7,64.7
14.0,197.5,266.7,157.7,95.8,179.4,71.6
14.5,224.5,298.4,199.8,133.1,213.9,68.3
15.0,278.2,352.2,222.1,164.1,254.2,80.3
15.5,309.3,366.8,279.1,191.8,286.7,73.0
16.0,363.6,415.9,296.9,242.4,329.7,75.9
16.5,373.0,460.9,356.6,269.8,365.1,78.3
17.0,405.3,456.2,366.8,299.0,381.8,66.2
17.5,441.6,495.6,421.0,320.1,419.6,73.4
18.0,469.0,528.2,445.3,372.1,453.7,64.6
18.5,474.9,567.0,466.8,433.2,485.5,57.3
19.0,534.5,585.4,515.4,456.8,523.0,53.1
19.5,509.6,614.2,546.1,480.0,537.5,57.9
20.0,539.9,642.6,564.6,498.9,561.5,60.5
20.5,563.0,638.9,572.3,522.7,574.2,48.2
21.0,595.1,668.6,633.8,551.9,612.3,50.3
21.5,583.2,675.6,627.5,590.6,619.2,42.3
22.0,602.7,683.4,648.7,617.6,638.1,35.8
22.5,616.9,707.9,682.5,630.7,659.5,42.9
23.0,631.4,697.2,651.9,632.7,653.3,30.7
23.5,622.1,702.6,667.2,668.7,665.2,33.0
24.0,671.2,747.6,683.1,629.1,682.8,49.0
24.5,657.9,727.7,692.7,641.4,679.9,38.4
25.0,656.0,760.3,732.7,648.0,699.3,55.8
25.5,723.3,772.0,735.3,691.7,730.6,33.2
26.0,688.4,756.7,761.1,733.2,734.8,33.3
26.5,734.7,752.4,807.7,731.1,756.5,35.4
27.0,698.4,768.9,778.9,704.1,737.6,42.2
27.5,688.3,784.2,774.8,722.9,742.5,45.1
28.0,728.5,781.1,813.0,695.6,754.6,52.5
28.5,751.5,777.5,797.2,745.6,767.9,23.9
29.0,721.1,778.6,813.7,715.1,757.1,47.4
29.5,717.4,803.8,782.7,735.3,759.8,40.2
30.0,735.9,786.9,817.0,774.8,778.6,33.6
30.5,745.5,753.8,868.1,765.9,783.3,57.1
31.0,746.4,774.7,831.5,750.8,775.9,39.1
31.5,751.3,809.0,857.6,765.8,795.9,47.8
32.0,745.8,817.1,800.6,794.3,789.4,30.6
32.5,765.4,761.1,856.2,771.1,788.5,45.3
33.0,766.1,818.0,865.0,800.5,812.4,41.2
33.5,750.5,782.0,804.0,811.6,787.0,27.4
34.0,767.7,775.6,838.2,777.5,789.7,32.6
34.5,792.2,786.7,869.6,838.1,821.6,39.4
35.0,785.3,799.9,807.3,809.4,800.5,10.9
35.5,773.4,778.0,871.8,785.3,802.1,46.7
36.0,822.5,796.1,808.4,832.1,814.8,15.8
36.5,802.1,829.9,905.9,850.8,847.2,43.9
37.0,809.0,812.0,856.8,830.3,827.0,22.0
37.5,801.7,793.4,852.5,852.6,825.1,31.9
38.0,789.5,845.5,832.0,853.8,830.2,28.6
38.5,790.6,791.1,829.5,833.6,811.2,23.5
39.0,817.8,825.6,864.4,799.2,826.7,27.4
39.5,808.3,844.9,867.6,835.0,838.9,24.5
40.0,823.3,826.5,869.2,853.8,843.2,22.1
40.5,872.2,816.7,816.6,834.7,835.0,26.2
41.0,781.1,822.3,842.5,858.1,826.0,33.3
41.5,851.0,808.7,878.2,889.4,856.8,35.9
42.0,816.8,837.6,877.6,869.8,850.5,28.3
42.5,857.8,812.2,847.3,890.0,851.8,32.1
43.0,805.3,813.5,854.7,875.7,837.3,33.5
43.5,845.3,837.9,886.4,870.5,860.0,22.4
44.0,855.4,818.1,841.5,859.2,843.5,18.6
44.5,861.5,786.9,897.3,907.5,863.3,54.6
45.0,872.2,807.5,881.6,916.5,869.5,45.5
45.5,898.6,828.5,904.1,919.0,887.6,40.3
46.0,876.0,813.0,880.7,839.0,852.2,32.1
46.5,847.1,821.7,863.1,950.4,870.6,55.9
47.0,884.0,842.2,889.8,918.1,883.5,31.3
47.5,893.8,795.7,906.1,907.1,875.7,53.7
48.0,877.6,807.9,851.1,886.7,855.8,35.3
48.5,892.0,866.5,913.5,889.1,890.3,19.2
49.0,887.9,800.9,903.2,984.3,894.1,75.1
49.5,936.7,856.6,894.7,914.3,900.5,34.0
50.0,909.4,855.7,902.4,878.3,886.4,24.4
50.5,875.0,830.5,898.1,883.4,871.7,29.1
51.0,864.0,833.7,947.7,882.7,882.0,48.2
51.5,867.8,829.6,955.9,855.4,877.2,54.9
52.0,875.5,803.4,868.1,888.5,858.9,37.9
52.5,831.3,851.8,926.9,866.9,869.2,41.1
53.0,846.5,862.6,926.4,898.8,883.6,36.0
53.5,853.1,847.8,900.4,858.9,865.1,24.0
54.0,830.1,884.1,947.4,890.0,887.9,48.0
54.5,860.0,835.9,878.8,846.3,855.2,18.6
55.0,852.1,839.1,891.3,870.4,863.2,22.7
55.5,826.6,875.7,947.8,853.6,875.9,51.9
56.0,809.6,828.2,929.6,843.0,852.6,53.1
56.5,838.6,844.7,925.3,840.1,862.2,42.2
57.0,809.1,823.8,891.8,833.0,839.4,36.3
57.5,787.2,902.6,912.2,836.1,859.5,58.9
58.0,780.0,839.9,881.6,829.7,832.8,41.7
58.5,820.1,874.4,949.9,863.4,876.9,54.0
59.0,770.6,854.1,974.5,826.7,856.5,86.0
59.5,774.7,837.9,918.8,829.9,840.3,59.4
60.0,814.3,828.2,935.3,866.6,861.1,54.2
60.5,830.1,793.7,923.5,859.7,851.8,54.9
61.0,847.7,846.2,871.2,825.1,847.5,18.8
61.5,780.2,859.3,884.6,794.1,829.6,50.4
62.0,805.6,850.1,892.2,847.6,848.9,35.4
62.5,759.4,831.7,883.9,818.0,823.2,51.2
63.0,793.6,819.9,876.6,831.6,830.4,34.6
63.5,805.4,829.9,874.2,866.6,844.0,32.2
64.0,786.9,834.1,839.7,891.7,838.1,42.9
64.5,745.1,845.2,858.4,821.3,817.5,50.7
65.0,774.6,858.9,860.1,865.9,839.9,43.6
65.5,740.8,823.5,873.2,829.9,816.9,55.3
66.0,814.9,840.4,844.4,855.8,838.9,17.2
66.5,794.9,769.2,866.7,851.6,820.6,46.1
67.0,759.1,836.1,849.1,853.5,824.5,44.2
67.5,779.7,787.4,841.0,835.8,811.0,31.9
68.0,784.1,774.7,863.7,908.4,832.7,64.3
68.5,823.8,773.5,833.5,897.3,832.0,50.9
69.0,827.2,769.6,809.9,921.9,832.1,64.5
69.5,811.5,756.8,776.3,840.4,796.2,37.1
70.0,836.6,759.1,830.8,917.3,835.9,64.7
70.5,851.3,773.3,846.2,878.6,837.3,45.0
71.0,863.8,764.3,787.0,909.2,831.1,67.3
71.5,878.0,784.0,791.4,935.4,847.2,72.7
72.0,891.4,774.3,766.5,927.3,839.9,81.6
72.5,869.8,743.7,796.8,940.1,837.6,85.7
73.0,906.4,781.8,807.2,899.7,848.8,63.6
73.5,899.8,790.6,759.9,970.2,855.1,97.4
74.0,932.4,824.3,753.2,976.2,871.5,101.5
74.5,946.3,774.4,823.8,991.4,884.0,101.7
75.0,1021.1,788.1,824.0,965.2,899.6,111.4
75.5,1027.8,802.9,789.6,1022.8,910.8,132.3
76.0,1025.9,849.3,793.6,1011.8,920.2,116.3
76.5,1063.8,844.8,825.0,994.4,932.0,115.9
77.0,1094.7,850.8,819.7,1052.5,954.4,139.3
77.5,1100.7,863.5,849.6,1057.2,967.7,129.7
78.0,1121.3,931.1,855.7,1040.8,987.2,117.3
78.5,1137.3,888.5,896.3,1060.3,995.6,123.3
79.0,1138.3,913.7,887.9,1052.5,998.1,118.2
79.5,1168.7,935.2,877.3,1076.4,1014.4,132.6
80.0,1195.8,907.3,912.6,1090.2,1026.5,141.3
80.5,1173.8,964.0,957.1,1100.8,1048.9,106.3
81.0,1178.6,958.7,983.3,1087.7,1052.0,101.2
81.5,1177.6,956.7,983.3,1080.3,1049.5,100.6
82.0,1154.1,984.9,1016.6,1088.9,1061.1,75.7
82.5,1128.4,1017.5,1019.9,1054.7,1055.1,51.7
83.0,1098.3,1014.9,1054.1,1034.0,1050.3,35.7
83.5,1087.5,1029.8,1087.5,1017.7,1055.6,37.1
84.0,1040.2,1019.6,1106.6,986.4,1038.2,50.7
84.5,1011.8,1049.5,1124.1,938.9,1031.1,77.2
85.0,996.0,1031.4,1132.9,916.5,1019.2,89.8
85.5,946.2,1054.4,1148.6,,1049.7,101.3
86.0,921.7,1031.4,1150.4,,1034.5,114.4
86.5,878.3,1051.0,1196.8,,1042.0,159.5
87.0,848.4,1010.0,1202.4,,1020.3,177.2
87.5,788.4,1011.5,1231.3,,1010.4,221.4
88.0,748.2,1000.3,1206.5,,985.0,229.5