File: 01_Data/Latex_Pillow_Foam/Cone/Latex_Pillow_Foam_Cone_HF25Scalar_230613_R1.csv
LABORATORY,FSRI
TEST IDENT,LPC_HF25_R1
OPERATOR,Marino
MATERIAL,Latex Pillow Core
ORIENTATION,Horizontal
HEAT FLUX,25
SURF AREA,0.01
C FACTOR,0.0398268
SPEC HOLDER DIFF,-566
SPECIMEN MASS,31.28
SCAN TIME,0.25
O2 DELAY TIME,11
CO DELAY TIME,11
CO2 DELAY TIME,8
FLOW FACTOR,1
SCAN COUNT,1448
TIME TO IGN,11
END OF TEST SCAN,968
END OF TEST TIME,242
TEST STATUS,1
PRE TEST CMT,Dimensions: 96.87 x 100.42 x 46.91 mm
POST TEST CMT,"Sample melted and shrank."