File: 01_Data/Latex_Pillow_Foam/Cone/Latex_Pillow_Foam_Cone_HF75Scalar_230628_R2.csv
LABORATORY,FSRI
TEST IDENT,LPC_HF75_R2
OPERATOR,Marino
MATERIAL,Engineered Wood Table
ORIENTATION,Horizontal
HEAT FLUX,75
SURF AREA,0.01
C FACTOR,0.0403601
SPEC HOLDER DIFF,-566
SPECIMEN MASS,19.92
SCAN TIME,0.25
O2 DELAY TIME,11
CO DELAY TIME,11
CO2 DELAY TIME,8
FLOW FACTOR,1
SCAN COUNT,745
TIME TO IGN,1.75
END OF TEST SCAN,265
END OF TEST TIME,66.25
TEST STATUS,1
PRE TEST CMT,Dimensions: 96.61 x 94.97 x 35.65 mm
POST TEST CMT, Sample melted and shrank.