File: 01_Data/Latex_Pillow_Foam/Cone/Latex_Pillow_Foam_Cone_HF75Scan_230628_R3.csv
Names,Time,Stack TC,Smoke TC,Exh Press,Smoke Comp,Smoke Meas,CO Meter,CO2 Meter,O2 Meter,Sample Mass,Ext Coeff,Start Test,Flame Verif
Chan Gain,,500,500,1,1,1,1,1,1,1,1,1.0,1.0
Offset,,0,0,0.13804,0,0,0,0,0,0,0,0.0,0.0
Gain,,1,1,25.011,12.9677,71.848,1,1,1,1.00091,0.969894,1.0,1.0
Units,sec,C,C,Pa,%,%,%,%,%,g,/m,,
Baseline,,65.9753,68.9884,153.294,99.8209,100.264,0.000830119,0.0416797,20.9356,-445.736,-0.0376074,,
8,1.75,62.6672,65.0383,145.759,100.283,83.5084,0.000673884,0.0422482,20.9349,67.5517,1.55735,0.0,1.0
16,3.75,64.5902,69.5262,121.983,100.256,46.0693,0.000697515,0.0420955,20.9349,67.1113,6.61554,0.0,1.0
24,5.75,69.2199,78.9568,108.51,100.191,38.8205,0.000722297,0.0422652,20.9349,66.5908,8.06656,0.0,1.0
32,7.75,75.3159,90.689,100.38,100.101,37.0159,0.000627598,0.0432479,20.9377,65.9002,8.4639,0.0,0.0
40,9.75,82.1933,101.269,100.918,100.033,32.1132,0.000753899,0.0699312,20.9374,65.2896,9.66688,0.0,0.0
48,11.75,88.8782,112.533,97.6173,99.9858,30.6398,0.00328498,0.246823,20.9295,64.7191,10.0625,0.0,0.0
56,13.75,95.2269,123.572,92.2981,100.025,30.631,0.010085,0.582236,20.7668,63.9384,10.0682,0.0,0.0
64,15.75,102.458,134.027,94.7054,100.061,29.6202,0.02221,0.929294,20.3688,63.3178,10.3568,0.0,0.0
72,17.75,107.97,144.22,93.3231,100.103,27.0088,0.0359405,1.2058,19.8268,62.6572,11.1456,0.0,0.0
80,19.75,114.501,152.522,87.1498,100.137,26.6229,0.0491426,1.44069,19.2632,62.0167,11.2709,0.0,0.0
88,21.75,120.279,162.643,86.1842,100.19,30.0653,0.0614035,1.61913,18.8132,61.346,10.2409,0.0,0.0
96,23.75,125.902,170.629,84.7187,100.222,30.4534,0.0726057,1.75906,18.4219,60.5653,10.1344,0.0,0.0
104,25.75,131.629,179.024,99.0294,100.248,29.6947,0.0824534,1.87546,18.121,60.0148,10.3513,0.0,0.0
112,27.75,137.409,186.897,92.479,100.284,27.7104,0.0909123,1.95588,17.8911,59.1941,10.9428,0.0,0.0
120,29.75,142.501,193.335,100.767,100.336,25.1385,0.0983785,2.03092,17.7275,58.5435,11.7759,0.0,0.0
128,31.75,146.29,198.374,84.9027,100.373,27.3136,0.105719,2.09734,17.6011,57.7728,11.073,0.0,0.0
136,33.75,150.886,204.982,81.1619,100.408,22.9064,0.112186,2.14551,17.4471,57.1622,12.5731,0.0,0.0
144,35.75,155.756,210.587,87.4062,100.44,25.919,0.116754,2.1784,17.3417,56.4616,11.5246,0.0,0.0
152,37.75,159.45,215.807,102.93,100.483,23.7615,0.118938,2.19779,17.2659,55.811,12.2676,0.0,0.0
160,39.75,163.459,220.987,80.6192,100.53,25.9804,0.119254,2.21638,17.2194,55.0303,11.5121,0.0,0.0
168,41.75,167.479,226.16,86.1926,100.586,22.6849,0.119654,2.24402,17.1912,54.3396,12.6708,0.0,0.0
176,43.75,170.765,229.913,72.143,100.604,23.7834,0.121077,2.25812,17.153,53.589,12.27,0.0,0.0
184,45.75,175.101,235.769,84.3768,100.649,22.948,0.122824,2.27187,17.1068,52.8783,12.578,0.0,0.0
192,47.75,178.785,241.286,84.1699,100.684,18.7798,0.124799,2.29694,17.0831,52.1877,14.2864,0.0,0.0
200,49.75,182.401,245.016,87.352,100.71,22.3341,0.127428,2.31418,17.0465,51.3869,12.8139,0.0,0.0
208,51.75,184.419,247.348,95.371,100.738,26.5242,0.129672,2.34661,17.0059,50.7564,11.3534,0.0,0.0
216,53.75,186.122,247.515,99.8644,100.799,25.3314,0.132772,2.4371,16.9793,50.2159,11.75,0.0,0.0
224,55.75,186.949,245.102,97.9035,100.838,24.0707,0.136467,2.51549,16.8838,49.6353,12.1877,0.0,0.0
232,57.75,186.381,241.94,111.163,100.86,28.9229,0.139198,2.53167,16.7434,49.275,10.6272,0.0,0.0
240,59.75,184.408,234.853,120.184,100.876,37.5378,0.138347,2.47357,16.6729,49.0248,8.41037,0.0,0.0
248,61.75,180.579,225.996,130.321,100.908,68.5898,0.133402,2.3477,16.6793,48.9347,3.28458,0.0,0.0
256,63.75,175.566,216.606,139.051,100.915,90.7967,0.123667,2.16531,16.7821,48.9347,0.898872,0.0,0.0
264,65.75,170.417,206.277,144.377,100.896,99.0124,0.113014,1.91228,17.0086,48.8947,0.160295,0.0,0.0
272,67.75,165.686,197.478,143.613,100.919,99.133,0.100692,1.60063,17.3473,48.8847,0.151874,0.0,0.0
280,69.75,160.476,188.602,141.182,100.89,98.6485,0.0859185,1.27489,17.7637,48.8947,0.191162,0.0,0.0
288,71.75,156.258,180.591,147.676,100.889,99.4992,0.0661152,0.91753,18.3044,48.8646,0.118038,0.0,0.0
296,73.75,152.27,173.859,143.373,100.863,99.3918,0.0469703,0.635126,18.8978,48.8146,0.124994,0.0,0.0
304,75.75,148.124,167.581,144.487,100.86,100.861,0.0335237,0.434504,19.4729,48.7846,-0.00010345,0.0,0.0
312,77.75,144.55,162.088,145.939,100.819,99.4071,0.0249539,0.306572,19.9406,48.7145,0.119973,0.0,0.0
320,79.75,141.561,156.658,144.433,100.777,101.058,0.0204939,0.228878,20.2878,48.7145,-0.0236798,0.0,0.0
328,81.75,138.37,151.468,147.764,100.727,99.6834,0.0175299,0.179284,20.5137,48.7145,0.0886103,0.0,0.0
336,83.75,134.819,147.663,146.23,100.654,100.111,0.0152491,0.147298,20.6454,48.7345,0.0460442,0.0,0.0
344,85.75,132.538,143.812,150.054,100.611,99.7557,0.012942,0.124911,20.7273,48.7045,0.0726042,0.0,0.0
352,87.75,130.136,139.922,147.626,100.542,99.2931,0.0109165,0.108107,20.7855,48.6645,0.106328,0.0,0.0
360,89.75,127.773,136.206,143.149,100.484,100.172,0.00925901,0.0958678,20.8225,48.7045,0.0263985,0.0,0.0
368,91.75,124.81,133.229,143.857,100.397,100.26,0.00792627,0.0854665,20.8465,48.7045,0.0115785,0.0,0.0
376,93.75,122.945,130.618,144.897,100.34,98.5498,0.00651482,0.0764475,20.8644,48.7445,0.153195,0.0,0.0
384,95.75,120.976,127.736,145.562,100.294,100.449,0.005237,0.0689743,20.8805,48.7646,-0.013065,0.0,0.0
392,97.75,119.294,125.011,149.032,100.22,99.69,0.00425897,0.0632967,20.8906,48.7946,0.0451555,0.0,0.0
400,99.75,116.83,122.758,144.911,100.165,100.078,0.00344844,0.0580217,20.8982,48.7445,0.00742689,0.0,0.0
408,101.75,114.685,120.492,150.483,100.071,99.6242,0.00276502,0.054175,20.9071,48.7445,0.0380624,0.0,0.0
416,103.75,113.719,118.419,144.184,99.9981,99.6286,0.00230131,0.0515596,20.9135,48.7445,0.0314948,0.0,0.0
424,105.75,111.867,115.988,151.307,99.9102,99.3655,0.00196873,0.0495217,20.9186,48.7345,0.0465163,0.0,0.0
432,107.75,110.348,114.517,144.84,99.8326,99.0695,0.00169718,0.0480604,20.9227,48.7646,0.0652904,0.0,0.0
440,109.75,109.315,112.348,148.307,99.7408,99.4203,0.00140624,0.0471412,20.9263,48.7245,0.0273883,0.0,0.0
448,111.75,107.214,110.665,143.529,99.6463,98.2341,0.00109112,0.0462579,20.9284,48.7145,0.121436,0.0,0.0
456,113.75,106.177,109.449,144.566,99.5461,99.0278,0.000872311,0.0456117,20.9303,48.7245,0.044416,0.0,0.0
464,115.75,104.654,108.386,145.231,99.4753,99.0344,0.000830804,0.0451157,20.9313,48.7746,0.0377948,0.0,0.0
472,117.75,103.823,106.504,146.936,99.4183,99.133,0.000841173,0.0447142,20.9318,48.7445,0.024448,0.0,0.0
480,119.75,102.666,105.498,148.048,99.3783,98.2143,0.000859293,0.044424,20.932,48.7746,0.10024,0.0,0.0
488,121.75,101.662,104.231,145.104,99.3099,99.3786,0.00091048,0.0441895,20.9318,48.6545,-0.00588701,0.0,0.0
496,123.75,100.775,102.818,149.986,99.2307,98.8063,0.000903192,0.0440651,20.9301,48.7145,0.0364649,0.0,0.0
504,125.75,99.7311,102.066,148.343,99.2078,98.7713,0.000833831,0.0438803,20.9294,48.7946,0.0375171,0.0,0.0
512,127.75,98.7654,100.978,153.907,99.1591,98.2012,0.000837363,0.0437905,20.9291,48.7445,0.0825889,0.0,0.0
520,129.75,97.7476,99.9312,146.929,99.129,98.4687,0.000944008,0.0438155,20.929,48.7145,0.0568641,0.0,0.0
528,131.75,97.1342,98.6829,144.175,99.1116,98.6814,0.000990674,0.0436707,20.9289,48.7245,0.0370132,0.0,0.0
536,133.75,96.142,98.1792,145.679,99.0958,98.8239,0.000946347,0.0435716,20.9299,48.7045,0.0233759,0.0,0.0
544,135.75,95.341,97.9431,143.8,99.0867,98.3985,0.00091256,0.0434461,20.9306,48.7145,0.0592948,0.0,0.0
552,137.75,94.4887,96.7567,145.583,99.1061,98.7055,0.000925328,0.0432758,20.931,48.7545,0.034459,0.0,0.0
560,139.75,94.2983,96.2656,148.775,99.1136,98.267,0.0010123,0.0432247,20.9311,48.7445,0.0729863,0.0,0.0
568,141.75,93.4602,95.0215,145.188,99.1322,97.3132,0.00104955,0.0432306,20.9312,48.7345,0.157565,0.0,0.0
576,143.75,93.0229,94.9658,146.308,99.19,98.3305,0.000991726,0.0432665,20.9306,48.6945,0.074037,0.0,0.0
584,145.75,91.7455,94.0719,145.524,99.2375,98.6901,0.000901618,0.0433284,20.9316,48.7445,0.0470539,0.0,0.0
592,147.75,91.7561,93.249,147.81,99.2956,98.381,0.000706218,0.0433711,20.9323,48.6545,0.0787331,0.0,0.0
600,149.75,91.1862,92.917,148.252,99.3265,98.2121,0.000449679,0.0431862,20.9327,48.6244,0.0959903,0.0,0.0
608,151.75,90.4339,92.4998,149.662,99.3882,98.2406,0.000254207,0.0430835,20.9328,48.6845,0.0988078,0.0,0.0
616,153.75,90.1234,91.6198,148.542,99.4488,98.9489,0.000164963,0.0430302,20.9329,48.6144,0.0428762,0.0,0.0
624,155.75,90.0247,90.8942,147.266,99.4986,98.6704,0.000248888,0.0429444,20.9329,48.5944,0.0711178,0.0,0.0
632,157.75,89.4321,91.4046,146.79,99.539,98.5432,0.000424134,0.0428236,20.9329,48.6444,0.0855414,0.0,0.0
640,159.75,89.1679,90.3519,148.213,99.5968,97.9863,0.000563031,0.0427608,20.9329,48.6144,0.138697,0.0,0.0
648,161.75,87.9877,90.3768,147.643,99.6261,99.6812,0.000694656,0.0426915,20.9329,48.6344,-0.00470624,0.0,0.0
656,163.75,88.1866,89.872,145.746,99.7056,99.1374,0.000816499,0.0426897,20.9332,48.6344,0.0486232,0.0,0.0
664,165.75,88.1344,89.8418,145.16,99.7468,98.7515,0.000848496,0.0426446,20.9335,48.6444,0.0853165,0.0,0.0
672,167.75,87.0487,89.3122,147.513,99.8089,99.7579,0.000893266,0.04251,20.9332,48.7145,0.00434581,0.0,0.0
680,169.75,86.0027,88.949,147.059,99.892,98.3415,0.000954004,0.0424446,20.9309,48.7045,0.133093,0.0,0.0
688,171.75,86.563,88.8313,146.446,99.9526,98.951,0.000962438,0.0424601,20.9309,48.7045,0.0856769,0.0,0.0
696,173.75,86.0878,88.4168,146.146,100.017,99.0651,0.000892221,0.0424758,20.9311,48.6344,0.0813695,0.0,0.0
704,175.75,86.1739,88.0045,150.619,100.069,99.4225,0.000826497,0.0425097,20.9309,48.6344,0.0551392,0.0,0.0
712,177.75,85.505,88.2505,149.335,100.124,99.4751,0.000764956,0.0422828,20.9308,48.6845,0.0553125,0.0,0.0
720,179.75,85.905,87.111,145.582,100.159,99.6001,0.000663999,0.0421809,20.9307,48.6645,0.0475885,0.0,0.0
728,181.75,85.5473,87.1564,147.607,100.209,99.8128,0.000652119,0.0422952,20.9307,48.6444,0.0337418,0.0,0.0
736,183.75,85.2411,86.8975,145.227,100.207,98.8809,0.000803857,0.0423048,20.9303,48.6645,0.113311,0.0,0.0
744,185.75,84.6451,87.177,147.756,100.235,98.9489,0.000982314,0.0424159,20.9297,48.6545,0.109883,0.0,0.0
752,187.75,84.673,86.8034,146.023,100.268,100.199,0.00108507,0.0422845,20.9294,48.7045,0.00588345,0.0,0.0
754,188.25,84.4498,86.8584,145.137,100.239,100.764,0.00109063,0.0422364,20.9294,48.6845,-0.0444329,0.0,0.0