File: 01_Data/Latex_Pillow_Foam/Cone/Latex_Pillow_Foam_Cone_HF75Scan_230630_R4.csv
Names,Time,Stack TC,Smoke TC,Exh Press,Smoke Comp,Smoke Meas,CO Meter,CO2 Meter,O2 Meter,Sample Mass,Ext Coeff,Start Test,Flame Verif
Chan Gain,,500,500,1,1,1,1,1,1,1,1,1.0,1.0
Offset,,0,0,0.13804,0,0,0,0,0,0,0,0.0,0.0
Gain,,1,1,25.011,13.0643,73.5858,1,1,1,1.00091,0.969894,1.0,1.0
Units,sec,C,C,Pa,%,%,%,%,%,g,/m,,
Baseline,,62.9857,66.1758,154.093,100.222,100.475,0.000912786,0.0417423,20.9315,-446.513,-0.0214514,,
9,2,61.8601,64.2102,138.29,100.674,81.7219,0.000650923,0.0418427,20.9336,67.0112,1.77447,0.0,1.0
18,4.25,64.1509,68.6113,109.772,100.696,54.1182,0.00069393,0.0419851,20.9329,66.4307,5.28284,0.0,1.0
27,6.5,68.4256,78.2441,111.305,100.72,43.6781,0.000718447,0.0420343,20.9326,65.9803,7.10829,0.0,0.0
36,8.75,74.6108,89.0257,103.903,100.727,35.2951,0.000784237,0.0448002,20.9319,65.2596,8.92192,0.0,0.0
45,11,81.9103,100.901,104.711,100.726,36.1933,0.00176626,0.122283,20.9255,64.6491,8.70803,0.0,0.0
54,13.25,89.4108,113.81,103.917,100.771,34.8414,0.00647166,0.355073,20.8975,63.8684,9.03567,0.0,0.0
63,15.5,97.0065,126.288,100.147,100.783,32.0389,0.0166213,0.678678,20.5934,63.1577,9.75013,0.0,0.0
72,17.75,104.373,137.77,89.5724,100.778,30.1121,0.0311487,1.00231,20.0615,62.4871,10.2774,0.0,0.0
81,20,111.319,148.499,91.6836,100.811,30.5455,0.0473429,1.28609,19.5557,61.6964,10.1587,0.0,0.0
90,22.25,117.858,157.495,104.888,100.839,31.9378,0.0611265,1.54561,19.0323,60.9357,9.78176,0.0,0.0
99,24.5,123.797,166.541,93.9223,100.832,30.9228,0.0729147,1.72664,18.5271,60.235,10.0559,0.0,0.0
108,26.75,128.948,173.451,102.422,100.852,27.9226,0.0827157,1.84934,18.2192,59.4743,10.9259,0.0,0.0
117,29,135.456,181.883,90.8967,100.862,25.7218,0.090586,1.93246,17.9622,58.6436,11.6253,0.0,0.0
126,31.25,141.014,189.577,102.25,100.901,25.2435,0.0956248,1.98248,17.7453,57.8829,11.7882,0.0,0.0
135,33.5,145.91,196.438,87.6467,100.887,26.0362,0.0989577,2.0139,17.623,57.0721,11.524,0.0,0.0
144,35.75,150.886,203.42,89.6938,100.931,29.6607,0.102039,2.06061,17.5432,56.3014,10.4188,0.0,0.0
153,38,155.839,208.814,96.7342,100.965,25.5938,0.105131,2.12945,17.4684,55.5107,11.6764,0.0,0.0
162,40.25,159.098,214.398,85.7522,100.983,25.2098,0.108289,2.1935,17.3744,54.6199,11.8065,0.0,0.0
171,42.5,163.878,219.867,102.418,101.01,24.7315,0.111793,2.24405,17.2677,53.8692,11.9718,0.0,0.0
180,44.75,167.847,224.701,86.2247,101.031,23.3234,0.115291,2.27795,17.1585,53.1486,12.4722,0.0,0.0
189,47,170.353,228.281,94.4322,101.034,24.206,0.117839,2.27634,17.0902,52.4179,12.1565,0.0,0.0
198,49.25,173.093,229.377,92.9987,101.077,24.8101,0.119712,2.28754,17.0559,51.7172,11.9504,0.0,0.0
207,51.5,175.587,231.769,101.983,101.123,28.1494,0.123378,2.30745,17.0376,51.1968,10.8799,0.0,0.0
216,53.75,177.665,233.904,93.9322,101.115,25.605,0.127787,2.29704,17.0057,50.4861,11.6853,0.0,0.0
225,56,178.462,232.442,102.12,101.137,22.9776,0.12808,2.23461,16.9902,49.8455,12.6083,0.0,0.0
234,58.25,179.344,230.317,109.979,101.153,27.6553,0.122906,2.15611,17.0507,49.3251,11.0331,0.0,0.0
243,60.5,177.748,225.822,117.037,101.154,25.1447,0.116437,2.10924,17.176,48.8646,11.8429,0.0,0.0
252,62.75,175.049,218.702,125.261,101.175,37.4284,0.11157,2.03236,17.2587,48.6144,8.46034,0.0,0.0
261,65,171.142,209.953,135.759,101.201,59.8783,0.106843,1.89769,17.3512,48.4342,4.46483,0.0,0.0
270,67.25,167.098,201.613,138.314,101.194,76.9543,0.100865,1.71867,17.5131,48.3141,2.32966,0.0,0.0
279,69.5,162.149,192.456,137.269,101.201,87.482,0.0915922,1.45808,17.7509,48.214,1.23938,0.0,0.0
288,71.75,157.639,184.12,143.247,101.215,94.6165,0.0787824,1.21257,18.0958,48.204,0.573551,0.0,0.0
297,74,153.517,176.644,144.065,101.218,100.471,0.0641474,0.923558,18.4689,48.144,0.0630356,0.0,0.0
306,76.25,149.787,170.023,142.001,101.205,101.124,0.0469806,0.685484,18.9247,48.144,0.00673881,0.0,0.0
315,78.5,145.759,163.708,144.659,101.2,102.362,0.033168,0.49994,19.5109,48.104,-0.0971001,0.0,0.0
324,80.75,140.705,156.521,148.819,101.204,101.596,0.0237931,0.36873,19.9456,48.184,-0.0328788,0.0,0.0
333,83,137.84,151.083,141.795,101.196,101.989,0.0181781,0.28315,20.2038,48.0939,-0.0664285,0.0,0.0
342,85.25,133.901,146.217,147.962,101.188,101.677,0.0142784,0.215815,20.4291,48.0739,-0.0409861,0.0,0.0
351,87.5,131.496,142.232,147.157,101.179,102.851,0.0120119,0.170047,20.579,48.0739,-0.139436,0.0,0.0
360,89.75,128.3,137.972,145.567,101.207,101.45,0.0104511,0.138612,20.6852,48.0439,-0.0204117,0.0,0.0
369,92,125.498,133.806,148.641,101.191,101.446,0.00927594,0.115906,20.7579,48.0939,-0.0214096,0.0,0.0
378,94.25,123.137,130.329,145.153,101.176,101.34,0.00817091,0.0996426,20.8047,48.134,-0.0137933,0.0,0.0
387,96.5,120.863,126.975,145.653,101.165,102.139,0.00696752,0.0877849,20.8306,48.114,-0.0815853,0.0,0.0
396,98.75,118.59,124.777,147.781,101.159,103.226,0.00577233,0.0777041,20.8517,48.104,-0.172145,0.0,0.0
405,101,116.357,121.961,145.279,101.169,101.419,0.00483651,0.0703824,20.8696,48.0539,-0.0209256,0.0,0.0
414,103.25,114.341,118.954,153.033,101.175,101.677,0.00414834,0.0645132,20.8821,48.0939,-0.042126,0.0,0.0
423,105.5,112.109,116.975,147.365,101.125,101.874,0.00358226,0.0600154,20.8933,48.114,-0.0628047,0.0,0.0
432,107.75,110.71,114.407,150.085,101.123,101.591,0.00302305,0.0564747,20.9021,48.0739,-0.0393088,0.0,0.0
441,110,108.784,112.882,146.711,101.118,102.465,0.00240193,0.0534388,20.9089,48.0139,-0.112589,0.0,0.0
450,112.25,107.353,110.561,147.354,101.091,102.77,0.00197755,0.050949,20.9148,48.0739,-0.140159,0.0,0.0
459,114.5,105.793,108.769,144.714,101.067,101.542,0.00169042,0.0488813,20.9186,48.0039,-0.0399013,0.0,0.0
468,116.75,104.586,107.063,145.767,101.075,103.289,0.00146374,0.0472447,20.9214,48.0239,-0.18437,0.0,0.0
477,119,103.134,105.347,148.719,101.058,102.44,0.00125845,0.046156,20.9217,47.9538,-0.115571,0.0,0.0
486,121.25,101.502,104.427,147.418,101.04,102.112,0.00115728,0.0452361,20.9224,48.0139,-0.0898078,0.0,0.0
495,123.5,100.906,103.187,146.305,101.032,102.988,0.00103295,0.0447633,20.9227,48.0039,-0.16314,0.0,0.0
504,125.75,100.066,102.353,150.017,100.998,102.227,0.000882233,0.044365,20.9241,48.0839,-0.102905,0.0,0.0
513,128,98.7806,100.539,143.66,100.977,102.353,0.000800534,0.043922,20.9256,48.0439,-0.115144,0.0,0.0
522,130.25,97.2266,99.7904,144.802,100.953,102.283,0.000763687,0.0437693,20.9268,48.0639,-0.111405,0.0,0.0
531,132.5,96.8174,98.7258,148.44,100.95,102.117,0.000699114,0.043615,20.9274,48.0239,-0.0978069,0.0,0.0
540,134.75,95.7144,98.1129,147.013,100.908,103.256,0.000533881,0.0433774,20.9275,48.0339,-0.195635,0.0,0.0
549,137,94.9965,97.2266,147.858,100.902,102.187,0.0003624,0.0432515,20.9276,48.0939,-0.107638,0.0,0.0
558,139.25,94.1254,96.328,152.438,100.902,103.044,0.00043232,0.043113,20.9276,48.0539,-0.178795,0.0,0.0
567,141.5,93.9049,95.4664,146.206,100.855,101.821,0.000656846,0.0430342,20.9278,48.0739,-0.0810406,0.0,0.0
576,143.75,92.9916,94.7252,146.91,100.83,102.708,0.000830172,0.0428172,20.9287,48.0839,-0.156957,0.0,0.0
585,146,92.272,94.2789,148.5,100.818,102.205,0.000834926,0.0427403,20.9291,48.104,-0.116196,0.0,0.0
594,148.25,91.6986,93.6104,148.821,100.779,102.178,0.000727009,0.0426852,20.9292,48.114,-0.11725,0.0,0.0
603,150.5,90.6125,92.6923,148.261,100.747,101.908,0.000634789,0.0426429,20.9293,48.0639,-0.097475,0.0,0.0
612,152.75,90.3659,92.6176,148.67,100.709,102.452,0.000506607,0.0425332,20.9293,48.0339,-0.145991,0.0,0.0
621,155,89.7012,91.5862,147.942,100.707,102.447,0.000397009,0.0424759,20.9304,48.0839,-0.145787,0.0,0.0
630,157.25,88.8805,91.0583,146.424,100.664,101.439,0.000312929,0.0423666,20.9308,48.0639,-0.0652408,0.0,0.0
639,159.5,88.2616,90.3254,150.915,100.628,101.522,0.000321266,0.0422978,20.9308,48.0139,-0.07524,0.0,0.0
648,161.75,88.5743,89.6253,146.765,100.595,101.711,0.000367758,0.0422759,20.9308,48.0339,-0.0938657,0.0,0.0
657,164,87.3212,89.3827,148.48,100.557,102.252,0.000462759,0.042114,20.9308,48.0339,-0.142219,0.0,0.0
666,166.25,87.0933,88.7713,151.837,100.542,100.419,0.000618179,0.0421437,20.9292,48.0139,0.0103843,0.0,0.0
675,168.5,86.5168,89.0024,147.301,100.521,102.045,0.000728873,0.0420631,20.9286,48.0539,-0.128048,0.0,0.0
684,170.75,86.4211,88.4186,146.604,100.496,102.227,0.000828666,0.0421367,20.9283,48.0839,-0.145259,0.0,0.0
693,173,86.0961,88.1762,146.744,100.478,101.668,0.000959054,0.04204,20.9282,48.0239,-0.100147,0.0,0.0
702,175.25,85.4237,87.9795,150.597,100.459,101.122,0.000981943,0.0419878,20.9282,48.0039,-0.0559797,0.0,0.0
711,177.5,85.5654,87.1754,149.728,100.432,101.369,0.000900953,0.0419233,20.9296,48.104,-0.0789992,0.0,0.0
720,179.75,84.7347,87.2222,145.951,100.489,101.425,0.000839151,0.0419861,20.9295,48.0839,-0.0788824,0.0,0.0
729,182,84.5267,86.3199,147.107,100.572,101.722,0.000688248,0.041826,20.9287,47.9738,-0.0967262,0.0,0.0
738,184.25,84.3777,86.405,147.263,100.639,101.371,0.000513475,0.0417535,20.9284,48.0339,-0.0617115,0.0,0.0
747,186.5,84.3337,86.1064,148.005,100.671,101.138,0.000472257,0.0416506,20.9283,47.9939,-0.0393577,0.0,0.0
756,188.75,83.7195,85.6842,149.725,100.725,101.567,0.000519906,0.0417296,20.9279,48.0439,-0.070782,0.0,0.0
765,191,84.1262,85.537,149.149,100.785,101.497,0.000488801,0.0416461,20.9275,48.0139,-0.0599326,0.0,0.0
774,193.25,83.3885,85.8893,146.411,100.833,100.969,0.000466566,0.0416358,20.9284,48.0439,-0.011476,0.0,0.0
783,195.5,83.4297,85.1989,146.352,100.88,102.038,0.000527933,0.0415901,20.9291,48.0039,-0.0971714,0.0,0.0
792,197.75,83.1147,85.3156,147.015,100.914,101.614,0.000528823,0.0416566,20.9295,48.0539,-0.0587846,0.0,0.0
800,199.75,82.7766,84.6966,146.529,100.968,102.05,0.00043058,0.0416821,20.9296,48.0139,-0.0906125,0.0,0.0