File: 01_Data/Latex_Pillow_Foam/Cone/Latex_Pillow_Foam_Cone_HF25Scan_230628_R4.csv
Names,Time,Stack TC,Smoke TC,Exh Press,Smoke Comp,Smoke Meas,CO Meter,CO2 Meter,O2 Meter,Sample Mass,Ext Coeff,Start Test,Flame Verif
Chan Gain,,500,500,1,1,1,1,1,1,1,1,1.0,1.0
Offset,,0,0,0.13804,0,0,0,0,0,0,0,0.0,0.0
Gain,,1,1,25.011,12.9078,45.9244,1,1,1,1.00091,0.969894,1.0,1.0
Units,sec,C,C,Pa,%,%,%,%,%,g,/m,,
Baseline,,47.0717,47.7514,159.068,99.959,100.021,0.0012577,0.0479734,20.9332,-443.344,-0.00524259,,
12,2.75,43.6413,43.839,157.099,99.7994,99.2136,0.00119812,0.0498187,20.9325,70.6545,0.0500853,0.0,0.0
24,5.75,43.7686,44.2781,158.966,99.8462,95.8542,0.00110691,0.0514216,20.9324,70.7046,0.347148,0.0,0.0
36,8.75,43.7872,44.879,159.72,99.89,96.5199,0.00129697,0.054114,20.9297,70.6245,0.29199,0.0,0.0
48,11.75,44.2583,45.4575,150.868,99.9238,80.7726,0.00141182,0.0555632,20.9257,70.5244,1.81021,0.0,1.0
60,14.75,46.9835,51.1958,134.608,99.9522,65.237,0.00146114,0.0554379,20.9229,69.9339,3.63,0.0,1.0
72,17.75,50.9906,58.8904,139.455,99.9825,61.2091,0.00179326,0.0561473,20.9192,69.5535,4.17479,0.0,0.0
84,20.75,55.2654,65.0639,137.212,100.003,59.0942,0.00284419,0.150018,20.9093,69.0831,4.47569,0.0,0.0
96,23.75,59.0486,70.2533,141.787,100.031,61.7865,0.00804299,0.349034,20.7161,68.7128,4.09903,0.0,0.0
108,26.75,62.2355,74.7946,131.801,100.031,54.3221,0.0154438,0.489798,20.3925,68.2724,5.19448,0.0,0.0
120,29.75,65.1386,78.614,137.45,100.04,53.784,0.0211952,0.569219,20.1918,67.872,5.27993,0.0,0.0
132,32.75,67.9814,82.3916,124.387,100.051,52.4007,0.0254927,0.610992,20.0358,67.3916,5.50258,0.0,0.0
144,35.75,70.8679,85.9806,125.944,100.025,59.5063,0.0283276,0.624612,19.9598,66.8911,4.41849,0.0,0.0
156,38.75,73.522,90.5481,120.941,99.9877,56.273,0.0306175,0.64236,19.9267,66.4307,4.89057,0.0,0.0
168,41.75,77.2329,94.3175,125.79,99.9561,56.5225,0.0326928,0.666188,19.8889,65.9102,4.85026,0.0,0.0
180,44.75,79.5965,97.2565,127.91,99.9101,56.3445,0.0332802,0.70295,19.8435,65.4598,4.87317,0.0,0.0
192,47.75,82.6211,100.972,123.927,99.8529,58.7158,0.0332537,0.732389,19.7888,64.8893,4.51757,0.0,0.0
204,50.75,85.4183,104.827,126.532,99.799,57.1602,0.034309,0.746792,19.7465,64.3788,4.74142,0.0,0.0
216,53.75,87.9692,107.597,124.481,99.7493,57.589,0.0358262,0.781265,19.7271,63.9084,4.6736,0.0,0.0
228,56.75,90.1283,109.316,122.15,99.6788,52.8828,0.0375262,0.814286,19.664,63.3279,5.39291,0.0,0.0
240,59.75,91.5365,111.367,126.345,99.5894,53.5835,0.0379155,0.830225,19.6093,62.9075,5.27328,0.0,0.0
252,62.75,94.1614,114.045,122.122,99.5106,52.4694,0.038023,0.823787,19.5879,62.397,5.44532,0.0,0.0
264,65.75,95.5668,115.736,117.585,99.411,52.1694,0.0381811,0.820758,19.5956,61.9166,5.48556,0.0,0.0
276,68.75,96.8834,116.594,127.938,99.3531,52.7034,0.0382222,0.837361,19.5959,61.326,5.39397,0.0,0.0
288,71.75,98.5936,118.323,117.821,99.279,52.6516,0.0374957,0.852035,19.5696,60.8956,5.396,0.0,0.0
300,74.75,101.004,121.187,117.204,99.214,49.8598,0.0367827,0.840443,19.5513,60.3451,5.85395,0.0,0.0
312,77.75,102.752,122.763,120.647,99.101,47.9874,0.0377841,0.837189,19.5624,59.7646,6.1699,0.0,0.0
324,80.75,104.918,125.946,119.282,99.0332,49.1282,0.0398911,0.874001,19.5552,59.1841,5.96419,0.0,0.0
336,83.75,107.105,128.426,116.898,98.9729,49.1366,0.0413381,0.889522,19.5013,58.6636,5.95755,0.0,0.0
348,86.75,109.439,130.871,120.983,98.9048,43.1788,0.0426182,0.906778,19.4748,58.1131,7.05136,0.0,0.0
360,89.75,111.418,133.608,110.111,98.8626,44.5481,0.0446254,0.954618,19.4391,57.5025,6.78213,0.0,0.0
372,92.75,113.335,137.182,117.057,98.8197,46.9292,0.0466384,0.983665,19.3562,56.922,6.33542,0.0,0.0
384,95.75,116.689,140.814,110.251,98.7835,41.9805,0.0483785,1.00964,19.307,56.3114,7.28037,0.0,0.0
396,98.75,118.853,143.058,120.365,98.7685,42.7317,0.0504137,1.05045,19.266,55.6408,7.12818,0.0,0.0
408,101.75,120.314,145.916,119.016,98.7488,40.4501,0.0520302,1.10286,19.1895,55.1104,7.59334,0.0,0.0
420,104.75,122.65,147.905,110.622,98.7527,42.6476,0.0534407,1.12651,19.1109,54.5699,7.14358,0.0,0.0
432,107.75,124.326,148.958,117.488,98.7551,44.5186,0.0554586,1.13905,19.0685,53.9793,6.77849,0.0,0.0
444,110.75,124.473,149.123,114.615,98.759,47.63,0.0570381,1.146,19.0468,53.4688,6.20409,0.0,0.0
456,113.75,124.194,147.379,121.752,98.774,45.9314,0.0574496,1.12765,19.0297,52.9684,6.51434,0.0,0.0
468,116.75,123.927,145.449,129.647,98.8079,50.1134,0.0560111,1.08691,19.0544,52.558,5.77587,0.0,0.0
480,119.75,122.415,141.911,139.574,98.8422,52.1288,0.0529384,1.00526,19.1412,52.1677,5.44337,0.0,0.0
492,122.75,120.234,137.845,135.294,98.9068,51.25,0.0497679,0.917709,19.2587,51.8274,5.59357,0.0,0.0
504,125.75,118.138,133.406,131.124,98.9607,55.4419,0.0460837,0.814787,19.4076,51.427,4.92933,0.0,0.0
516,128.75,115.88,130.174,143.105,99.008,53.7699,0.041876,0.714955,19.5992,51.0867,5.19392,0.0,0.0
528,131.75,113.205,125.775,138.656,99.0691,61.3465,0.0386821,0.649972,19.7628,50.8965,4.07764,0.0,0.0
540,134.75,110.309,121.074,146.47,99.1368,87.1957,0.0356816,0.594509,19.8755,50.8064,1.09194,0.0,0.0
552,137.75,106.801,114.68,147.665,99.2243,94.1794,0.0330657,0.552868,19.9744,50.7464,0.443948,0.0,0.0
564,140.75,102.949,109.727,150.563,99.3137,97.5248,0.0300194,0.488514,20.0426,50.7464,0.154646,0.0,0.0
576,143.75,99.5651,104.171,157.256,99.4035,99.4238,0.0236994,0.37787,20.1556,50.7464,-0.00173955,0.0,0.0
588,146.75,96.1454,99.8045,158.324,99.5083,99.8863,0.0168025,0.282752,20.3269,50.7364,-0.0322609,0.0,0.0
600,149.75,93.3231,95.392,154.17,99.5867,99.6032,0.0124285,0.205968,20.5522,50.7063,-0.00141342,0.0,0.0
612,152.75,90.6397,91.6425,152.898,99.6887,100.181,0.0102445,0.159481,20.6829,50.7564,-0.0418814,0.0,0.0
624,155.75,87.5998,88.0202,155.287,99.7852,100.311,0.0090445,0.128081,20.7601,50.7364,-0.0447102,0.0,0.0
636,158.75,84.9524,85.5365,159.978,99.8754,100.851,0.00848985,0.10664,20.8145,50.7364,-0.0826637,0.0,0.0
648,161.75,83.1901,82.7821,158.167,99.9471,100.849,0.00796936,0.0925185,20.8487,50.7464,-0.0764414,0.0,0.0
660,164.75,81.4463,80.2253,153.46,100.027,100.422,0.00689202,0.0822003,20.8715,50.7564,-0.0334994,0.0,0.0
672,167.75,78.5407,77.8232,154.717,100.102,100.594,0.00552194,0.0740147,20.8848,50.7263,-0.041728,0.0,0.0
684,170.75,76.9762,75.7006,153.475,100.164,100.884,0.00424765,0.0667834,20.8959,50.7263,-0.0609745,0.0,0.0
696,173.75,75.4192,74.0105,153.636,100.223,101.044,0.0034809,0.061499,20.9062,50.7364,-0.0693867,0.0,0.0
708,176.75,74.165,72.5164,155.992,100.292,100.504,0.00291062,0.0574919,20.9139,50.7364,-0.0180158,0.0,0.0
720,179.75,72.5003,70.918,156.963,100.375,100.823,0.00268278,0.0549158,20.9195,50.7364,-0.0378565,0.0,0.0
732,182.75,70.9653,69.8371,155.37,100.407,100.723,0.00252073,0.0535091,20.9219,50.7263,-0.0267518,0.0,0.0
744,185.75,69.8016,68.1311,151.771,100.459,100.842,0.00242578,0.0523029,20.9236,50.7464,-0.0324039,0.0,0.0
756,188.75,68.7724,67.6794,157.693,100.515,100.737,0.00223461,0.0513373,20.9256,50.7163,-0.0187949,0.0,0.0
768,191.75,68.0354,66.501,155.115,100.58,100.569,0.00203432,0.0507528,20.926,50.7263,0.000954322,0.0,0.0
780,194.75,66.5451,65.842,157.862,100.61,100.605,0.00189014,0.050567,20.9259,50.7263,0.00037018,0.0,0.0
792,197.75,65.9845,64.2847,154.087,100.631,100.553,0.00188759,0.0501767,20.9259,50.7664,0.00658781,0.0,0.0
804,200.75,65.1836,63.5245,153.417,100.653,100.804,0.0019107,0.0499311,20.9267,50.7464,-0.012746,0.0,0.0
816,203.75,64.3634,63.2722,157.934,100.67,100.674,0.00187593,0.0497161,20.9278,50.7364,-0.000307312,0.0,0.0
828,206.75,64.235,62.7552,153.841,100.67,100.839,0.00193678,0.0495328,20.9281,50.7063,-0.0142718,0.0,0.0
840,209.75,63.2769,62.1607,156.39,100.657,100.465,0.00196638,0.0495476,20.9282,50.6963,0.0162261,0.0,0.0
852,212.75,63.1915,61.1523,155.017,100.673,100.434,0.00184096,0.0493703,20.9282,50.7063,0.0201701,0.0,0.0
864,215.75,61.9023,61.2217,150.672,100.627,100.111,0.00160288,0.0492129,20.929,50.7464,0.0438096,0.0,0.0
876,218.75,61.5835,60.7679,156.127,100.586,100.587,0.00143304,0.049041,20.9301,50.7263,-0.000121199,0.0,0.0
888,221.75,61.3856,59.893,160.446,100.551,100.755,0.00127059,0.0490304,20.9293,50.7364,-0.0173003,0.0,0.0
900,224.75,60.8806,60.0196,155.715,100.492,100.441,0.001367,0.0488484,20.9285,50.7263,0.0043154,0.0,0.0
912,227.75,60.0473,59.3145,154.558,100.426,100.569,0.00156083,0.0488964,20.9278,50.7163,-0.0120513,0.0,0.0
924,230.75,59.5147,58.8251,154.223,100.375,99.997,0.0016652,0.048996,20.9279,50.7364,0.0321203,0.0,0.0
936,233.75,59.152,58.6137,153.059,100.3,100.217,0.00180608,0.0489063,20.9282,50.6763,0.00707526,0.0,0.0
948,236.75,58.622,58.301,160.432,100.228,100.401,0.00176042,0.0489356,20.9278,50.7364,-0.0146147,0.0,0.0
960,239.75,58.9109,58.0828,155.654,100.115,100.012,0.00166848,0.0489599,20.9286,50.7364,0.00867826,0.0,0.0
972,242.75,59.1549,57.5916,158.459,100.052,100.032,0.00171037,0.0489148,20.9288,50.6863,0.00168444,0.0,0.0
984,245.75,58.064,57.6678,155.435,99.9959,99.7167,0.00174576,0.0488712,20.9289,50.7063,0.0237896,0.0,0.0
996,248.75,57.7212,56.9117,155.106,99.9026,100.154,0.00162297,0.048914,20.9294,50.7263,-0.0213842,0.0,0.0
1008,251.75,57.85,56.8078,156.125,99.8439,99.8415,0.0015629,0.048905,20.9297,50.7263,0.000206897,0.0,0.0
1020,254.75,57.242,56.5134,156.98,99.8187,99.5471,0.00162821,0.0488091,20.9297,50.6963,0.0231746,0.0,0.0
1032,257.75,56.7702,56.4666,164.383,99.8466,100.186,0.00151725,0.0488442,20.9294,50.7364,-0.0288871,0.0,0.0
1044,260.75,56.8161,55.6976,154.747,99.9439,100.025,0.00150578,0.0486818,20.9297,50.7464,-0.006903,0.0,0.0
1056,263.75,56.4449,55.9894,157.339,100.031,100.705,0.00165718,0.0487891,20.9301,50.7664,-0.0571487,0.0,0.0
1068,266.75,56.3372,55.7914,158.094,100.101,100.202,0.00157592,0.0487861,20.9302,50.7163,-0.00854092,0.0,0.0
1080,269.75,56.2102,55.6838,155.763,100.176,100.314,0.00133541,0.0487254,20.9308,50.7364,-0.0117299,0.0,0.0
1092,272.75,55.546,55.6919,157.623,100.2,100.719,0.001404,0.0487751,20.931,50.6963,-0.0439716,0.0,0.0
1104,275.75,55.5932,55.2412,157.647,100.228,100.513,0.00147705,0.0489292,20.931,50.7063,-0.0241431,0.0,0.0
1116,278.75,55.7816,54.9104,158.064,100.258,100.019,0.00156898,0.0488002,20.9306,50.7364,0.0202571,0.0,0.0
1128,281.75,55.4839,55.1227,153.634,100.292,100.3,0.00152977,0.0488631,20.9303,50.7464,-0.00064405,0.0,0.0
1138,284.25,55.7014,54.8016,155.859,100.304,100.56,0.00141591,0.0488206,20.9302,50.7664,-0.0217578,0.0,0.0