File: 01_Data/Latex_Pillow_Foam/Cone/Latex_Pillow_Foam_Cone_HF25Scan_230628_R2.csv
Names,Time,Stack TC,Smoke TC,Exh Press,Smoke Comp,Smoke Meas,CO Meter,CO2 Meter,O2 Meter,Sample Mass,Ext Coeff,Start Test,Flame Verif
Chan Gain,,500,500,1,1,1,1,1,1,1,1,1.0,1.0
Offset,,0,0,0.13804,0,0,0,0,0,0,0,0.0,0.0
Gain,,1,1,25.011,12.9079,45.9809,1,1,1,1.00091,0.969894,1.0,1.0
Units,sec,C,C,Pa,%,%,%,%,%,g,/m,,
Baseline,,42.6428,43.904,160.639,99.5328,99.5745,0.000813367,0.0484519,20.9381,-443.106,-0.00352703,,
12,2.75,41.4553,42.264,159.017,99.9605,99.9743,0.000386529,0.0485676,20.9383,72.206,-0.00116998,0.0,0.0
24,5.75,41.4963,42.6566,156.609,100.133,97.8161,0.000665751,0.0501769,20.9368,72.186,0.19914,0.0,0.0
36,8.75,41.6675,42.5111,160.245,100.298,97.6351,0.000839098,0.0506634,20.9345,72.1559,0.228945,0.0,0.0
48,11.75,41.7879,43.0879,159.238,100.453,97.7066,0.000914297,0.0505545,20.9341,72.0558,0.235832,0.0,0.0
60,14.75,42.3302,44.8185,144.321,100.565,75.5904,0.000898813,0.0500773,20.9332,71.7556,2.42879,0.0,1.0
72,17.75,44.9739,50.7368,134.151,100.661,63.2266,0.00108722,0.049463,20.9315,71.4152,3.95643,0.0,1.0
84,20.75,49.2329,58.6241,134.728,100.725,57.2208,0.00144288,0.0557965,20.9297,70.9748,4.81097,0.0,0.0
96,23.75,53.1117,65.4052,144.101,100.739,60.2054,0.0033009,0.1806,20.9228,70.5545,4.37961,0.0,0.0
108,26.75,56.5102,71.4661,135.844,100.738,57.0047,0.00925848,0.377395,20.6573,70.1341,4.84429,0.0,0.0
120,29.75,60.3626,76.5629,137.536,100.743,54.9026,0.016446,0.510994,20.3456,69.5836,5.16434,0.0,0.0
132,32.75,62.5328,80.3776,131.212,100.706,62.0156,0.0214932,0.584314,20.1213,69.1432,4.12479,0.0,0.0
144,35.75,65.6779,83.2316,133.792,100.685,56.2553,0.024641,0.626582,19.9987,68.7528,4.95237,0.0,0.0
156,38.75,68.0028,85.9947,135.402,100.62,54.302,0.0270579,0.650901,19.9267,68.3124,5.24757,0.0,0.0
168,41.75,69.9627,87.0571,131.781,100.576,52.4301,0.0282064,0.654648,19.8888,67.872,5.54226,0.0,0.0
180,44.75,71.5975,89.5636,126.692,100.513,51.918,0.0285695,0.651011,19.8852,67.4416,5.62048,0.0,0.0
192,47.75,73.6609,91.534,126.391,100.475,51.0648,0.0295335,0.647157,19.8934,66.9111,5.75818,0.0,0.0
204,50.75,75.9311,94.9323,129.73,100.443,53.07,0.0301859,0.646445,19.8942,66.4707,5.42779,0.0,0.0
216,53.75,77.9219,97.8735,132.849,100.412,54.302,0.0316985,0.678999,19.8829,65.9703,5.2299,0.0,0.0
228,56.75,80.1567,100.455,137.79,100.398,56.8812,0.0335983,0.707694,19.8229,65.3597,4.83398,0.0,0.0
240,59.75,82.0175,102.181,126.549,100.395,50.0503,0.0353306,0.732255,19.778,64.9594,5.92214,0.0,0.0
252,62.75,84.045,104.684,120.114,100.38,45.5796,0.0370833,0.753967,19.7397,64.4088,6.717,0.0,0.0
264,65.75,86.7401,108.176,119.253,100.391,49.2041,0.0379259,0.765608,19.7039,63.8183,6.0669,0.0,0.0
276,68.75,88.9843,110.282,129.022,100.393,50.1443,0.0383582,0.787761,19.6854,63.3479,5.90601,0.0,0.0
288,71.75,90.4197,112.453,129.097,100.402,52.0737,0.0397107,0.823235,19.6495,62.8374,5.58559,0.0,0.0
300,74.75,91.9447,113.36,129.847,100.436,51.2388,0.0407502,0.850238,19.5854,62.367,5.72601,0.0,0.0
312,77.75,93.144,114.125,128.258,100.462,53.4994,0.0403439,0.854039,19.547,61.8765,5.3609,0.0,0.0
324,80.75,94.7265,115.312,127.507,100.487,54.8605,0.0396076,0.83937,19.5455,61.4562,5.14925,0.0,0.0
336,83.75,95.5414,115.53,131.244,100.506,53.1065,0.0390627,0.823024,19.5724,60.9557,5.42731,0.0,0.0
348,86.75,95.9701,114.853,132.343,100.541,57.5996,0.0383668,0.818385,19.596,60.5453,4.73927,0.0,0.0
360,89.75,95.9912,114.82,133.725,100.573,57.5589,0.0374834,0.794625,19.6075,60.145,4.74801,0.0,0.0
372,92.75,96.2314,113.607,130.584,100.612,56.108,0.0362562,0.760203,19.6472,59.6945,4.96852,0.0,0.0
384,95.75,96.1862,113.682,121.158,100.647,53.6145,0.0348358,0.727775,19.713,59.2441,5.35825,0.0,0.0
396,98.75,96.6956,113.609,128.706,100.694,56.1768,0.0335676,0.698872,19.7665,58.8638,4.96506,0.0,0.0
408,101.75,97.3078,114.014,130.642,100.722,51.236,0.0328787,0.683316,19.8141,58.3633,5.75063,0.0,0.0
420,104.75,97.7496,114.445,129.824,100.75,52.1116,0.032883,0.692155,19.8326,57.9429,5.60886,0.0,0.0
432,107.75,98.096,115.362,131.614,100.77,50.9497,0.0334772,0.696592,19.8159,57.4425,5.80236,0.0,0.0
444,110.75,99.0892,116.864,125.707,100.764,50.3113,0.0339753,0.705853,19.8081,56.9921,5.90915,0.0,0.0
456,113.75,100.402,117.836,117.285,100.759,45.501,0.0348014,0.713869,19.7921,56.4316,6.76371,0.0,0.0
468,116.75,102.361,121.788,115.892,100.78,42.0322,0.0360192,0.729952,19.7732,55.831,7.44015,0.0,0.0
480,119.75,105.259,127.235,116.905,100.754,42.6118,0.0373221,0.758572,19.7342,55.2505,7.32142,0.0,0.0
492,122.75,108.047,131.303,119.429,100.726,41.339,0.0397274,0.820841,19.685,54.6599,7.57708,0.0,0.0
504,125.75,110.142,133.721,128.106,100.711,46.639,0.0440577,0.927162,19.5802,54.1395,6.54948,0.0,0.0
516,128.75,110.084,131.828,130.109,100.642,44.7784,0.0487846,1.02399,19.3714,53.6891,6.89006,0.0,0.0
528,131.75,109.202,129.383,135.364,100.581,50.8641,0.0512485,1.05439,19.2217,53.2887,5.80065,0.0,0.0
540,134.75,108.128,125.849,134.255,100.498,53.9386,0.0501477,0.97027,19.172,52.9684,5.29437,0.0,0.0
552,137.75,106.258,121.455,136.618,100.4,55.5579,0.046473,0.849741,19.3159,52.578,5.03437,0.0,0.0
564,140.75,104.395,117.71,141.664,100.306,54.0312,0.0415335,0.741429,19.5406,52.3278,5.26345,0.0,0.0
576,143.75,102.325,115.004,136.414,100.215,49.3557,0.0366328,0.642472,19.7393,52.0676,6.02577,0.0,0.0
588,146.75,101.446,112.929,143.547,100.115,72.8008,0.0318573,0.557946,19.9196,51.8173,2.71056,0.0,0.0
600,149.75,99.318,108.284,145.753,99.994,87.0126,0.0285659,0.515328,20.0516,51.6672,1.18307,0.0,0.0
612,152.75,96.5197,103.842,145.53,99.8927,94.5353,0.0266804,0.504842,20.1201,51.5971,0.46898,0.0,0.0
624,155.75,93.787,99.0217,147.94,99.8029,98.1978,0.0252936,0.474109,20.1457,51.5771,0.137947,0.0,0.0
636,158.75,90.4176,93.7654,153.023,99.7281,99.1169,0.0212774,0.388307,20.1848,51.5371,0.0523032,0.0,0.0
648,161.75,87.7294,89.8111,158.701,99.6473,99.5519,0.0145406,0.286883,20.3607,51.5771,0.00815341,0.0,0.0
660,164.75,85.2775,86.1173,148.139,99.578,99.6178,0.0101559,0.210917,20.5617,51.5671,-0.00340185,0.0,0.0
672,167.75,82.767,82.7052,153.617,99.4921,99.9785,0.00838135,0.16135,20.6825,51.5771,-0.041486,0.0,0.0
684,170.75,80.9032,79.7487,151.657,99.4456,100.346,0.00787848,0.128521,20.7724,51.5671,-0.0766901,0.0,0.0
696,173.75,78.1747,76.6925,154.847,99.3897,99.8971,0.00746837,0.108844,20.8211,51.5471,-0.0433202,0.0,0.0
708,176.75,76.045,74.3863,153.583,99.3361,100.072,0.00682526,0.0960208,20.8484,51.5471,-0.0628328,0.0,0.0
720,179.75,74.2946,72.5375,159.472,99.2798,100.383,0.00579868,0.0857454,20.8676,51.5471,-0.0939826,0.0,0.0
732,182.75,72.9046,70.7588,153.828,99.21875,99.6136,0.00506454,0.0752694,20.883,51.5371,-0.0337927,0.0,0.0
744,185.75,70.9509,69.5726,155.773,99.1463,99.4649,0.00434506,0.0675498,20.8984,51.5371,-0.0272967,0.0,0.0
756,188.75,69.7189,68.2545,153.546,99.0955,99.4593,0.00352359,0.0621597,20.9079,51.5471,-0.0311782,0.0,0.0
768,191.75,68.6573,66.4166,152.512,99.0324,99.535,0.00277394,0.0586117,20.9155,51.5571,-0.0430704,0.0,0.0
780,194.75,67.4863,66.006,152.972,98.9922,99.7147,0.00217424,0.056292,20.9215,51.5671,-0.0618612,0.0,0.0
792,197.75,66.5562,64.2549,154.449,98.9292,99.5098,0.00192306,0.0542678,20.925,51.5671,-0.0497815,0.0,0.0
804,200.75,65.3517,63.8909,160.178,98.9001,99.246,0.00176308,0.0527822,20.9282,51.5471,-0.0297049,0.0,0.0
816,203.75,64.2634,62.7998,154.671,98.8859,99.1941,0.00155425,0.0517423,20.9305,51.5771,-0.0264731,0.0,0.0
828,206.75,64.0879,61.9892,152.697,98.8512,99.1562,0.00132369,0.050882,20.9307,51.5571,-0.0262055,0.0,0.0
840,209.75,62.8355,61.3281,157.681,98.8489,99.1,0.00122465,0.0504357,20.9319,51.5271,-0.0215916,0.0,0.0
852,212.75,62.4459,60.7975,155.148,98.8233,99.2011,0.00118678,0.0501825,20.9328,51.5671,-0.0324645,0.0,0.0
864,215.75,61.347,60.4212,155.265,98.8721,99.4873,0.00112318,0.0499341,20.9331,51.5571,-0.0527762,0.0,0.0
876,218.75,61.1499,59.6447,156.025,98.9107,99.2726,0.00117552,0.0499427,20.9344,51.5671,-0.0310749,0.0,0.0
888,221.75,60.7821,59.2554,156.464,98.9592,99.0608,0.00120766,0.0499289,20.9343,51.5571,-0.00872976,0.0,0.0
900,224.75,60.1073,58.8209,155.742,99.0513,99.3316,0.00129449,0.0498993,20.9329,51.5471,-0.0240363,0.0,0.0
912,227.75,59.2026,58.6618,154.529,99.1467,99.3526,0.00137988,0.0498555,20.9331,51.5671,-0.017655,0.0,0.0
924,230.75,58.8865,58.3994,155.106,99.2459,99.361,0.00109396,0.0496075,20.9336,51.5471,-0.00986184,0.0,0.0
936,233.75,58.887,58.0235,150.225,99.383,99.6108,0.000949958,0.0495163,20.9347,51.5571,-0.019479,0.0,0.0
948,236.75,58.2768,57.3048,152.896,99.539,99.7539,0.000843281,0.0493045,20.9351,51.5471,-0.0183512,0.0,0.0
960,239.75,57.8102,56.8829,154.969,99.6863,100.813,0.000738414,0.0493561,20.935,51.5471,-0.0956491,0.0,0.0
972,242.75,57.1732,56.8835,155.972,99.8175,100.182,0.000980903,0.0496034,20.9353,51.5271,-0.0310046,0.0,0.0
984,245.75,57.119,56.1415,151.007,99.9377,100.693,0.00109111,0.0500797,20.9347,51.5371,-0.064037,0.0,0.0
996,248.75,56.4624,56.0643,152.865,100.037,100.401,0.00113628,0.0504146,20.9345,51.5371,-0.0308937,0.0,0.0
1008,251.75,56.4142,55.9936,155.549,100.099,100.422,0.0010234,0.0503501,20.9339,51.5471,-0.0274193,0.0,0.0
1020,254.75,56.254,55.4065,156.216,100.152,100.531,0.000938758,0.0501035,20.9336,51.5571,-0.0322013,0.0,0.0
1032,257.75,55.9135,55.4055,155.945,100.17,100.317,0.000943889,0.0497162,20.9335,51.5571,-0.0124733,0.0,0.0
1044,260.75,56.0494,55.2077,153.759,100.116,100.277,0.000939281,0.0495878,20.9335,51.5571,-0.0136922,0.0,0.0
1056,263.75,55.4402,54.6026,153.51,100.077,100.253,0.0011636,0.0493182,20.9335,51.5371,-0.0149825,0.0,0.0
1068,266.75,54.9169,54.9996,157.759,99.966,100.522,0.00111538,0.0491774,20.9335,51.487,-0.0471453,0.0,0.0
1080,269.75,55.1814,54.488,156.035,99.8557,100.061,0.00109273,0.0490664,20.9345,51.5171,-0.0174934,0.0,0.0
1092,272.75,54.8226,54.6421,154.835,99.7761,100.478,0.00113034,0.0489203,20.9354,51.5471,-0.0596379,0.0,0.0
1104,275.75,54.7453,54.2096,154.545,99.6714,100.21,0.00113209,0.0491208,20.9329,51.5371,-0.0458527,0.0,0.0
1116,278.75,54.2685,54.0398,155.151,99.5961,99.8185,0.00116699,0.0498669,20.9321,51.5271,-0.0189748,0.0,0.0
1128,281.75,54.1204,54.0737,154.7,99.5315,99.761,0.00112704,0.0507574,20.9319,51.5371,-0.0195898,0.0,0.0
1140,284.75,53.9988,54.0184,155.762,99.6619,99.8171,0.0010387,0.0513828,20.9304,51.5371,-0.0132372,0.0,0.0
1152,287.75,54.0175,53.4786,153.469,99.9644,100.294,0.00100362,0.051222,20.9297,51.5271,-0.0280186,0.0,0.0
1164,290.75,53.577,53.4836,154.444,100.17,100.627,0.00109575,0.0513319,20.9294,51.5271,-0.0386669,0.0,0.0
1165,291,53.4679,53.5251,152.811,100.179,100.391,0.00110456,0.0513587,20.9293,51.5271,-0.0179756,0.0,0.0