File: 01_Data/Fiber_Cement_Board/FTIR/IS/Fiber_Cement_Board_IS_S_221012_R5.dpt
7497.03,0.51072
7473.89,0.51494
7450.74,0.51341
7427.6,0.50716
7404.45,0.51855
7381.31,0.50079
7358.16,0.50480
7335.02,0.51337
7311.87,0.51229
7288.73,0.50079
7265.58,0.50544
7242.44,0.50278
7219.29,0.50540
7196.15,0.49877
7173,0.50327
7149.86,0.49336
7126.71,0.48597
7103.57,0.49652
7080.42,0.49074
7057.28,0.48388
7034.13,0.48063
7010.99,0.48421
6987.84,0.48255
6964.7,0.48262
6941.55,0.48371
6918.41,0.48990
6895.26,0.48182
6872.12,0.47952
6848.97,0.48422
6825.83,0.48037
6802.68,0.47905
6779.54,0.48337
6756.39,0.48355
6733.25,0.47858
6710.1,0.47798
6686.96,0.48629
6663.82,0.48443
6640.67,0.48367
6617.53,0.48252
6594.38,0.48657
6571.24,0.49162
6548.09,0.48529
6524.95,0.49068
6501.8,0.48737
6478.66,0.48561
6455.51,0.48924
6432.37,0.48869
6409.22,0.49270
6386.08,0.48958
6362.93,0.49065
6339.79,0.48510
6316.64,0.49132
6293.5,0.48839
6270.35,0.49023
6247.21,0.49272
6224.06,0.48996
6200.92,0.49471
6177.77,0.49033
6154.63,0.49165
6131.48,0.49142
6108.34,0.49139
6085.19,0.49335
6062.05,0.49225
6038.9,0.49337
6015.76,0.49171
5992.61,0.49069
5969.47,0.48826
5946.32,0.48955
5923.18,0.48752
5900.03,0.49177
5876.89,0.48949
5853.74,0.49026
5830.6,0.48726
5807.45,0.48763
5784.31,0.48656
5761.16,0.48617
5738.02,0.48621
5714.87,0.48488
5691.73,0.48404
5668.58,0.48513
5645.44,0.48414
5622.29,0.48534
5599.15,0.48294
5576,0.48344
5552.86,0.48179
5529.71,0.48408
5506.57,0.48201
5483.42,0.48217
5460.28,0.48118
5437.13,0.47992
5413.99,0.48247
5390.84,0.48001
5367.7,0.47730
5344.55,0.47662
5321.41,0.47191
5298.26,0.46643
5275.12,0.45396
5251.97,0.43813
5228.83,0.41920
5205.68,0.40759
5182.54,0.40493
5159.39,0.41055
5136.25,0.41800
5113.1,0.42518
5089.96,0.42907
5066.81,0.43338
5043.67,0.43787
5020.52,0.44051
4997.38,0.44429
4974.23,0.44590
4951.09,0.44632
4927.94,0.44589
4904.8,0.44460
4881.65,0.44206
4858.51,0.43914
4835.36,0.43658
4812.22,0.43314
4789.07,0.43130
4765.93,0.43030
4742.78,0.43081
4719.64,0.43281
4696.49,0.43389
4673.35,0.43451
4650.2,0.43614
4627.06,0.43648
4603.92,0.43680
4580.77,0.43669
4557.63,0.43449
4534.48,0.43319
4511.34,0.43033
4488.19,0.42746
4465.05,0.42373
4441.9,0.41742
4418.76,0.41156
4395.61,0.40728
4372.47,0.41060
4349.32,0.40880
4326.18,0.40585
4303.03,0.40219
4279.89,0.39816
4256.74,0.39466
4233.6,0.39245
4210.45,0.38930
4187.31,0.38650
4164.16,0.38178
4141.02,0.37631
4117.87,0.36957
4094.73,0.35950
4071.58,0.34876
4048.44,0.33749
4025.29,0.32976
4002.15,0.32874
3979,0.32948
3955.86,0.33025
3932.71,0.33159
3909.57,0.33193
3886.42,0.33198
3863.28,0.33073
3840.13,0.32964
3816.99,0.32424
3793.84,0.31696
3770.7,0.30744
3747.55,0.29431
3724.41,0.26812
3701.26,0.21620
3678.12,0.16598
3654.97,0.11925
3631.83,0.09330
3608.68,0.07724
3585.54,0.06657
3562.39,0.05988
3539.25,0.05371
3516.1,0.04910
3492.96,0.04572
3469.81,0.04365
3446.67,0.04243
3423.52,0.04093
3400.38,0.04088
3377.23,0.04098
3354.09,0.04241
3330.94,0.04386
3307.8,0.04583
3284.65,0.04762
3261.51,0.05188
3238.36,0.05511
3215.22,0.05899
3192.07,0.06306
3168.93,0.06792
3145.78,0.07279
3122.64,0.07861
3099.49,0.08366
3076.35,0.08864
3053.2,0.09382
3030.06,0.09583
3006.91,0.09959
2983.77,0.09683
2960.62,0.08344
2937.48,0.07848
2914.33,0.07623
2891.19,0.07994
2868.04,0.08590
2844.9,0.09968
2821.75,0.11626
2798.61,0.12807
2775.46,0.13462
2752.32,0.13925
2729.17,0.14322
2706.03,0.14956
2682.88,0.15734
2659.74,0.16419
2636.59,0.17033
2613.45,0.17607
2590.3,0.18009
2567.16,0.18293
2544.02,0.18346
2520.87,0.18567
2497.73,0.19028
2474.58,0.19496
2451.44,0.19820
2428.29,0.20124
2405.15,0.20287
2382,0.20301
2358.86,0.20373
2335.71,0.20246
2312.57,0.20072
2289.42,0.19741
2266.28,0.19256
2243.13,0.18725
2219.99,0.18723
2196.84,0.18957
2173.7,0.18553
2150.55,0.17985
2127.41,0.17780
2104.26,0.17961
2081.12,0.17947
2057.97,0.17407
2034.83,0.15827
2011.68,0.14704
1988.54,0.14102
1965.39,0.14413
1942.25,0.14774
1919.1,0.14784
1895.96,0.12523
1872.81,0.11584
1849.67,0.13413
1826.52,0.14123
1803.38,0.12515
1780.23,0.12176
1757.09,0.12647
1733.94,0.07954
1710.8,0.09199
1687.65,0.07825
1664.51,0.06572
1641.36,0.05795
1618.22,0.05580
1595.07,0.05789
1571.93,0.06059
1548.78,0.06216
1525.64,0.05767
1502.49,0.05242
1479.35,0.04512
1456.2,0.03867
1433.06,0.03627
1409.91,0.04051
1386.77,0.03894
1363.62,0.04068
1340.48,0.04457
1317.33,0.04654
1294.19,0.05718
1271.04,0.06038
1247.9,0.07608
1224.75,0.10511
1201.61,0.08907
1178.46,0.08143
1155.32,0.07192
1132.17,0.08631
1109.03,0.09729
1085.88,0.10298
1062.74,0.08954
1039.59,0.06749
1016.45,0.06606
993.304,0.06700
970.159,0.07253
947.014,0.07445
923.869,0.07368
900.724,0.06668
877.579,0.06949
854.434,0.06961
831.289,0.06284
808.144,0.05733
784.999,0.06844
761.854,0.06306
738.709,0.05840
715.565,0.04970
692.42,0.04423
669.275,0.04639
646.13,0.04433
622.985,0.03988
599.84,0.04222