File: 01_Data/Fiber_Cement_Board/FTIR/IS/Fiber_Cement_Board_IS_S_221012_R7.dpt
7497.03,0.51880
7473.89,0.50391
7450.74,0.51198
7427.6,0.51189
7404.45,0.51144
7381.31,0.51212
7358.16,0.50763
7335.02,0.50614
7311.87,0.50766
7288.73,0.50131
7265.58,0.50578
7242.44,0.50125
7219.29,0.49997
7196.15,0.50132
7173,0.49228
7149.86,0.50040
7126.71,0.49314
7103.57,0.49009
7080.42,0.49493
7057.28,0.48935
7034.13,0.48583
7010.99,0.48686
6987.84,0.48748
6964.7,0.48442
6941.55,0.48928
6918.41,0.47952
6895.26,0.48484
6872.12,0.48600
6848.97,0.48134
6825.83,0.48561
6802.68,0.48253
6779.54,0.48690
6756.39,0.48336
6733.25,0.48088
6710.1,0.48467
6686.96,0.48590
6663.82,0.48760
6640.67,0.49144
6617.53,0.48566
6594.38,0.48845
6571.24,0.49044
6548.09,0.48917
6524.95,0.49093
6501.8,0.48913
6478.66,0.48488
6455.51,0.48703
6432.37,0.49321
6409.22,0.48876
6386.08,0.48956
6362.93,0.49273
6339.79,0.48735
6316.64,0.48958
6293.5,0.49091
6270.35,0.48865
6247.21,0.49281
6224.06,0.49157
6200.92,0.49189
6177.77,0.48985
6154.63,0.48884
6131.48,0.49329
6108.34,0.49092
6085.19,0.49539
6062.05,0.49324
6038.9,0.49220
6015.76,0.49431
5992.61,0.49210
5969.47,0.49342
5946.32,0.49119
5923.18,0.49048
5900.03,0.49153
5876.89,0.49157
5853.74,0.49019
5830.6,0.48980
5807.45,0.48905
5784.31,0.48688
5761.16,0.48800
5738.02,0.48814
5714.87,0.48984
5691.73,0.48893
5668.58,0.48768
5645.44,0.48746
5622.29,0.48634
5599.15,0.48523
5576,0.48652
5552.86,0.48447
5529.71,0.48351
5506.57,0.48567
5483.42,0.48627
5460.28,0.48439
5437.13,0.48142
5413.99,0.48326
5390.84,0.48212
5367.7,0.48152
5344.55,0.47972
5321.41,0.47480
5298.26,0.46890
5275.12,0.45679
5251.97,0.44083
5228.83,0.42287
5205.68,0.41000
5182.54,0.40672
5159.39,0.41296
5136.25,0.42006
5113.1,0.42688
5089.96,0.43061
5066.81,0.43559
5043.67,0.43981
5020.52,0.44350
4997.38,0.44689
4974.23,0.44920
4951.09,0.44818
4927.94,0.44905
4904.8,0.44753
4881.65,0.44532
4858.51,0.44237
4835.36,0.43904
4812.22,0.43607
4789.07,0.43497
4765.93,0.43430
4742.78,0.43342
4719.64,0.43495
4696.49,0.43675
4673.35,0.43829
4650.2,0.43888
4627.06,0.43913
4603.92,0.43849
4580.77,0.43866
4557.63,0.43678
4534.48,0.43476
4511.34,0.43395
4488.19,0.43039
4465.05,0.42630
4441.9,0.42025
4418.76,0.41421
4395.61,0.40979
4372.47,0.41245
4349.32,0.41151
4326.18,0.40861
4303.03,0.40433
4279.89,0.39983
4256.74,0.39670
4233.6,0.39435
4210.45,0.39159
4187.31,0.38849
4164.16,0.38489
4141.02,0.37895
4117.87,0.37208
4094.73,0.36154
4071.58,0.35028
4048.44,0.33895
4025.29,0.33141
4002.15,0.33134
3979,0.33154
3955.86,0.33251
3932.71,0.33283
3909.57,0.33343
3886.42,0.33289
3863.28,0.33226
3840.13,0.33136
3816.99,0.32656
3793.84,0.31871
3770.7,0.30943
3747.55,0.29485
3724.41,0.27096
3701.26,0.21762
3678.12,0.16622
3654.97,0.12010
3631.83,0.09391
3608.68,0.07709
3585.54,0.06698
3562.39,0.05938
3539.25,0.05387
3516.1,0.04987
3492.96,0.04603
3469.81,0.04321
3446.67,0.04259
3423.52,0.04160
3400.38,0.04072
3377.23,0.04101
3354.09,0.04191
3330.94,0.04381
3307.8,0.04579
3284.65,0.04834
3261.51,0.05140
3238.36,0.05541
3215.22,0.05922
3192.07,0.06390
3168.93,0.06826
3145.78,0.07417
3122.64,0.07884
3099.49,0.08460
3076.35,0.08967
3053.2,0.09471
3030.06,0.09640
3006.91,0.10117
2983.77,0.09736
2960.62,0.08372
2937.48,0.07887
2914.33,0.07615
2891.19,0.08064
2868.04,0.08638
2844.9,0.10017
2821.75,0.11746
2798.61,0.12920
2775.46,0.13533
2752.32,0.14002
2729.17,0.14392
2706.03,0.15098
2682.88,0.15853
2659.74,0.16490
2636.59,0.17144
2613.45,0.17709
2590.3,0.18134
2567.16,0.18404
2544.02,0.18475
2520.87,0.18660
2497.73,0.19164
2474.58,0.19664
2451.44,0.19929
2428.29,0.20217
2405.15,0.20402
2382,0.20426
2358.86,0.20429
2335.71,0.20334
2312.57,0.20198
2289.42,0.19878
2266.28,0.19374
2243.13,0.18841
2219.99,0.18853
2196.84,0.19121
2173.7,0.18680
2150.55,0.18104
2127.41,0.17911
2104.26,0.18117
2081.12,0.18025
2057.97,0.17555
2034.83,0.15930
2011.68,0.14820
1988.54,0.14184
1965.39,0.14523
1942.25,0.14842
1919.1,0.14907
1895.96,0.12574
1872.81,0.11668
1849.67,0.13533
1826.52,0.14183
1803.38,0.12618
1780.23,0.12285
1757.09,0.12732
1733.94,0.08002
1710.8,0.09219
1687.65,0.07920
1664.51,0.06612
1641.36,0.05819
1618.22,0.05648
1595.07,0.05749
1571.93,0.06061
1548.78,0.06264
1525.64,0.05826
1502.49,0.05281
1479.35,0.04510
1456.2,0.03889
1433.06,0.03593
1409.91,0.04057
1386.77,0.03905
1363.62,0.04095
1340.48,0.04436
1317.33,0.04613
1294.19,0.05727
1271.04,0.06073
1247.9,0.07635
1224.75,0.10540
1201.61,0.08928
1178.46,0.08193
1155.32,0.07179
1132.17,0.08639
1109.03,0.09722
1085.88,0.10337
1062.74,0.08925
1039.59,0.06797
1016.45,0.06579
993.304,0.06690
970.159,0.07290
947.014,0.07417
923.869,0.07365
900.724,0.06596
877.579,0.06953
854.434,0.06909
831.289,0.06262
808.144,0.05746
784.999,0.06839
761.854,0.06286
738.709,0.05842
715.565,0.04819
692.42,0.04464
669.275,0.04462
646.13,0.04290
622.985,0.04122
599.84,0.04425