File: 01_Data/Fiber_Cement_Board/FTIR/IS/Fiber_Cement_Board_IS_S_221012_R8.dpt
7497.03,0.51009
7473.89,0.51057
7450.74,0.51016
7427.6,0.49896
7404.45,0.50551
7381.31,0.50546
7358.16,0.49979
7335.02,0.50675
7311.87,0.51364
7288.73,0.49767
7265.58,0.50421
7242.44,0.49744
7219.29,0.50819
7196.15,0.50192
7173,0.50408
7149.86,0.49510
7126.71,0.49150
7103.57,0.49066
7080.42,0.49420
7057.28,0.48664
7034.13,0.47994
7010.99,0.48645
6987.84,0.47995
6964.7,0.48341
6941.55,0.48377
6918.41,0.48307
6895.26,0.48501
6872.12,0.48327
6848.97,0.48199
6825.83,0.48007
6802.68,0.48322
6779.54,0.48658
6756.39,0.48184
6733.25,0.48820
6710.1,0.48861
6686.96,0.48268
6663.82,0.48696
6640.67,0.48791
6617.53,0.48866
6594.38,0.48762
6571.24,0.48931
6548.09,0.49035
6524.95,0.48427
6501.8,0.48466
6478.66,0.48732
6455.51,0.48846
6432.37,0.49118
6409.22,0.48694
6386.08,0.48784
6362.93,0.49024
6339.79,0.48842
6316.64,0.49035
6293.5,0.48706
6270.35,0.48734
6247.21,0.49035
6224.06,0.48970
6200.92,0.48972
6177.77,0.49168
6154.63,0.49089
6131.48,0.49194
6108.34,0.49291
6085.19,0.48972
6062.05,0.49267
6038.9,0.49231
6015.76,0.49101
5992.61,0.49024
5969.47,0.48778
5946.32,0.48890
5923.18,0.48847
5900.03,0.48985
5876.89,0.48996
5853.74,0.49075
5830.6,0.48882
5807.45,0.48817
5784.31,0.48955
5761.16,0.48637
5738.02,0.48652
5714.87,0.48642
5691.73,0.48663
5668.58,0.48417
5645.44,0.48404
5622.29,0.48417
5599.15,0.48493
5576,0.48418
5552.86,0.48169
5529.71,0.48314
5506.57,0.47988
5483.42,0.48350
5460.28,0.48009
5437.13,0.48055
5413.99,0.48081
5390.84,0.48115
5367.7,0.47923
5344.55,0.47636
5321.41,0.47412
5298.26,0.46677
5275.12,0.45703
5251.97,0.43879
5228.83,0.42191
5205.68,0.40754
5182.54,0.40603
5159.39,0.41214
5136.25,0.41810
5113.1,0.42438
5089.96,0.43061
5066.81,0.43519
5043.67,0.43878
5020.52,0.44196
4997.38,0.44458
4974.23,0.44616
4951.09,0.44713
4927.94,0.44708
4904.8,0.44531
4881.65,0.44205
4858.51,0.44081
4835.36,0.43644
4812.22,0.43490
4789.07,0.43242
4765.93,0.43111
4742.78,0.43049
4719.64,0.43265
4696.49,0.43498
4673.35,0.43567
4650.2,0.43685
4627.06,0.43747
4603.92,0.43709
4580.77,0.43671
4557.63,0.43514
4534.48,0.43297
4511.34,0.43113
4488.19,0.42949
4465.05,0.42492
4441.9,0.41823
4418.76,0.41252
4395.61,0.40851
4372.47,0.41024
4349.32,0.40899
4326.18,0.40612
4303.03,0.40312
4279.89,0.39801
4256.74,0.39533
4233.6,0.39234
4210.45,0.38962
4187.31,0.38746
4164.16,0.38315
4141.02,0.37809
4117.87,0.37031
4094.73,0.36036
4071.58,0.34995
4048.44,0.33793
4025.29,0.33013
4002.15,0.33011
3979,0.33008
3955.86,0.33157
3932.71,0.33250
3909.57,0.33293
3886.42,0.33273
3863.28,0.33133
3840.13,0.33012
3816.99,0.32584
3793.84,0.31800
3770.7,0.30890
3747.55,0.29337
3724.41,0.26954
3701.26,0.21685
3678.12,0.16634
3654.97,0.11945
3631.83,0.09429
3608.68,0.07777
3585.54,0.06705
3562.39,0.05977
3539.25,0.05412
3516.1,0.04966
3492.96,0.04619
3469.81,0.04315
3446.67,0.04234
3423.52,0.04098
3400.38,0.04093
3377.23,0.04148
3354.09,0.04190
3330.94,0.04456
3307.8,0.04579
3284.65,0.04714
3261.51,0.05133
3238.36,0.05539
3215.22,0.05920
3192.07,0.06380
3168.93,0.06849
3145.78,0.07365
3122.64,0.07959
3099.49,0.08418
3076.35,0.08949
3053.2,0.09462
3030.06,0.09695
3006.91,0.10082
2983.77,0.09754
2960.62,0.08427
2937.48,0.07863
2914.33,0.07605
2891.19,0.07990
2868.04,0.08632
2844.9,0.09990
2821.75,0.11738
2798.61,0.12866
2775.46,0.13469
2752.32,0.13960
2729.17,0.14328
2706.03,0.15018
2682.88,0.15783
2659.74,0.16478
2636.59,0.17101
2613.45,0.17682
2590.3,0.18093
2567.16,0.18303
2544.02,0.18417
2520.87,0.18578
2497.73,0.19112
2474.58,0.19599
2451.44,0.19878
2428.29,0.20205
2405.15,0.20371
2382,0.20350
2358.86,0.20336
2335.71,0.20219
2312.57,0.20123
2289.42,0.19829
2266.28,0.19303
2243.13,0.18783
2219.99,0.18803
2196.84,0.19043
2173.7,0.18605
2150.55,0.18033
2127.41,0.17845
2104.26,0.18058
2081.12,0.17996
2057.97,0.17521
2034.83,0.15905
2011.68,0.14745
1988.54,0.14142
1965.39,0.14440
1942.25,0.14805
1919.1,0.14842
1895.96,0.12572
1872.81,0.11622
1849.67,0.13457
1826.52,0.14150
1803.38,0.12561
1780.23,0.12227
1757.09,0.12690
1733.94,0.08007
1710.8,0.09195
1687.65,0.07897
1664.51,0.06644
1641.36,0.05817
1618.22,0.05634
1595.07,0.05780
1571.93,0.06114
1548.78,0.06188
1525.64,0.05746
1502.49,0.05241
1479.35,0.04498
1456.2,0.03879
1433.06,0.03620
1409.91,0.04034
1386.77,0.03941
1363.62,0.04080
1340.48,0.04451
1317.33,0.04648
1294.19,0.05749
1271.04,0.06019
1247.9,0.07649
1224.75,0.10536
1201.61,0.08903
1178.46,0.08169
1155.32,0.07226
1132.17,0.08668
1109.03,0.09726
1085.88,0.10249
1062.74,0.08926
1039.59,0.06712
1016.45,0.06605
993.304,0.06687
970.159,0.07291
947.014,0.07392
923.869,0.07367
900.724,0.06627
877.579,0.06934
854.434,0.07044
831.289,0.06364
808.144,0.05697
784.999,0.06914
761.854,0.06351
738.709,0.05840
715.565,0.04916
692.42,0.04433
669.275,0.04506
646.13,0.04492
622.985,0.04281
599.84,0.04246