File: 01_Data/Fiber_Cement_Board/FTIR/IS/Fiber_Cement_Board_IS_S_221012_R4.dpt
7497.03,0.51073
7473.89,0.51716
7450.74,0.50879
7427.6,0.50650
7404.45,0.50860
7381.31,0.51022
7358.16,0.51243
7335.02,0.50789
7311.87,0.50570
7288.73,0.50216
7265.58,0.50200
7242.44,0.50312
7219.29,0.50152
7196.15,0.49915
7173,0.50066
7149.86,0.49530
7126.71,0.48664
7103.57,0.48689
7080.42,0.49094
7057.28,0.48638
7034.13,0.48289
7010.99,0.48371
6987.84,0.48400
6964.7,0.47817
6941.55,0.48256
6918.41,0.48141
6895.26,0.47880
6872.12,0.48506
6848.97,0.48374
6825.83,0.48452
6802.68,0.48453
6779.54,0.48059
6756.39,0.48546
6733.25,0.48143
6710.1,0.48103
6686.96,0.48305
6663.82,0.48470
6640.67,0.48670
6617.53,0.49050
6594.38,0.48917
6571.24,0.48483
6548.09,0.48472
6524.95,0.48862
6501.8,0.48751
6478.66,0.48450
6455.51,0.48784
6432.37,0.48935
6409.22,0.48850
6386.08,0.48581
6362.93,0.49047
6339.79,0.48928
6316.64,0.48779
6293.5,0.49022
6270.35,0.48827
6247.21,0.49106
6224.06,0.48882
6200.92,0.49020
6177.77,0.49069
6154.63,0.49028
6131.48,0.49201
6108.34,0.49138
6085.19,0.49234
6062.05,0.49309
6038.9,0.49356
6015.76,0.49321
5992.61,0.49273
5969.47,0.49112
5946.32,0.48961
5923.18,0.48735
5900.03,0.48866
5876.89,0.48752
5853.74,0.48977
5830.6,0.48736
5807.45,0.48899
5784.31,0.48870
5761.16,0.48279
5738.02,0.48564
5714.87,0.48549
5691.73,0.48669
5668.58,0.48499
5645.44,0.48392
5622.29,0.48517
5599.15,0.48604
5576,0.48394
5552.86,0.48322
5529.71,0.48266
5506.57,0.48319
5483.42,0.48389
5460.28,0.48163
5437.13,0.48179
5413.99,0.48052
5390.84,0.48159
5367.7,0.47948
5344.55,0.47687
5321.41,0.47249
5298.26,0.46683
5275.12,0.45513
5251.97,0.43842
5228.83,0.41987
5205.68,0.40699
5182.54,0.40507
5159.39,0.41046
5136.25,0.41758
5113.1,0.42432
5089.96,0.42947
5066.81,0.43435
5043.67,0.43846
5020.52,0.44163
4997.38,0.44447
4974.23,0.44561
4951.09,0.44635
4927.94,0.44733
4904.8,0.44487
4881.65,0.44220
4858.51,0.43983
4835.36,0.43695
4812.22,0.43380
4789.07,0.43234
4765.93,0.43104
4742.78,0.43041
4719.64,0.43248
4696.49,0.43531
4673.35,0.43569
4650.2,0.43677
4627.06,0.43719
4603.92,0.43743
4580.77,0.43638
4557.63,0.43571
4534.48,0.43360
4511.34,0.43147
4488.19,0.42832
4465.05,0.42416
4441.9,0.41788
4418.76,0.41253
4395.61,0.40799
4372.47,0.41001
4349.32,0.40928
4326.18,0.40669
4303.03,0.40249
4279.89,0.39817
4256.74,0.39424
4233.6,0.39235
4210.45,0.39015
4187.31,0.38700
4164.16,0.38273
4141.02,0.37694
4117.87,0.36959
4094.73,0.35921
4071.58,0.34886
4048.44,0.33838
4025.29,0.32984
4002.15,0.32969
3979,0.32999
3955.86,0.33011
3932.71,0.33063
3909.57,0.33210
3886.42,0.33185
3863.28,0.33116
3840.13,0.32958
3816.99,0.32514
3793.84,0.31740
3770.7,0.30802
3747.55,0.29416
3724.41,0.26806
3701.26,0.21605
3678.12,0.16603
3654.97,0.11899
3631.83,0.09390
3608.68,0.07690
3585.54,0.06630
3562.39,0.05891
3539.25,0.05365
3516.1,0.05003
3492.96,0.04620
3469.81,0.04346
3446.67,0.04235
3423.52,0.04109
3400.38,0.04037
3377.23,0.04156
3354.09,0.04130
3330.94,0.04432
3307.8,0.04588
3284.65,0.04687
3261.51,0.05071
3238.36,0.05492
3215.22,0.05885
3192.07,0.06339
3168.93,0.06796
3145.78,0.07382
3122.64,0.07787
3099.49,0.08384
3076.35,0.08873
3053.2,0.09313
3030.06,0.09573
3006.91,0.10046
2983.77,0.09658
2960.62,0.08356
2937.48,0.07857
2914.33,0.07562
2891.19,0.07972
2868.04,0.08610
2844.9,0.09957
2821.75,0.11621
2798.61,0.12871
2775.46,0.13511
2752.32,0.13925
2729.17,0.14320
2706.03,0.14944
2682.88,0.15790
2659.74,0.16437
2636.59,0.17061
2613.45,0.17603
2590.3,0.18075
2567.16,0.18306
2544.02,0.18345
2520.87,0.18531
2497.73,0.19029
2474.58,0.19550
2451.44,0.19869
2428.29,0.20133
2405.15,0.20330
2382,0.20281
2358.86,0.19902
2335.71,0.19941
2312.57,0.20040
2289.42,0.19777
2266.28,0.19278
2243.13,0.18724
2219.99,0.18722
2196.84,0.18947
2173.7,0.18567
2150.55,0.17987
2127.41,0.17774
2104.26,0.17976
2081.12,0.17908
2057.97,0.17435
2034.83,0.15825
2011.68,0.14730
1988.54,0.14103
1965.39,0.14428
1942.25,0.14772
1919.1,0.14816
1895.96,0.12508
1872.81,0.11611
1849.67,0.13442
1826.52,0.14067
1803.38,0.12538
1780.23,0.12197
1757.09,0.12629
1733.94,0.08033
1710.8,0.09170
1687.65,0.07805
1664.51,0.06565
1641.36,0.05780
1618.22,0.05570
1595.07,0.05763
1571.93,0.06048
1548.78,0.06208
1525.64,0.05813
1502.49,0.05247
1479.35,0.04509
1456.2,0.03863
1433.06,0.03609
1409.91,0.04063
1386.77,0.03920
1363.62,0.04059
1340.48,0.04442
1317.33,0.04648
1294.19,0.05699
1271.04,0.06037
1247.9,0.07617
1224.75,0.10542
1201.61,0.08934
1178.46,0.08151
1155.32,0.07128
1132.17,0.08654
1109.03,0.09709
1085.88,0.10229
1062.74,0.08887
1039.59,0.06730
1016.45,0.06626
993.304,0.06654
970.159,0.07267
947.014,0.07484
923.869,0.07366
900.724,0.06602
877.579,0.06927
854.434,0.06934
831.289,0.06291
808.144,0.05815
784.999,0.06797
761.854,0.06332
738.709,0.05811
715.565,0.04953
692.42,0.04447
669.275,0.04502
646.13,0.04494
622.985,0.04109
599.84,0.04102