File: 01_Data/Fiber_Cement_Board/FTIR/IS/Fiber_Cement_Board_IS_S_221012_R6.dpt
7497.03,0.51839
7473.89,0.52418
7450.74,0.51364
7427.6,0.51194
7404.45,0.51138
7381.31,0.51509
7358.16,0.50874
7335.02,0.49919
7311.87,0.50361
7288.73,0.50255
7265.58,0.49867
7242.44,0.50192
7219.29,0.49903
7196.15,0.50021
7173,0.49039
7149.86,0.49096
7126.71,0.49553
7103.57,0.48981
7080.42,0.48560
7057.28,0.48758
7034.13,0.48872
7010.99,0.47406
6987.84,0.47828
6964.7,0.49047
6941.55,0.48309
6918.41,0.48937
6895.26,0.48042
6872.12,0.48088
6848.97,0.47973
6825.83,0.48398
6802.68,0.48746
6779.54,0.48602
6756.39,0.48146
6733.25,0.47909
6710.1,0.48649
6686.96,0.48174
6663.82,0.48947
6640.67,0.48437
6617.53,0.49029
6594.38,0.47923
6571.24,0.48602
6548.09,0.48466
6524.95,0.49106
6501.8,0.48718
6478.66,0.48870
6455.51,0.49108
6432.37,0.48505
6409.22,0.49233
6386.08,0.49383
6362.93,0.49041
6339.79,0.48845
6316.64,0.48827
6293.5,0.49071
6270.35,0.49251
6247.21,0.49385
6224.06,0.49143
6200.92,0.48816
6177.77,0.49184
6154.63,0.49323
6131.48,0.48966
6108.34,0.48899
6085.19,0.49144
6062.05,0.49083
6038.9,0.49038
6015.76,0.49194
5992.61,0.49112
5969.47,0.49125
5946.32,0.49192
5923.18,0.48977
5900.03,0.48998
5876.89,0.48971
5853.74,0.49069
5830.6,0.49112
5807.45,0.48724
5784.31,0.48669
5761.16,0.48866
5738.02,0.48751
5714.87,0.48397
5691.73,0.48366
5668.58,0.48547
5645.44,0.48450
5622.29,0.48400
5599.15,0.48500
5576,0.48374
5552.86,0.48298
5529.71,0.48389
5506.57,0.48305
5483.42,0.48356
5460.28,0.48213
5437.13,0.48199
5413.99,0.48285
5390.84,0.47953
5367.7,0.47994
5344.55,0.47778
5321.41,0.47308
5298.26,0.46511
5275.12,0.45511
5251.97,0.43933
5228.83,0.42084
5205.68,0.40690
5182.54,0.40522
5159.39,0.41131
5136.25,0.41704
5113.1,0.42448
5089.96,0.43024
5066.81,0.43381
5043.67,0.43749
5020.52,0.44224
4997.38,0.44384
4974.23,0.44734
4951.09,0.44681
4927.94,0.44653
4904.8,0.44600
4881.65,0.44251
4858.51,0.43934
4835.36,0.43635
4812.22,0.43375
4789.07,0.43277
4765.93,0.43137
4742.78,0.43121
4719.64,0.43269
4696.49,0.43443
4673.35,0.43540
4650.2,0.43729
4627.06,0.43693
4603.92,0.43736
4580.77,0.43547
4557.63,0.43549
4534.48,0.43202
4511.34,0.43233
4488.19,0.42837
4465.05,0.42452
4441.9,0.41761
4418.76,0.41159
4395.61,0.40819
4372.47,0.40995
4349.32,0.40967
4326.18,0.40656
4303.03,0.40321
4279.89,0.39830
4256.74,0.39540
4233.6,0.39203
4210.45,0.38963
4187.31,0.38592
4164.16,0.38329
4141.02,0.37715
4117.87,0.37018
4094.73,0.36065
4071.58,0.34933
4048.44,0.33778
4025.29,0.33024
4002.15,0.32903
3979,0.33059
3955.86,0.33113
3932.71,0.33171
3909.57,0.33250
3886.42,0.33181
3863.28,0.33139
3840.13,0.32950
3816.99,0.32470
3793.84,0.31795
3770.7,0.30749
3747.55,0.29462
3724.41,0.26877
3701.26,0.21713
3678.12,0.16672
3654.97,0.11940
3631.83,0.09446
3608.68,0.07698
3585.54,0.06665
3562.39,0.05929
3539.25,0.05400
3516.1,0.04927
3492.96,0.04583
3469.81,0.04395
3446.67,0.04245
3423.52,0.04140
3400.38,0.04076
3377.23,0.04137
3354.09,0.04211
3330.94,0.04372
3307.8,0.04619
3284.65,0.04693
3261.51,0.05129
3238.36,0.05534
3215.22,0.05924
3192.07,0.06435
3168.93,0.06827
3145.78,0.07335
3122.64,0.07813
3099.49,0.08459
3076.35,0.08888
3053.2,0.09358
3030.06,0.09626
3006.91,0.10043
2983.77,0.09657
2960.62,0.08362
2937.48,0.07809
2914.33,0.07603
2891.19,0.08010
2868.04,0.08627
2844.9,0.10008
2821.75,0.11647
2798.61,0.12873
2775.46,0.13496
2752.32,0.13930
2729.17,0.14304
2706.03,0.14984
2682.88,0.15829
2659.74,0.16435
2636.59,0.17033
2613.45,0.17656
2590.3,0.18097
2567.16,0.18284
2544.02,0.18420
2520.87,0.18539
2497.73,0.19058
2474.58,0.19571
2451.44,0.19831
2428.29,0.20158
2405.15,0.20298
2382,0.20350
2358.86,0.20358
2335.71,0.20266
2312.57,0.20126
2289.42,0.19787
2266.28,0.19273
2243.13,0.18790
2219.99,0.18773
2196.84,0.18987
2173.7,0.18593
2150.55,0.18048
2127.41,0.17813
2104.26,0.18026
2081.12,0.17955
2057.97,0.17491
2034.83,0.15889
2011.68,0.14745
1988.54,0.14114
1965.39,0.14445
1942.25,0.14805
1919.1,0.14843
1895.96,0.12530
1872.81,0.11610
1849.67,0.13458
1826.52,0.14165
1803.38,0.12558
1780.23,0.12217
1757.09,0.12638
1733.94,0.08013
1710.8,0.09191
1687.65,0.07890
1664.51,0.06590
1641.36,0.05807
1618.22,0.05592
1595.07,0.05751
1571.93,0.06072
1548.78,0.06237
1525.64,0.05748
1502.49,0.05218
1479.35,0.04509
1456.2,0.03877
1433.06,0.03628
1409.91,0.04066
1386.77,0.03932
1363.62,0.04073
1340.48,0.04448
1317.33,0.04616
1294.19,0.05713
1271.04,0.05997
1247.9,0.07619
1224.75,0.10532
1201.61,0.08888
1178.46,0.08144
1155.32,0.07144
1132.17,0.08584
1109.03,0.09743
1085.88,0.10246
1062.74,0.08912
1039.59,0.06705
1016.45,0.06582
993.304,0.06644
970.159,0.07332
947.014,0.07402
923.869,0.07359
900.724,0.06675
877.579,0.06895
854.434,0.06931
831.289,0.06295
808.144,0.05770
784.999,0.06871
761.854,0.06364
738.709,0.05803
715.565,0.04843
692.42,0.04360
669.275,0.04507
646.13,0.04401
622.985,0.03855
599.84,0.04065