File: 01_Data/Fiber_Cement_Board/FTIR/IS/Fiber_Cement_Board_IS_T_221012_R2.dpt
7497.03,0.03526
7473.89,0.02075
7450.74,0.01738
7427.6,0.01994
7404.45,0.02349
7381.31,0.02026
7358.16,0.02948
7335.02,0.01635
7311.87,0.02909
7288.73,0.02591
7265.58,0.01917
7242.44,0.02366
7219.29,0.02423
7196.15,0.02264
7173,0.02400
7149.86,0.02269
7126.71,0.02448
7103.57,0.02765
7080.42,0.02441
7057.28,0.01971
7034.13,0.02781
7010.99,0.02284
6987.84,0.02810
6964.7,0.01961
6941.55,0.02609
6918.41,0.02723
6895.26,0.02014
6872.12,0.02194
6848.97,0.02326
6825.83,0.02158
6802.68,0.02273
6779.54,0.02233
6756.39,0.02181
6733.25,0.02270
6710.1,0.01877
6686.96,0.02470
6663.82,0.02202
6640.67,0.02186
6617.53,0.02739
6594.38,0.02203
6571.24,0.02582
6548.09,0.01869
6524.95,0.01967
6501.8,0.02293
6478.66,0.01966
6455.51,0.02238
6432.37,0.02103
6409.22,0.02316
6386.08,0.02330
6362.93,0.02222
6339.79,0.01903
6316.64,0.02396
6293.5,0.02213
6270.35,0.01957
6247.21,0.02015
6224.06,0.02029
6200.92,0.01840
6177.77,0.02190
6154.63,0.02302
6131.48,0.02024
6108.34,0.02135
6085.19,0.02316
6062.05,0.01979
6038.9,0.02132
6015.76,0.02040
5992.61,0.02068
5969.47,0.02144
5946.32,0.02061
5923.18,0.02273
5900.03,0.02275
5876.89,0.01960
5853.74,0.02146
5830.6,0.01943
5807.45,0.02122
5784.31,0.02026
5761.16,0.01995
5738.02,0.01939
5714.87,0.02172
5691.73,0.02284
5668.58,0.01973
5645.44,0.02026
5622.29,0.02201
5599.15,0.02062
5576,0.02160
5552.86,0.02159
5529.71,0.02100
5506.57,0.02062
5483.42,0.01956
5460.28,0.02137
5437.13,0.02062
5413.99,0.02041
5390.84,0.02026
5367.7,0.02097
5344.55,0.02158
5321.41,0.02139
5298.26,0.02108
5275.12,0.01955
5251.97,0.02153
5228.83,0.02153
5205.68,0.02004
5182.54,0.02212
5159.39,0.02161
5136.25,0.02128
5113.1,0.02096
5089.96,0.02103
5066.81,0.02119
5043.67,0.02172
5020.52,0.02139
4997.38,0.02108
4974.23,0.02180
4951.09,0.02089
4927.94,0.02032
4904.8,0.02126
4881.65,0.02161
4858.51,0.02131
4835.36,0.02132
4812.22,0.02118
4789.07,0.02114
4765.93,0.02055
4742.78,0.02147
4719.64,0.02117
4696.49,0.02185
4673.35,0.02059
4650.2,0.02107
4627.06,0.02134
4603.92,0.02207
4580.77,0.02177
4557.63,0.02132
4534.48,0.02135
4511.34,0.02186
4488.19,0.02009
4465.05,0.02047
4441.9,0.02138
4418.76,0.02092
4395.61,0.02257
4372.47,0.02208
4349.32,0.02097
4326.18,0.02083
4303.03,0.02102
4279.89,0.02201
4256.74,0.02116
4233.6,0.02167
4210.45,0.02141
4187.31,0.02107
4164.16,0.02148
4141.02,0.02169
4117.87,0.02128
4094.73,0.02200
4071.58,0.02147
4048.44,0.02141
4025.29,0.02048
4002.15,0.02161
3979,0.02160
3955.86,0.02166
3932.71,0.02212
3909.57,0.02169
3886.42,0.02240
3863.28,0.02180
3840.13,0.02255
3816.99,0.02189
3793.84,0.02145
3770.7,0.02176
3747.55,0.02208
3724.41,0.02158
3701.26,0.02139
3678.12,0.02101
3654.97,0.02172
3631.83,0.02075
3608.68,0.02104
3585.54,0.02047
3562.39,0.02011
3539.25,0.02054
3516.1,0.02060
3492.96,0.01921
3469.81,0.02005
3446.67,0.02011
3423.52,0.02007
3400.38,0.02037
3377.23,0.01949
3354.09,0.01980
3330.94,0.01882
3307.8,0.02075
3284.65,0.01999
3261.51,0.01898
3238.36,0.02006
3215.22,0.01946
3192.07,0.02028
3168.93,0.02036
3145.78,0.01979
3122.64,0.01993
3099.49,0.02023
3076.35,0.01988
3053.2,0.02012
3030.06,0.01984
3006.91,0.02028
2983.77,0.01948
2960.62,0.01904
2937.48,0.01949
2914.33,0.01949
2891.19,0.01968
2868.04,0.02022
2844.9,0.01991
2821.75,0.02053
2798.61,0.02023
2775.46,0.02054
2752.32,0.02013
2729.17,0.02075
2706.03,0.02090
2682.88,0.02053
2659.74,0.02100
2636.59,0.02013
2613.45,0.02086
2590.3,0.02061
2567.16,0.02063
2544.02,0.02042
2520.87,0.02036
2497.73,0.02081
2474.58,0.02049
2451.44,0.02041
2428.29,0.02006
2405.15,0.02054
2382,0.02040
2358.86,0.02068
2335.71,0.02068
2312.57,0.02046
2289.42,0.02014
2266.28,0.02035
2243.13,0.02061
2219.99,0.02082
2196.84,0.02050
2173.7,0.02009
2150.55,0.02043
2127.41,0.02026
2104.26,0.02021
2081.12,0.02042
2057.97,0.02030
2034.83,0.02024
2011.68,0.02036
1988.54,0.02027
1965.39,0.02045
1942.25,0.02014
1919.1,0.02008
1895.96,0.02062
1872.81,0.01999
1849.67,0.01978
1826.52,0.01978
1803.38,0.01943
1780.23,0.01845
1757.09,0.01778
1733.94,0.01950
1710.8,0.02032
1687.65,0.01886
1664.51,0.01804
1641.36,0.01797
1618.22,0.01859
1595.07,0.01837
1571.93,0.01774
1548.78,0.01749
1525.64,0.01798
1502.49,0.01837
1479.35,0.01821
1456.2,0.01850
1433.06,0.01828
1409.91,0.01807
1386.77,0.01758
1363.62,0.01794
1340.48,0.01742
1317.33,0.01665
1294.19,0.01735
1271.04,0.01903
1247.9,0.01939
1224.75,0.01900
1201.61,0.01811
1178.46,0.01767
1155.32,0.01710
1132.17,0.01805
1109.03,0.01854
1085.88,0.01650
1062.74,0.01967
1039.59,0.01896
1016.45,0.01947
993.304,0.02060
970.159,0.01964
947.014,0.01915
923.869,0.01889
900.724,0.01799
877.579,0.01845
854.434,0.01798
831.289,0.01821
808.144,0.01869
784.999,0.01795
761.854,0.01808
738.709,0.01752
715.565,0.01738
692.42,0.01802
669.275,0.01583
646.13,0.01682
622.985,0.01562
599.84,0.01306