File: 01_Data/Fiber_Cement_Board/FTIR/IS/Fiber_Cement_Board_IS_S_221012_R1.dpt
7497.03,0.51155
7473.89,0.51022
7450.74,0.50479
7427.6,0.50575
7404.45,0.50263
7381.31,0.50129
7358.16,0.49763
7335.02,0.50109
7311.87,0.49822
7288.73,0.49183
7265.58,0.50471
7242.44,0.50303
7219.29,0.50526
7196.15,0.49752
7173,0.49961
7149.86,0.49594
7126.71,0.48534
7103.57,0.48239
7080.42,0.48924
7057.28,0.48554
7034.13,0.48348
7010.99,0.48374
6987.84,0.48524
6964.7,0.48003
6941.55,0.48502
6918.41,0.47773
6895.26,0.48061
6872.12,0.48479
6848.97,0.48738
6825.83,0.47799
6802.68,0.48470
6779.54,0.48142
6756.39,0.48233
6733.25,0.48472
6710.1,0.48839
6686.96,0.48675
6663.82,0.48253
6640.67,0.48275
6617.53,0.48377
6594.38,0.48666
6571.24,0.48757
6548.09,0.48883
6524.95,0.48634
6501.8,0.49131
6478.66,0.48657
6455.51,0.48584
6432.37,0.48606
6409.22,0.48977
6386.08,0.48872
6362.93,0.48560
6339.79,0.48647
6316.64,0.48900
6293.5,0.48840
6270.35,0.48908
6247.21,0.48840
6224.06,0.48698
6200.92,0.49059
6177.77,0.48871
6154.63,0.49013
6131.48,0.49097
6108.34,0.49101
6085.19,0.49155
6062.05,0.49057
6038.9,0.49248
6015.76,0.49056
5992.61,0.49072
5969.47,0.48704
5946.32,0.48604
5923.18,0.48929
5900.03,0.48945
5876.89,0.48833
5853.74,0.48583
5830.6,0.48675
5807.45,0.48685
5784.31,0.48426
5761.16,0.48620
5738.02,0.48454
5714.87,0.48615
5691.73,0.48408
5668.58,0.48404
5645.44,0.48246
5622.29,0.48596
5599.15,0.48120
5576,0.48142
5552.86,0.48217
5529.71,0.48171
5506.57,0.48058
5483.42,0.48128
5460.28,0.48083
5437.13,0.48179
5413.99,0.47881
5390.84,0.47903
5367.7,0.47826
5344.55,0.47530
5321.41,0.47165
5298.26,0.46371
5275.12,0.45340
5251.97,0.43539
5228.83,0.41677
5205.68,0.40350
5182.54,0.40088
5159.39,0.40757
5136.25,0.41293
5113.1,0.42116
5089.96,0.42499
5066.81,0.43058
5043.67,0.43447
5020.52,0.43970
4997.38,0.44230
4974.23,0.44402
4951.09,0.44343
4927.94,0.44646
4904.8,0.44396
4881.65,0.44199
4858.51,0.43786
4835.36,0.43557
4812.22,0.43395
4789.07,0.43150
4765.93,0.42961
4742.78,0.42880
4719.64,0.43210
4696.49,0.43273
4673.35,0.43408
4650.2,0.43580
4627.06,0.43607
4603.92,0.43508
4580.77,0.43567
4557.63,0.43476
4534.48,0.43195
4511.34,0.43040
4488.19,0.42760
4465.05,0.42292
4441.9,0.41645
4418.76,0.41043
4395.61,0.40700
4372.47,0.40937
4349.32,0.40743
4326.18,0.40562
4303.03,0.40102
4279.89,0.39582
4256.74,0.39341
4233.6,0.39049
4210.45,0.38797
4187.31,0.38522
4164.16,0.38115
4141.02,0.37629
4117.87,0.36857
4094.73,0.35862
4071.58,0.34714
4048.44,0.33596
4025.29,0.32762
4002.15,0.32721
3979,0.32848
3955.86,0.32885
3932.71,0.32826
3909.57,0.32970
3886.42,0.32917
3863.28,0.32740
3840.13,0.32492
3816.99,0.32123
3793.84,0.31480
3770.7,0.30540
3747.55,0.28841
3724.41,0.26596
3701.26,0.21403
3678.12,0.16258
3654.97,0.11628
3631.83,0.09064
3608.68,0.07434
3585.54,0.06391
3562.39,0.05734
3539.25,0.05255
3516.1,0.04896
3492.96,0.04489
3469.81,0.04288
3446.67,0.04153
3423.52,0.04049
3400.38,0.04062
3377.23,0.04030
3354.09,0.04140
3330.94,0.04324
3307.8,0.04459
3284.65,0.04670
3261.51,0.05009
3238.36,0.05433
3215.22,0.05825
3192.07,0.06188
3168.93,0.06686
3145.78,0.07164
3122.64,0.07607
3099.49,0.08184
3076.35,0.08650
3053.2,0.09163
3030.06,0.09350
3006.91,0.09855
2983.77,0.09544
2960.62,0.08254
2937.48,0.07814
2914.33,0.07525
2891.19,0.07966
2868.04,0.08604
2844.9,0.09877
2821.75,0.11540
2798.61,0.12716
2775.46,0.13339
2752.32,0.13776
2729.17,0.14165
2706.03,0.14771
2682.88,0.15665
2659.74,0.16309
2636.59,0.16946
2613.45,0.17515
2590.3,0.17982
2567.16,0.18164
2544.02,0.18206
2520.87,0.18397
2497.73,0.18896
2474.58,0.19399
2451.44,0.19716
2428.29,0.20027
2405.15,0.20174
2382,0.20133
2358.86,0.20016
2335.71,0.19849
2312.57,0.19853
2289.42,0.19584
2266.28,0.19051
2243.13,0.18556
2219.99,0.18528
2196.84,0.18732
2173.7,0.18315
2150.55,0.17777
2127.41,0.17571
2104.26,0.17744
2081.12,0.17701
2057.97,0.17252
2034.83,0.15673
2011.68,0.14590
1988.54,0.14006
1965.39,0.14332
1942.25,0.14663
1919.1,0.14678
1895.96,0.12445
1872.81,0.11550
1849.67,0.13376
1826.52,0.13975
1803.38,0.12453
1780.23,0.12051
1757.09,0.12488
1733.94,0.07945
1710.8,0.08963
1687.65,0.07637
1664.51,0.06334
1641.36,0.05605
1618.22,0.05511
1595.07,0.05688
1571.93,0.06003
1548.78,0.06189
1525.64,0.05700
1502.49,0.05194
1479.35,0.04483
1456.2,0.03893
1433.06,0.03606
1409.91,0.04068
1386.77,0.03902
1363.62,0.04028
1340.48,0.04473
1317.33,0.04633
1294.19,0.05751
1271.04,0.06047
1247.9,0.07585
1224.75,0.10513
1201.61,0.08869
1178.46,0.08165
1155.32,0.07193
1132.17,0.08854
1109.03,0.09747
1085.88,0.10297
1062.74,0.08889
1039.59,0.06734
1016.45,0.06549
993.304,0.06584
970.159,0.07280
947.014,0.07441
923.869,0.07333
900.724,0.06594
877.579,0.06790
854.434,0.06876
831.289,0.06180
808.144,0.05630
784.999,0.06759
761.854,0.06215
738.709,0.05719
715.565,0.04883
692.42,0.04428
669.275,0.04555
646.13,0.04474
622.985,0.04140
599.84,0.04232