File: 01_Data/Fiber_Cement_Board/FTIR/IS/Fiber_Cement_Board_IS_S_221012_R2.dpt
7497.03,0.51052
7473.89,0.51504
7450.74,0.50280
7427.6,0.50084
7404.45,0.50225
7381.31,0.50975
7358.16,0.50652
7335.02,0.49707
7311.87,0.50773
7288.73,0.50650
7265.58,0.50252
7242.44,0.49868
7219.29,0.50195
7196.15,0.49408
7173,0.49758
7149.86,0.49540
7126.71,0.49042
7103.57,0.48616
7080.42,0.48927
7057.28,0.48815
7034.13,0.49212
7010.99,0.48776
6987.84,0.48585
6964.7,0.48334
6941.55,0.48255
6918.41,0.48495
6895.26,0.47928
6872.12,0.48083
6848.97,0.48220
6825.83,0.47705
6802.68,0.48295
6779.54,0.48009
6756.39,0.48405
6733.25,0.48065
6710.1,0.48477
6686.96,0.48838
6663.82,0.48305
6640.67,0.48072
6617.53,0.48596
6594.38,0.48898
6571.24,0.48830
6548.09,0.48875
6524.95,0.48765
6501.8,0.48903
6478.66,0.49100
6455.51,0.48799
6432.37,0.49048
6409.22,0.48993
6386.08,0.48939
6362.93,0.48538
6339.79,0.48984
6316.64,0.48654
6293.5,0.49054
6270.35,0.49033
6247.21,0.49095
6224.06,0.49073
6200.92,0.49226
6177.77,0.49165
6154.63,0.49064
6131.48,0.49143
6108.34,0.49182
6085.19,0.49022
6062.05,0.49112
6038.9,0.49333
6015.76,0.48879
5992.61,0.49353
5969.47,0.49165
5946.32,0.49041
5923.18,0.49112
5900.03,0.48720
5876.89,0.48791
5853.74,0.48709
5830.6,0.48813
5807.45,0.48913
5784.31,0.48652
5761.16,0.48574
5738.02,0.48646
5714.87,0.48580
5691.73,0.48473
5668.58,0.48809
5645.44,0.48354
5622.29,0.48324
5599.15,0.48402
5576,0.48183
5552.86,0.48207
5529.71,0.48396
5506.57,0.48240
5483.42,0.48323
5460.28,0.47959
5437.13,0.48123
5413.99,0.48045
5390.84,0.47892
5367.7,0.47986
5344.55,0.47672
5321.41,0.47129
5298.26,0.46710
5275.12,0.45531
5251.97,0.43814
5228.83,0.41894
5205.68,0.40705
5182.54,0.40373
5159.39,0.40940
5136.25,0.41622
5113.1,0.42218
5089.96,0.42980
5066.81,0.43377
5043.67,0.43817
5020.52,0.44040
4997.38,0.44312
4974.23,0.44599
4951.09,0.44693
4927.94,0.44743
4904.8,0.44409
4881.65,0.44225
4858.51,0.43895
4835.36,0.43655
4812.22,0.43486
4789.07,0.43075
4765.93,0.43040
4742.78,0.43151
4719.64,0.43205
4696.49,0.43424
4673.35,0.43466
4650.2,0.43618
4627.06,0.43687
4603.92,0.43572
4580.77,0.43639
4557.63,0.43459
4534.48,0.43259
4511.34,0.43125
4488.19,0.42826
4465.05,0.42458
4441.9,0.41773
4418.76,0.41193
4395.61,0.40708
4372.47,0.40953
4349.32,0.40876
4326.18,0.40577
4303.03,0.40206
4279.89,0.39728
4256.74,0.39442
4233.6,0.39203
4210.45,0.38832
4187.31,0.38545
4164.16,0.38304
4141.02,0.37715
4117.87,0.36946
4094.73,0.35975
4071.58,0.34874
4048.44,0.33667
4025.29,0.32850
4002.15,0.32796
3979,0.32943
3955.86,0.32993
3932.71,0.33053
3909.57,0.33118
3886.42,0.33141
3863.28,0.33013
3840.13,0.32905
3816.99,0.32372
3793.84,0.31658
3770.7,0.30712
3747.55,0.29320
3724.41,0.26859
3701.26,0.21530
3678.12,0.16450
3654.97,0.11805
3631.83,0.09312
3608.68,0.07587
3585.54,0.06543
3562.39,0.05832
3539.25,0.05327
3516.1,0.04886
3492.96,0.04577
3469.81,0.04295
3446.67,0.04215
3423.52,0.04056
3400.38,0.04084
3377.23,0.04085
3354.09,0.04156
3330.94,0.04384
3307.8,0.04559
3284.65,0.04670
3261.51,0.05112
3238.36,0.05441
3215.22,0.05915
3192.07,0.06258
3168.93,0.06665
3145.78,0.07164
3122.64,0.07747
3099.49,0.08274
3076.35,0.08824
3053.2,0.09280
3030.06,0.09544
3006.91,0.09903
2983.77,0.09627
2960.62,0.08367
2937.48,0.07857
2914.33,0.07556
2891.19,0.07971
2868.04,0.08625
2844.9,0.09956
2821.75,0.11619
2798.61,0.12807
2775.46,0.13404
2752.32,0.13862
2729.17,0.14225
2706.03,0.14860
2682.88,0.15741
2659.74,0.16390
2636.59,0.16987
2613.45,0.17572
2590.3,0.17988
2567.16,0.18210
2544.02,0.18315
2520.87,0.18499
2497.73,0.18964
2474.58,0.19483
2451.44,0.19794
2428.29,0.20087
2405.15,0.20274
2382,0.20223
2358.86,0.20218
2335.71,0.20080
2312.57,0.20027
2289.42,0.19708
2266.28,0.19158
2243.13,0.18656
2219.99,0.18643
2196.84,0.18867
2173.7,0.18440
2150.55,0.17886
2127.41,0.17642
2104.26,0.17868
2081.12,0.17849
2057.97,0.17343
2034.83,0.15818
2011.68,0.14688
1988.54,0.14078
1965.39,0.14388
1942.25,0.14698
1919.1,0.14808
1895.96,0.12501
1872.81,0.11572
1849.67,0.13402
1826.52,0.14089
1803.38,0.12512
1780.23,0.12175
1757.09,0.12585
1733.94,0.08037
1710.8,0.09102
1687.65,0.07750
1664.51,0.06467
1641.36,0.05693
1618.22,0.05569
1595.07,0.05701
1571.93,0.05996
1548.78,0.06156
1525.64,0.05781
1502.49,0.05231
1479.35,0.04476
1456.2,0.03891
1433.06,0.03576
1409.91,0.04061
1386.77,0.03942
1363.62,0.04045
1340.48,0.04457
1317.33,0.04659
1294.19,0.05733
1271.04,0.06010
1247.9,0.07561
1224.75,0.10590
1201.61,0.08862
1178.46,0.08128
1155.32,0.07149
1132.17,0.08666
1109.03,0.09747
1085.88,0.10263
1062.74,0.08910
1039.59,0.06757
1016.45,0.06612
993.304,0.06688
970.159,0.07300
947.014,0.07449
923.869,0.07373
900.724,0.06633
877.579,0.06951
854.434,0.06932
831.289,0.06203
808.144,0.05719
784.999,0.06813
761.854,0.06266
738.709,0.05726
715.565,0.04807
692.42,0.04458
669.275,0.04516
646.13,0.04336
622.985,0.04136
599.84,0.04296