File: 01_Data/Fiber_Cement_Board/FTIR/IS/Fiber_Cement_Board_IS_S_221012_R3.dpt
7497.03,0.51089
7473.89,0.49707
7450.74,0.50691
7427.6,0.51105
7404.45,0.51407
7381.31,0.51450
7358.16,0.50265
7335.02,0.49833
7311.87,0.51094
7288.73,0.50594
7265.58,0.50340
7242.44,0.50710
7219.29,0.50103
7196.15,0.50663
7173,0.49237
7149.86,0.48518
7126.71,0.49176
7103.57,0.49985
7080.42,0.48632
7057.28,0.48537
7034.13,0.48737
7010.99,0.48301
6987.84,0.48674
6964.7,0.48700
6941.55,0.48435
6918.41,0.48607
6895.26,0.48500
6872.12,0.48290
6848.97,0.48008
6825.83,0.48308
6802.68,0.48421
6779.54,0.49036
6756.39,0.48760
6733.25,0.48776
6710.1,0.48235
6686.96,0.48447
6663.82,0.48474
6640.67,0.48584
6617.53,0.49087
6594.38,0.48371
6571.24,0.48518
6548.09,0.49079
6524.95,0.48300
6501.8,0.48859
6478.66,0.48779
6455.51,0.48834
6432.37,0.48625
6409.22,0.48775
6386.08,0.48920
6362.93,0.48882
6339.79,0.49061
6316.64,0.49005
6293.5,0.49209
6270.35,0.48546
6247.21,0.48797
6224.06,0.48790
6200.92,0.49635
6177.77,0.49658
6154.63,0.49064
6131.48,0.49231
6108.34,0.49137
6085.19,0.49146
6062.05,0.49358
6038.9,0.49267
6015.76,0.49374
5992.61,0.49191
5969.47,0.49199
5946.32,0.48891
5923.18,0.48846
5900.03,0.48983
5876.89,0.48963
5853.74,0.48769
5830.6,0.48788
5807.45,0.48909
5784.31,0.48638
5761.16,0.48764
5738.02,0.48629
5714.87,0.48740
5691.73,0.48528
5668.58,0.48562
5645.44,0.48549
5622.29,0.48525
5599.15,0.48561
5576,0.48357
5552.86,0.48540
5529.71,0.48406
5506.57,0.48382
5483.42,0.48307
5460.28,0.48081
5437.13,0.48207
5413.99,0.48196
5390.84,0.48269
5367.7,0.48078
5344.55,0.47820
5321.41,0.47312
5298.26,0.46786
5275.12,0.45435
5251.97,0.43882
5228.83,0.42062
5205.68,0.40771
5182.54,0.40418
5159.39,0.40953
5136.25,0.41831
5113.1,0.42396
5089.96,0.42903
5066.81,0.43477
5043.67,0.43716
5020.52,0.44052
4997.38,0.44529
4974.23,0.44568
4951.09,0.44732
4927.94,0.44677
4904.8,0.44360
4881.65,0.44288
4858.51,0.43921
4835.36,0.43775
4812.22,0.43427
4789.07,0.43205
4765.93,0.43242
4742.78,0.43200
4719.64,0.43384
4696.49,0.43500
4673.35,0.43590
4650.2,0.43668
4627.06,0.43752
4603.92,0.43685
4580.77,0.43723
4557.63,0.43614
4534.48,0.43338
4511.34,0.43200
4488.19,0.42937
4465.05,0.42425
4441.9,0.41945
4418.76,0.41300
4395.61,0.40789
4372.47,0.41094
4349.32,0.40913
4326.18,0.40660
4303.03,0.40303
4279.89,0.39843
4256.74,0.39524
4233.6,0.39342
4210.45,0.38998
4187.31,0.38772
4164.16,0.38310
4141.02,0.37713
4117.87,0.37002
4094.73,0.36040
4071.58,0.34959
4048.44,0.33807
4025.29,0.32998
4002.15,0.32885
3979,0.33100
3955.86,0.33068
3932.71,0.33196
3909.57,0.33299
3886.42,0.33235
3863.28,0.33180
3840.13,0.33000
3816.99,0.32499
3793.84,0.31763
3770.7,0.30812
3747.55,0.29405
3724.41,0.26849
3701.26,0.21583
3678.12,0.16607
3654.97,0.11856
3631.83,0.09317
3608.68,0.07638
3585.54,0.06611
3562.39,0.05910
3539.25,0.05340
3516.1,0.04917
3492.96,0.04632
3469.81,0.04331
3446.67,0.04158
3423.52,0.04093
3400.38,0.04110
3377.23,0.04153
3354.09,0.04136
3330.94,0.04377
3307.8,0.04507
3284.65,0.04673
3261.51,0.05058
3238.36,0.05504
3215.22,0.05916
3192.07,0.06268
3168.93,0.06718
3145.78,0.07273
3122.64,0.07828
3099.49,0.08269
3076.35,0.08929
3053.2,0.09331
3030.06,0.09585
3006.91,0.09981
2983.77,0.09661
2960.62,0.08341
2937.48,0.07897
2914.33,0.07615
2891.19,0.08003
2868.04,0.08626
2844.9,0.09959
2821.75,0.11652
2798.61,0.12859
2775.46,0.13469
2752.32,0.13919
2729.17,0.14278
2706.03,0.14967
2682.88,0.15721
2659.74,0.16428
2636.59,0.17089
2613.45,0.17645
2590.3,0.18034
2567.16,0.18256
2544.02,0.18383
2520.87,0.18551
2497.73,0.19050
2474.58,0.19562
2451.44,0.19816
2428.29,0.20155
2405.15,0.20293
2382,0.20318
2358.86,0.20252
2335.71,0.20138
2312.57,0.20108
2289.42,0.19772
2266.28,0.19220
2243.13,0.18700
2219.99,0.18734
2196.84,0.18956
2173.7,0.18505
2150.55,0.18010
2127.41,0.17765
2104.26,0.17980
2081.12,0.17894
2057.97,0.17420
2034.83,0.15816
2011.68,0.14711
1988.54,0.14086
1965.39,0.14441
1942.25,0.14772
1919.1,0.14800
1895.96,0.12507
1872.81,0.11578
1849.67,0.13434
1826.52,0.14097
1803.38,0.12491
1780.23,0.12150
1757.09,0.12645
1733.94,0.07952
1710.8,0.09172
1687.65,0.07774
1664.51,0.06507
1641.36,0.05771
1618.22,0.05582
1595.07,0.05741
1571.93,0.06041
1548.78,0.06196
1525.64,0.05755
1502.49,0.05220
1479.35,0.04473
1456.2,0.03872
1433.06,0.03628
1409.91,0.04037
1386.77,0.03927
1363.62,0.04086
1340.48,0.04456
1317.33,0.04651
1294.19,0.05702
1271.04,0.06031
1247.9,0.07632
1224.75,0.10545
1201.61,0.08912
1178.46,0.08176
1155.32,0.07145
1132.17,0.08647
1109.03,0.09726
1085.88,0.10216
1062.74,0.08904
1039.59,0.06765
1016.45,0.06656
993.304,0.06713
970.159,0.07286
947.014,0.07423
923.869,0.07367
900.724,0.06654
877.579,0.06901
854.434,0.06939
831.289,0.06232
808.144,0.05729
784.999,0.06816
761.854,0.06391
738.709,0.05793
715.565,0.04881
692.42,0.04407
669.275,0.04636
646.13,0.04359
622.985,0.03953
599.84,0.04240