File: 01_Data/Oak_Flooring/Cone/Oak_Flooring_HRRPUA_50.csv
Time after Ignition,Oak_Flooring_R1,Oak_Flooring_R2,Oak_Flooring_R3,Mean,Std. Dev.
0.0,8.8,29.8,2.6,13.8,14.3
4.25,95.1,136.4,114.0,115.2,20.7
8.5,191.5,262.2,230.3,228.0,35.4
12.75,242.8,310.7,284.0,279.2,34.2
17.0,263.5,322.0,308.0,297.8,30.5
21.25,292.2,312.6,318.5,307.8,13.8
25.5,296.4,309.4,303.1,303.0,6.5
29.75,279.4,286.5,291.6,285.8,6.1
34.0,263.9,273.1,277.5,271.5,7.0
38.25,252.7,253.8,258.0,254.8,2.8
42.5,240.7,239.4,249.2,243.1,5.3
46.75,232.7,229.0,243.6,235.1,7.6
51.0,221.7,224.4,226.3,224.1,2.3
55.25,220.2,213.9,217.4,217.2,3.2
59.5,209.8,208.1,210.1,209.3,1.1
63.75,205.9,203.3,203.4,204.2,1.4
68.0,197.0,195.9,197.2,196.7,0.7
72.25,195.1,192.5,187.4,191.7,3.9
76.5,186.2,190.9,183.6,186.9,3.7
80.75,182.9,185.6,178.2,182.2,3.7
85.0,177.7,180.8,175.4,178.0,2.7
89.25,175.9,176.4,174.2,175.5,1.2
93.5,177.5,175.4,172.2,175.0,2.7
97.75,168.9,174.8,163.3,169.0,5.8
102.0,163.2,173.2,162.7,166.4,5.9
106.25,166.1,173.6,161.1,166.9,6.3
110.5,161.3,170.9,163.0,165.1,5.1
114.75,159.0,169.9,160.7,163.2,5.8
119.0,155.9,166.5,157.6,160.0,5.7
123.25,157.2,169.6,154.0,160.3,8.2
127.5,152.0,165.5,155.5,157.7,7.0
131.75,147.7,162.3,153.8,154.6,7.3
136.0,146.5,160.9,152.1,153.2,7.2
140.25,145.3,159.4,151.8,152.2,7.1
144.5,142.8,157.0,148.1,149.3,7.2
148.75,145.1,155.7,149.7,150.2,5.3
153.0,141.4,153.4,147.2,147.3,6.0
157.25,139.6,150.8,147.6,146.0,5.8
161.5,140.4,149.5,144.3,144.8,4.6
165.75,137.8,149.5,145.7,144.3,5.9
170.0,137.3,147.5,142.2,142.3,5.1
174.25,135.5,145.7,145.1,142.1,5.7
178.5,132.0,145.1,140.3,139.1,6.7
182.75,131.0,141.3,140.7,137.7,5.8
187.0,130.5,141.0,142.2,137.9,6.4
191.25,128.7,142.5,138.0,136.4,7.0
195.5,127.9,141.7,140.7,136.8,7.7
199.75,128.6,137.8,140.0,135.5,6.1
204.0,126.2,134.1,137.9,132.7,6.0
208.25,126.8,135.0,136.7,132.8,5.3
212.5,125.8,133.5,135.9,131.7,5.3
216.75,122.9,130.1,135.6,129.6,6.4
221.0,125.3,132.5,136.4,131.4,5.6
225.25,123.9,128.6,134.6,129.0,5.4
229.5,122.9,129.2,134.9,129.0,6.0
233.75,121.3,129.4,135.0,128.6,6.9
238.0,120.2,126.1,133.9,126.7,6.9
242.25,117.2,126.9,133.2,125.8,8.1
246.5,118.5,125.0,131.5,125.0,6.5
250.75,118.4,125.2,131.5,125.0,6.5
255.0,116.5,122.5,128.6,122.5,6.0
259.25,117.8,123.6,128.0,123.1,5.1
263.5,116.0,123.5,125.1,121.5,4.9
267.75,117.5,125.6,124.8,122.6,4.4
272.0,115.5,125.0,124.2,121.6,5.3
276.25,114.1,126.3,123.5,121.3,6.4
280.5,114.3,126.4,124.0,121.6,6.4
284.75,112.4,124.8,123.2,120.1,6.8
289.0,112.3,125.1,121.1,119.5,6.5
293.25,112.0,125.0,119.0,118.6,6.5
297.5,111.2,124.5,119.9,118.5,6.8
301.75,110.7,122.2,120.5,117.8,6.2
306.0,110.0,122.0,119.2,117.1,6.3
310.25,110.2,122.5,120.2,117.6,6.6
314.5,109.7,121.0,117.9,116.2,5.9
318.75,109.9,120.1,117.0,115.6,5.2
323.0,109.7,121.0,113.6,114.8,5.7
327.25,109.7,121.1,113.7,114.8,5.8
331.5,111.9,124.1,113.5,116.5,6.7
335.75,110.0,123.8,115.2,116.3,7.0
340.0,111.0,122.5,113.9,115.8,6.0
344.25,110.0,122.2,113.8,115.3,6.3
348.5,110.3,123.6,114.9,116.2,6.7
352.75,109.4,120.6,112.0,114.0,5.9
357.0,112.0,123.0,112.4,115.8,6.2
361.25,109.6,121.8,110.1,113.8,6.9
365.5,109.0,123.9,109.3,114.1,8.5
369.75,107.3,123.2,111.4,114.0,8.3
374.0,106.9,123.9,111.5,114.1,8.8
378.25,108.0,127.4,111.5,115.6,10.3
382.5,109.0,127.0,110.3,115.5,10.0
386.75,107.7,128.1,110.2,115.3,11.1
391.0,107.1,130.6,111.1,116.3,12.6
395.25,107.4,129.6,109.1,115.3,12.4
399.5,107.1,126.2,106.9,113.4,11.1
403.75,106.9,129.0,108.4,114.7,12.4
408.0,106.2,131.6,109.0,115.6,14.0
412.25,106.3,132.5,105.9,114.9,15.3
416.5,106.7,132.7,108.2,115.9,14.6
420.75,105.3,132.4,105.7,114.4,15.6
425.0,109.3,131.4,106.5,115.7,13.7
429.25,108.4,133.5,107.7,116.5,14.7
433.5,107.6,131.3,106.3,115.1,14.1
437.75,107.3,135.0,108.4,116.9,15.7
442.0,107.7,138.2,106.5,117.5,18.0
446.25,107.3,137.2,108.0,117.5,17.1
450.5,107.7,136.3,107.8,117.2,16.5
454.75,107.7,139.7,109.0,118.8,18.1
459.0,108.7,141.1,108.4,119.4,18.8
463.25,109.2,141.9,109.6,120.2,18.7
467.5,107.8,144.6,109.3,120.6,20.8
471.75,109.5,143.5,108.8,120.6,19.8
476.0,108.3,146.9,108.1,121.1,22.4
480.25,108.3,148.2,106.7,121.1,23.5
484.5,108.1,149.3,108.2,121.9,23.7
488.75,110.3,149.8,108.5,122.8,23.3
493.0,108.9,153.1,110.6,124.2,25.1
497.25,110.6,152.9,110.8,124.7,24.4
501.5,107.3,152.4,111.3,123.7,25.0
505.75,108.3,154.4,112.3,125.0,25.5
510.0,109.0,159.5,113.0,127.2,28.1
514.25,106.9,160.0,115.6,127.5,28.5
518.5,110.6,161.4,116.2,129.4,27.8
522.75,110.1,163.0,116.5,129.8,28.9
527.0,109.2,166.0,116.9,130.7,30.8
531.25,108.6,166.8,116.9,130.8,31.5
535.5,111.9,165.4,118.4,131.9,29.2
539.75,110.0,166.9,116.5,131.1,31.1
544.0,109.9,173.3,119.8,134.3,34.1
548.25,110.3,176.2,118.9,135.1,35.9
552.5,114.1,174.7,121.3,136.7,33.1
556.75,112.2,177.7,124.4,138.1,34.8
561.0,112.5,180.7,123.4,138.8,36.6
565.25,111.1,180.9,122.3,138.1,37.5
569.5,111.4,181.9,122.0,138.4,38.0
573.75,110.8,184.4,123.5,139.6,39.4
578.0,112.3,186.7,126.0,141.7,39.6
582.25,114.5,191.5,126.4,144.1,41.5
586.5,113.1,192.6,127.9,144.5,42.3
590.75,113.8,193.0,127.5,144.8,42.3
595.0,115.3,194.3,131.2,147.0,41.8
599.25,115.3,198.0,130.6,148.0,44.0
603.5,117.4,198.4,132.1,149.3,43.1
607.75,115.2,199.4,131.6,148.8,44.6
612.0,115.9,205.1,133.6,151.6,47.2
616.25,119.0,204.4,132.7,152.0,45.9
620.5,119.7,213.0,133.5,155.4,50.4
624.75,119.7,216.7,138.3,158.2,51.5
629.0,120.5,217.4,139.2,159.0,51.4
633.25,120.6,215.8,138.5,158.3,50.6
637.5,122.9,220.2,141.8,161.6,51.6
641.75,122.7,223.3,143.6,163.2,53.0
646.0,122.9,224.4,145.4,164.2,53.3
650.25,123.4,229.1,147.7,166.7,55.4
654.5,124.1,230.0,151.3,168.5,55.0
658.75,128.1,228.0,150.5,168.9,52.4
663.0,130.4,233.8,152.9,172.4,54.4
667.25,129.4,233.2,157.1,173.2,53.8
671.5,133.6,237.3,156.7,175.9,54.5
675.75,135.4,239.9,160.0,178.4,54.6
680.0,136.0,244.6,160.1,180.3,57.0
684.25,135.4,250.8,164.7,183.7,60.0
688.5,137.6,250.5,164.3,184.2,59.0
692.75,142.9,251.2,167.0,187.1,56.9
697.0,144.4,246.8,166.3,185.8,53.9
701.25,143.9,248.4,169.7,187.3,54.5
705.5,147.1,251.6,171.6,190.1,54.6
709.75,150.5,249.4,175.1,191.7,51.5
714.0,152.3,254.1,175.9,194.1,53.3
718.25,152.9,252.5,181.1,195.5,51.3
722.5,156.6,248.2,179.2,194.6,47.7
726.75,160.6,253.5,182.4,198.8,48.6
731.0,162.9,253.6,188.1,201.5,46.8
735.25,163.8,252.5,188.4,201.6,45.8
739.5,170.2,252.2,195.4,205.9,42.0
743.75,169.2,248.1,194.5,203.9,40.3
748.0,172.8,248.7,195.6,205.7,39.0
752.25,179.6,243.0,192.4,205.0,33.5
756.5,176.8,240.0,202.5,206.5,31.8
760.75,179.5,241.2,195.3,205.3,32.0
765.0,183.8,243.6,199.6,209.0,31.0
769.25,184.4,236.1,202.3,207.6,26.2
773.5,187.6,229.7,199.7,205.7,21.7
777.75,191.4,223.0,204.6,206.3,15.8
782.0,190.8,217.0,199.8,202.5,13.3
786.25,198.9,219.5,197.9,205.5,12.2
790.5,200.2,212.7,197.7,203.5,8.0
794.75,199.3,198.7,199.4,199.1,0.4
799.0,203.9,191.8,200.6,198.8,6.3
803.25,201.6,188.5,203.8,198.0,8.2
807.5,208.9,180.5,199.3,196.3,14.4
811.75,206.2,176.6,199.9,194.2,15.6
816.0,209.1,167.6,198.2,191.6,21.5
820.25,210.5,163.9,199.6,191.3,24.4
824.5,211.3,150.7,203.4,188.5,32.9
828.75,219.1,142.3,201.7,187.7,40.3
833.0,217.5,137.1,201.4,185.3,42.5
837.25,219.6,133.3,198.6,183.8,45.0
841.5,223.6,126.4,202.0,184.0,51.1
845.75,225.6,121.7,202.3,183.2,54.5
850.0,225.9,117.6,197.5,180.4,56.2
854.25,224.2,112.6,201.2,179.3,58.9
858.5,225.6,111.3,198.4,178.5,59.7
862.75,222.7,107.6,197.2,175.8,60.5
867.0,223.3,102.6,192.0,172.7,62.6
871.25,223.1,99.9,193.4,172.1,64.3
875.5,225.5,96.4,191.0,171.0,66.9
879.75,223.1,91.8,189.9,168.3,68.3
884.0,221.0,88.4,186.0,165.2,68.7
888.25,217.0,84.8,184.9,162.3,69.0
892.5,218.7,82.0,176.9,159.2,70.1
896.75,217.8,79.9,173.0,156.9,70.4
901.0,214.4,77.6,170.6,154.2,69.9
905.25,213.7,74.2,165.0,151.0,70.8
909.5,207.5,71.6,162.3,147.1,69.2
913.75,203.9,68.5,156.6,143.0,68.7
918.0,201.6,64.9,154.3,140.3,69.4
922.25,196.0,61.2,149.0,135.4,68.4
926.5,192.0,57.8,144.7,131.5,68.1
930.75,186.2,57.3,138.4,127.3,65.1
935.0,177.9,54.8,133.9,122.2,62.4
939.25,174.9,52.0,133.0,120.0,62.5
943.5,174.1,50.1,129.9,118.0,62.9
947.75,166.8,48.4,123.4,112.9,59.9
952.0,163.7,47.1,119.2,110.0,58.8
956.25,159.6,48.0,113.4,107.0,56.1
960.5,150.8,47.0,108.7,102.2,52.2
964.75,147.6,46.4,103.2,99.1,50.7
969.0,143.5,46.6,99.8,96.6,48.5
973.25,140.4,47.0,93.4,93.6,46.7
977.5,133.2,46.5,86.2,88.7,43.4
981.75,126.5,45.5,82.3,84.8,40.6
986.0,122.6,45.1,76.8,81.5,39.0
990.25,116.4,45.2,73.8,78.5,35.9
994.5,107.8,45.5,68.1,73.8,31.5
998.75,102.8,44.6,64.7,70.7,29.6
1003.0,97.9,44.9,61.2,68.0,27.2
1007.25,92.4,42.3,57.0,63.9,25.8
1011.5,87.4,41.9,55.0,61.5,23.4
1015.75,84.8,43.8,52.1,60.2,21.6
1020.0,79.4,43.2,50.7,57.8,19.1
1024.25,77.5,43.9,49.5,56.9,18.0
1028.5,72.1,43.5,49.5,55.0,15.1
1032.75,67.6,42.5,48.9,53.0,13.0
1037.0,64.7,42.4,47.4,51.5,11.7
1041.25,59.3,41.7,46.3,49.1,9.2
1045.5,55.0,42.0,45.4,47.5,6.7
1049.75,52.3,42.7,45.8,46.9,4.9
1054.0,52.2,42.0,44.8,46.3,5.3
1058.25,51.8,42.3,44.6,46.2,5.0
1062.5,50.6,42.3,45.2,46.0,4.2
1066.75,50.8,43.5,44.9,46.4,3.9
1071.0,49.0,42.4,45.6,45.7,3.3
1075.25,47.9,41.7,44.7,44.8,3.1
1079.5,48.4,41.5,44.7,44.9,3.5
1083.75,49.0,41.8,44.8,45.2,3.6
1088.0,47.5,42.3,43.9,44.5,2.7
1092.25,48.0,,43.3,45.7,3.3
1096.5,48.7,,,48.7,
1100.75,51.3,,,51.3,
1105.0,52.7,,,52.7,
1109.25,52.8,,,52.8,
1113.5,51.9,,,51.9,
1117.75,48.4,,,48.4,
1122.0,46.6,,,46.6,
1126.25,46.8,,,46.8,
1130.5,46.1,,,46.1,
1134.75,44.0,,,44.0,
1139.0,42.4,,,42.4,
1143.25,44.1,,,44.1,
1147.5,41.9,,,41.9,
1151.75,42.0,,,42.0,
1156.0,42.7,,,42.7,
1160.25,42.8,,,42.8,
1164.5,42.3,,,42.3,
1168.75,40.8,,,40.8,
1173.0,40.7,,,40.7,
1177.25,40.4,,,40.4,
1181.5,39.6,,,39.6,
1185.75,39.9,,,39.9,
1190.0,39.7,,,39.7,
1194.25,39.8,,,39.8,
1198.5,39.1,,,39.1,
1202.75,38.6,,,38.6,
1207.0,38.7,,,38.7,
1211.0,39.0,,,39.0,