File: 01_Data/Oak_Flooring/Cone/Oak_Flooring_HRRPUA_25.csv
Time after Ignition,Oak_Flooring_R1,Oak_Flooring_R2,Oak_Flooring_R3,Oak_Flooring_R4,Mean,Std. Dev.
0.0,6.2,9.6,20.4,12.9,12.3,6.1
5.0,166.5,120.1,123.8,110.6,130.2,24.8
10.0,272.3,211.4,210.9,218.0,228.1,29.6
15.0,299.0,232.7,248.0,258.3,259.5,28.4
20.0,299.0,229.3,260.8,260.8,262.5,28.5
25.0,276.8,223.9,253.4,247.7,250.4,21.7
30.0,249.2,210.0,247.0,227.2,233.4,18.5
35.0,219.7,199.9,235.0,211.1,216.4,14.8
40.0,197.6,189.2,228.7,200.3,204.0,17.2
45.0,180.1,180.0,212.0,193.4,191.4,15.1
50.0,158.5,173.8,197.6,182.4,178.1,16.3
55.0,151.6,163.6,191.1,173.7,170.0,16.7
60.0,142.9,156.9,178.4,166.9,161.3,15.1
65.0,132.9,149.2,173.9,157.6,153.4,17.1
70.0,128.2,141.5,169.2,151.6,147.6,17.3
75.0,120.6,136.4,163.9,146.1,141.7,18.1
80.0,120.0,130.2,155.8,138.5,136.1,15.1
85.0,115.6,126.1,151.4,136.3,132.3,15.3
90.0,114.0,123.2,149.7,128.1,128.8,15.1
95.0,111.0,120.2,144.1,124.7,125.0,14.0
100.0,110.4,117.1,141.6,124.0,123.3,13.4
105.0,108.6,114.9,138.1,123.4,121.2,12.8
110.0,109.7,110.0,133.2,118.5,117.9,11.0
115.0,107.5,108.1,131.2,114.8,115.4,11.0
120.0,107.9,106.1,126.3,116.1,114.1,9.2
125.0,106.5,103.5,124.2,113.1,111.8,9.2
130.0,104.0,103.2,122.0,110.4,109.9,8.7
135.0,104.2,100.2,121.4,107.3,108.3,9.2
140.0,101.0,97.7,120.0,103.3,105.5,9.9
145.0,100.0,96.3,120.8,102.4,104.9,10.9
150.0,100.3,93.7,117.9,100.8,103.2,10.3
155.0,97.1,92.2,116.8,99.0,101.3,10.7
160.0,94.2,91.5,116.4,97.9,100.0,11.3
165.0,92.5,89.1,115.4,95.2,98.1,11.8
170.0,90.4,86.3,113.0,94.3,96.0,11.8
175.0,89.5,86.7,110.6,98.9,96.4,10.8
180.0,89.4,84.4,107.9,100.3,95.5,10.6
185.0,91.1,82.5,105.0,100.4,94.7,10.0
190.0,90.2,79.9,102.9,99.9,93.2,10.4
195.0,89.6,77.0,101.1,97.4,91.3,10.7
200.0,86.1,75.7,99.0,98.1,89.7,11.0
205.0,86.7,75.3,99.9,96.9,89.7,11.2
210.0,85.7,75.4,100.4,96.7,89.6,11.3
215.0,82.1,74.2,97.3,95.1,87.1,11.0
220.0,80.9,72.9,98.9,92.5,86.3,11.6
225.0,82.6,71.5,96.2,92.3,85.6,11.0
230.0,82.6,68.3,94.4,90.8,84.0,11.6
235.0,81.1,69.5,93.3,90.6,83.6,10.8
240.0,80.4,68.7,92.0,89.7,82.7,10.6
245.0,80.0,67.6,89.1,87.8,81.1,9.9
250.0,79.6,66.0,88.0,88.4,80.5,10.5
255.0,78.7,65.5,86.8,87.1,79.5,10.1
260.0,79.1,63.9,88.5,86.7,79.5,11.2
265.0,78.0,63.6,84.6,85.5,77.9,10.1
270.0,78.0,63.8,83.6,84.6,77.5,9.6
275.0,78.2,63.0,82.6,85.7,77.3,10.1
280.0,78.9,62.7,82.7,84.2,77.1,9.9
285.0,77.9,63.9,82.1,83.6,76.9,9.0
290.0,78.5,64.2,84.1,83.1,77.5,9.2
295.0,78.2,63.7,84.8,83.8,77.6,9.7
300.0,77.2,61.9,82.6,80.0,75.4,9.3
305.0,76.5,61.1,82.2,82.3,75.5,10.0
310.0,79.0,61.0,84.0,81.3,76.3,10.4
315.0,77.5,61.9,85.2,78.9,75.9,9.9
320.0,75.9,60.7,84.4,80.6,75.4,10.4
325.0,76.3,61.5,84.4,79.8,75.5,9.9
330.0,75.1,61.8,83.9,79.4,75.0,9.5
335.0,73.6,61.4,84.1,80.6,74.9,10.0
340.0,73.9,62.1,83.7,80.2,75.0,9.5
345.0,74.3,61.8,83.2,79.7,74.7,9.4
350.0,75.3,60.8,83.3,79.1,74.6,9.8
355.0,75.1,61.0,83.5,80.0,74.9,9.9
360.0,75.5,61.2,82.3,78.6,74.4,9.3
365.0,76.5,60.6,83.4,78.8,74.8,9.9
370.0,74.7,60.6,83.6,79.0,74.5,9.9
375.0,74.7,61.9,82.7,79.8,74.8,9.2
380.0,76.4,61.5,83.7,77.9,74.9,9.5
385.0,75.9,60.7,84.4,79.3,75.1,10.2
390.0,76.7,62.0,82.9,80.9,75.7,9.5
395.0,76.8,60.6,84.2,81.0,75.6,10.5
400.0,76.9,60.2,84.3,80.9,75.6,10.7
405.0,76.8,60.8,84.3,80.9,75.7,10.4
410.0,77.1,61.5,83.9,81.9,76.1,10.1
415.0,75.1,61.9,85.2,79.4,75.4,9.9
420.0,78.8,62.9,85.3,79.9,76.7,9.7
425.0,77.5,62.4,83.4,80.0,75.8,9.3
430.0,76.8,62.8,84.6,81.3,76.4,9.6
435.0,77.5,62.5,86.1,80.9,76.7,10.1
440.0,79.1,62.2,86.7,79.9,77.0,10.4
445.0,77.3,63.9,86.0,78.7,76.5,9.2
450.0,77.8,63.2,85.9,78.8,76.4,9.5
455.0,79.7,65.5,86.5,80.9,78.2,9.0
460.0,80.2,65.3,87.8,80.1,78.4,9.4
465.0,79.1,63.0,88.1,81.2,77.8,10.6
470.0,78.4,64.8,88.9,81.3,78.3,10.0
475.0,78.5,64.2,87.8,80.3,77.7,9.9
480.0,78.6,65.2,89.6,82.1,78.9,10.2
485.0,78.4,65.7,89.5,82.1,78.9,9.9
490.0,78.1,65.9,89.0,83.1,79.0,9.8
495.0,79.1,65.2,89.9,84.5,79.7,10.6
500.0,78.3,65.8,90.5,81.7,79.1,10.2
505.0,80.3,65.5,92.2,82.1,80.0,11.0
510.0,78.7,65.3,92.9,81.7,79.6,11.4
515.0,77.6,65.9,93.8,82.2,79.9,11.6
520.0,78.4,66.2,93.1,82.2,80.0,11.1
525.0,78.9,67.6,93.5,82.7,80.7,10.7
530.0,78.8,68.9,96.4,81.6,81.4,11.4
535.0,81.0,68.8,97.4,80.7,82.0,11.8
540.0,81.2,68.4,96.3,82.3,82.1,11.4
545.0,83.6,68.3,96.9,82.8,82.9,11.7
550.0,83.2,67.6,97.3,83.0,82.8,12.1
555.0,81.6,66.7,99.5,83.3,82.8,13.4
560.0,83.2,66.9,100.4,83.7,83.6,13.7
565.0,82.0,65.7,101.9,84.2,83.5,14.8
570.0,84.3,66.4,102.9,85.0,84.6,14.9
575.0,84.8,67.8,104.7,84.1,85.3,15.1
580.0,83.5,67.3,108.5,84.7,86.0,17.0
585.0,84.7,68.2,108.9,84.0,86.4,16.8
590.0,88.6,67.7,110.2,85.4,88.0,17.4
595.0,86.5,66.7,112.0,85.6,87.7,18.6
600.0,89.6,66.7,113.5,86.8,89.2,19.2
605.0,87.3,67.0,115.9,85.6,89.0,20.2
610.0,89.8,68.3,117.5,85.9,90.4,20.3
615.0,93.5,69.2,121.9,85.3,92.5,22.1
620.0,93.1,69.5,124.2,87.1,93.5,22.8
625.0,95.8,71.3,127.5,88.1,95.7,23.6
630.0,96.7,72.8,130.3,90.4,97.5,24.0
635.0,98.4,73.8,133.1,89.3,98.7,25.1
640.0,100.5,74.4,140.4,91.0,101.6,28.1
645.0,104.5,73.2,143.9,92.3,103.5,29.9
650.0,104.1,74.4,145.9,92.3,104.2,30.4
655.0,106.1,76.4,153.4,94.8,107.7,32.9
660.0,108.7,77.7,156.5,93.8,109.2,34.0
665.0,111.9,77.7,164.1,96.3,112.5,37.1
670.0,114.7,76.8,169.5,96.1,114.3,40.0
675.0,118.4,78.7,176.2,97.6,117.7,42.2
680.0,121.4,79.6,180.1,100.7,120.4,43.3
685.0,124.3,82.5,186.1,101.7,123.7,45.0
690.0,126.7,82.6,197.0,102.0,127.1,50.0
695.0,129.8,82.3,199.0,102.6,128.4,50.9
700.0,130.9,81.4,201.3,106.0,129.9,51.7
705.0,130.9,83.2,210.8,107.1,133.0,55.4
710.0,133.2,84.2,221.8,105.5,136.2,60.5
715.0,135.3,87.4,228.1,108.4,139.8,62.0
720.0,134.3,86.9,235.1,111.0,141.8,65.1
725.0,134.2,86.9,245.1,111.8,144.5,69.8
730.0,133.8,89.7,249.5,114.1,146.8,70.8
735.0,131.5,92.8,254.5,116.2,148.7,72.3
740.0,130.4,93.2,263.0,118.9,151.4,76.0
745.0,130.8,95.5,264.7,119.0,152.5,76.2
750.0,133.0,94.5,262.9,125.9,154.1,74.5
755.0,131.2,95.8,258.0,123.2,152.1,72.2
760.0,133.5,98.5,248.6,125.6,151.5,66.4
765.0,132.6,101.4,245.6,127.4,151.7,64.0
770.0,131.7,102.1,247.8,131.5,153.3,64.5
775.0,133.0,105.5,240.7,134.5,153.4,59.7
780.0,132.2,106.4,235.6,135.0,152.3,57.0
785.0,139.1,106.6,236.5,137.2,154.9,56.4
790.0,138.5,108.1,236.6,141.9,156.3,55.7
795.0,139.8,109.8,233.2,145.1,157.0,53.2
800.0,142.4,113.0,235.6,145.6,159.1,53.1
805.0,142.7,113.8,234.8,145.9,159.3,52.3
810.0,141.6,117.3,239.2,150.3,162.1,53.3
815.0,145.3,119.4,229.2,153.5,161.8,47.2
820.0,148.4,120.6,234.1,155.6,164.7,48.7
825.0,149.6,124.0,230.7,156.4,165.2,45.9
830.0,151.6,124.4,229.9,163.4,167.3,44.8
835.0,154.8,128.5,229.3,164.6,169.3,42.8
840.0,156.8,130.3,228.0,167.4,170.6,41.3
845.0,156.2,131.5,218.4,169.6,168.9,36.6
850.0,158.2,133.7,211.6,173.0,169.1,32.6
855.0,164.8,137.2,201.7,180.7,171.1,27.2
860.0,166.4,139.2,198.8,183.3,171.9,25.5
865.0,167.9,144.0,193.6,188.8,173.6,22.7
870.0,167.3,149.2,189.1,193.3,174.7,20.5
875.0,171.0,150.5,185.3,194.4,175.3,19.1
880.0,168.6,148.5,179.3,198.2,173.6,20.8
885.0,175.0,156.6,176.2,204.1,178.0,19.6
890.0,172.0,157.8,168.3,206.3,176.1,21.0
895.0,171.6,164.4,164.6,207.4,177.0,20.6
900.0,175.9,165.7,156.5,215.5,178.4,26.0
905.0,171.0,165.4,150.3,217.1,176.0,28.8
910.0,170.7,170.7,146.2,218.2,176.4,30.1
915.0,169.8,169.2,139.8,219.0,174.5,32.8
920.0,165.6,177.7,134.4,218.0,173.9,34.6
925.0,162.6,179.1,128.9,221.1,172.9,38.3
930.0,158.6,183.4,118.9,223.9,171.2,44.0
935.0,154.9,192.2,113.6,228.0,172.1,49.2
940.0,150.4,187.4,107.4,219.3,166.1,48.2
945.0,145.8,196.6,98.7,216.1,164.3,52.8
950.0,147.5,200.6,91.1,214.3,163.4,56.2
955.0,149.3,207.3,85.7,207.8,162.6,58.1
960.0,148.7,212.7,78.3,200.9,160.2,61.3
965.0,150.0,217.4,71.9,197.9,159.3,64.8
970.0,149.1,224.2,64.4,193.4,157.8,69.5
975.0,148.3,221.0,59.7,181.6,152.6,68.7
980.0,150.1,227.2,56.5,171.3,151.2,71.1
985.0,150.1,227.2,50.2,163.7,147.8,73.2
990.0,147.2,226.7,46.9,157.0,144.4,74.0
995.0,149.3,221.8,43.4,154.2,142.2,73.7
1000.0,151.6,225.3,41.2,147.6,141.4,75.8
1005.0,147.0,223.3,38.6,144.1,138.3,75.9
1010.0,143.7,228.9,35.8,138.6,136.8,79.0
1015.0,148.9,220.1,33.1,133.7,134.0,77.1
1020.0,145.1,217.8,34.0,129.1,131.5,75.6
1025.0,138.6,217.0,33.2,128.1,129.2,75.3
1030.0,134.2,213.2,31.6,126.4,126.4,74.4
1035.0,130.7,209.1,30.5,124.3,123.7,73.1
1040.0,128.0,202.6,29.8,123.7,121.0,70.8
1045.0,119.7,197.1,,121.6,146.1,44.2
1050.0,115.7,189.9,,120.1,141.9,41.6
1055.0,110.6,181.1,,121.8,137.9,37.9
1060.0,104.4,177.1,,120.0,133.8,38.3
1065.0,100.2,172.5,,120.2,131.0,37.3
1070.0,96.9,163.2,,118.8,126.3,33.8
1075.0,92.8,156.9,,119.6,123.1,32.2
1080.0,92.3,146.8,,122.0,120.4,27.3
1085.0,86.9,139.6,,123.4,116.6,27.0
1090.0,84.2,135.7,,124.3,114.7,27.1
1095.0,82.1,128.9,,124.3,111.8,25.7
1100.0,79.1,123.3,,126.4,109.6,26.5
1105.0,76.8,118.0,,128.3,107.7,27.2
1110.0,74.7,117.1,,130.6,107.5,29.2
1115.0,72.6,115.3,,131.0,106.3,30.2
1120.0,70.8,112.5,,129.4,104.2,30.2
1125.0,68.8,113.1,,128.8,103.6,31.1
1130.0,67.5,113.9,,130.7,104.0,32.8
1135.0,65.3,113.6,,129.8,102.9,33.5
1140.0,62.8,113.0,,132.1,102.6,35.8
1145.0,60.7,114.2,,129.0,101.3,35.9
1150.0,57.8,118.0,,126.8,100.8,37.5
1155.0,57.0,115.4,,129.4,100.6,38.4
1160.0,58.1,116.8,,128.0,101.0,37.5
1165.0,57.3,117.7,,124.6,99.9,37.0
1170.0,57.1,117.0,,127.6,100.6,38.0
1175.0,56.8,116.4,,125.1,99.4,37.2
1180.0,54.7,119.0,,124.9,99.5,38.9
1185.0,52.4,119.6,,123.9,98.6,40.1
1190.0,52.7,122.7,,122.0,99.1,40.2
1195.0,53.1,119.0,,120.6,97.6,38.5
1200.0,52.8,120.9,,120.8,98.2,39.3
1205.0,51.6,120.6,,119.1,97.1,39.4
1210.0,51.8,122.2,,117.2,97.0,39.3
1215.0,51.6,124.0,,118.4,98.0,40.3
1220.0,52.8,123.9,,116.1,97.6,39.0
1225.0,53.8,122.8,,109.3,95.3,36.6
1230.0,53.1,126.3,,107.1,95.5,37.9
1235.0,51.2,125.7,,106.2,94.4,38.6
1240.0,49.9,122.4,,102.1,91.5,37.4
1245.0,50.4,124.9,,102.1,92.5,38.1
1250.0,50.1,124.7,,99.3,91.4,37.9
1255.0,49.6,124.6,,97.1,90.4,37.9
1260.0,48.8,122.1,,93.2,88.1,36.9
1265.0,48.3,123.6,,89.5,87.1,37.8
1270.0,48.1,119.2,,84.7,84.0,35.6
1275.0,48.9,120.6,,81.7,83.7,35.9
1279.0,48.7,118.8,,79.1,82.2,35.1