File: 01_Data/PlasticB/FTIR/IS/PlasticB_IS_S_220901_R1.dpt
7497.03,0.82069
7473.89,0.82294
7450.74,0.81900
7427.6,0.78936
7404.45,0.80011
7381.31,0.79936
7358.16,0.80355
7335.02,0.79546
7311.87,0.77834
7288.73,0.76336
7265.58,0.73804
7242.44,0.73091
7219.29,0.71620
7196.15,0.69728
7173,0.69069
7149.86,0.69489
7126.71,0.69231
7103.57,0.68294
7080.42,0.66400
7057.28,0.67083
7034.13,0.67571
7010.99,0.68436
6987.84,0.68758
6964.7,0.68117
6941.55,0.69273
6918.41,0.70247
6895.26,0.70984
6872.12,0.72017
6848.97,0.72882
6825.83,0.72706
6802.68,0.72524
6779.54,0.73969
6756.39,0.74066
6733.25,0.74377
6710.1,0.74082
6686.96,0.74943
6663.82,0.76072
6640.67,0.76263
6617.53,0.76625
6594.38,0.76815
6571.24,0.77270
6548.09,0.77853
6524.95,0.78293
6501.8,0.78981
6478.66,0.80013
6455.51,0.79565
6432.37,0.79991
6409.22,0.79874
6386.08,0.79426
6362.93,0.78402
6339.79,0.78096
6316.64,0.77922
6293.5,0.76441
6270.35,0.75888
6247.21,0.73771
6224.06,0.71404
6200.92,0.69061
6177.77,0.64319
6154.63,0.55864
6131.48,0.48407
6108.34,0.42626
6085.19,0.43203
6062.05,0.45408
6038.9,0.44641
6015.76,0.32892
5992.61,0.24391
5969.47,0.19489
5946.32,0.18720
5923.18,0.20521
5900.03,0.22159
5876.89,0.26412
5853.74,0.29223
5830.6,0.29785
5807.45,0.29824
5784.31,0.30346
5761.16,0.35886
5738.02,0.39900
5714.87,0.36436
5691.73,0.33377
5668.58,0.31705
5645.44,0.34819
5622.29,0.37744
5599.15,0.38066
5576,0.38023
5552.86,0.38797
5529.71,0.38483
5506.57,0.39096
5483.42,0.40796
5460.28,0.41522
5437.13,0.40953
5413.99,0.40707
5390.84,0.40507
5367.7,0.40303
5344.55,0.41905
5321.41,0.42886
5298.26,0.43247
5275.12,0.43587
5251.97,0.43432
5228.83,0.43236
5205.68,0.44446
5182.54,0.44951
5159.39,0.45186
5136.25,0.44720
5113.1,0.44580
5089.96,0.45094
5066.81,0.45266
5043.67,0.45125
5020.52,0.45389
4997.38,0.45162
4974.23,0.44157
4951.09,0.44415
4927.94,0.44303
4904.8,0.44145
4881.65,0.43365
4858.51,0.42608
4835.36,0.41280
4812.22,0.41564
4789.07,0.41014
4765.93,0.37400
4742.78,0.36401
4719.64,0.31496
4696.49,0.26691
4673.35,0.14813
4650.2,0.15115
4627.06,0.13314
4603.92,0.12615
4580.77,0.16588
4557.63,0.18727
4534.48,0.23214
4511.34,0.23313
4488.19,0.24627
4465.05,0.26181
4441.9,0.24062
4418.76,0.22839
4395.61,0.19513
4372.47,0.15710
4349.32,0.12813
4326.18,0.11848
4303.03,0.13634
4279.89,0.12336
4256.74,0.10466
4233.6,0.10562
4210.45,0.10701
4187.31,0.11552
4164.16,0.12290
4141.02,0.12204
4117.87,0.11232
4094.73,0.10554
4071.58,0.08816
4048.44,0.08165
4025.29,0.08673
4002.15,0.10685
3979,0.11873
3955.86,0.12356
3932.71,0.12061
3909.57,0.12542
3886.42,0.12815
3863.28,0.12769
3840.13,0.12571
3816.99,0.11924
3793.84,0.12255
3770.7,0.12824
3747.55,0.13307
3724.41,0.12488
3701.26,0.11795
3678.12,0.11279
3654.97,0.10421
3631.83,0.11720
3608.68,0.13044
3585.54,0.13490
3562.39,0.14921
3539.25,0.14673
3516.1,0.14191
3492.96,0.13633
3469.81,0.12904
3446.67,0.12326
3423.52,0.13187
3400.38,0.13514
3377.23,0.13734
3354.09,0.14042
3330.94,0.13476
3307.8,0.11575
3284.65,0.11742
3261.51,0.11984
3238.36,0.11649
3215.22,0.10793
3192.07,0.09740
3168.93,0.08702
3145.78,0.08394
3122.64,0.07633
3099.49,0.06605
3076.35,0.06566
3053.2,0.06630
3030.06,0.06459
3006.91,0.06691
2983.77,0.06727
2960.62,0.06514
2937.48,0.06270
2914.33,0.06844
2891.19,0.06885
2868.04,0.06794
2844.9,0.06908
2821.75,0.07059
2798.61,0.07150
2775.46,0.07337
2752.32,0.07605
2729.17,0.07514
2706.03,0.07488
2682.88,0.07453
2659.74,0.07483
2636.59,0.07343
2613.45,0.07470
2590.3,0.07548
2567.16,0.07607
2544.02,0.07550
2520.87,0.07533
2497.73,0.07582
2474.58,0.07839
2451.44,0.08010
2428.29,0.08176
2405.15,0.08023
2382,0.07876
2358.86,0.07554
2335.71,0.07149
2312.57,0.07368
2289.42,0.07756
2266.28,0.07861
2243.13,0.07903
2219.99,0.08117
2196.84,0.08193
2173.7,0.08314
2150.55,0.08381
2127.41,0.08642
2104.26,0.08688
2081.12,0.08792
2057.97,0.08577
2034.83,0.08268
2011.68,0.07899
1988.54,0.07165
1965.39,0.06703
1942.25,0.06626
1919.1,0.06968
1895.96,0.06731
1872.81,0.06627
1849.67,0.06896
1826.52,0.06707
1803.38,0.06565
1780.23,0.06741
1757.09,0.06573
1733.94,0.06598
1710.8,0.06712
1687.65,0.06606
1664.51,0.06516
1641.36,0.06554
1618.22,0.06476
1595.07,0.06606
1571.93,0.06591
1548.78,0.06470
1525.64,0.06424
1502.49,0.06058
1479.35,0.06612
1456.2,0.05926
1433.06,0.06818
1409.91,0.06599
1386.77,0.06472
1363.62,0.06504
1340.48,0.06518
1317.33,0.06504
1294.19,0.06492
1271.04,0.06563
1247.9,0.06570
1224.75,0.06440
1201.61,0.06375
1178.46,0.06449
1155.32,0.06478
1132.17,0.06558
1109.03,0.06464
1085.88,0.06297
1062.74,0.06452
1039.59,0.06348
1016.45,0.06664
993.304,0.06415
970.159,0.06297
947.014,0.06388
923.869,0.06298
900.724,0.06339
877.579,0.06252
854.434,0.06050
831.289,0.06172
808.144,0.05967
784.999,0.05597
761.854,0.05553
738.709,0.06641
715.565,0.04936
692.42,0.11376
669.275,0.07465
646.13,0.07041
622.985,0.06805
599.84,0.06687