File: 01_Data/PlasticB/FTIR/IS/PlasticB_IS_S_220901_R7.dpt
7497.03,0.82489
7473.89,0.82378
7450.74,0.81720
7427.6,0.79986
7404.45,0.79433
7381.31,0.80082
7358.16,0.80082
7335.02,0.79723
7311.87,0.77742
7288.73,0.75738
7265.58,0.73897
7242.44,0.73257
7219.29,0.71494
7196.15,0.70490
7173,0.69250
7149.86,0.68923
7126.71,0.69045
7103.57,0.68644
7080.42,0.67157
7057.28,0.66663
7034.13,0.68348
7010.99,0.68701
6987.84,0.68546
6964.7,0.68627
6941.55,0.69826
6918.41,0.70248
6895.26,0.70601
6872.12,0.72189
6848.97,0.73080
6825.83,0.72829
6802.68,0.73417
6779.54,0.73866
6756.39,0.73530
6733.25,0.73897
6710.1,0.74758
6686.96,0.75118
6663.82,0.75825
6640.67,0.76595
6617.53,0.76620
6594.38,0.76671
6571.24,0.77692
6548.09,0.77529
6524.95,0.78323
6501.8,0.78949
6478.66,0.79140
6455.51,0.79747
6432.37,0.79501
6409.22,0.79484
6386.08,0.79300
6362.93,0.78186
6339.79,0.78128
6316.64,0.77332
6293.5,0.76184
6270.35,0.75752
6247.21,0.73590
6224.06,0.71418
6200.92,0.68785
6177.77,0.64269
6154.63,0.55654
6131.48,0.48754
6108.34,0.42681
6085.19,0.42938
6062.05,0.45349
6038.9,0.44173
6015.76,0.32965
5992.61,0.24644
5969.47,0.19500
5946.32,0.18943
5923.18,0.20633
5900.03,0.21891
5876.89,0.26522
5853.74,0.29330
5830.6,0.29655
5807.45,0.29747
5784.31,0.30671
5761.16,0.35532
5738.02,0.39880
5714.87,0.36217
5691.73,0.33413
5668.58,0.31633
5645.44,0.34547
5622.29,0.37551
5599.15,0.38052
5576,0.38214
5552.86,0.38865
5529.71,0.38495
5506.57,0.39031
5483.42,0.40874
5460.28,0.41483
5437.13,0.41027
5413.99,0.41067
5390.84,0.40291
5367.7,0.40384
5344.55,0.41796
5321.41,0.42892
5298.26,0.43147
5275.12,0.43712
5251.97,0.43555
5228.83,0.43414
5205.68,0.44381
5182.54,0.44889
5159.39,0.45055
5136.25,0.44545
5113.1,0.44648
5089.96,0.45181
5066.81,0.45248
5043.67,0.45051
5020.52,0.45473
4997.38,0.44874
4974.23,0.44119
4951.09,0.44433
4927.94,0.44156
4904.8,0.44209
4881.65,0.43265
4858.51,0.42591
4835.36,0.41249
4812.22,0.41431
4789.07,0.40907
4765.93,0.37232
4742.78,0.36232
4719.64,0.31540
4696.49,0.26753
4673.35,0.14878
4650.2,0.15046
4627.06,0.13279
4603.92,0.12679
4580.77,0.16449
4557.63,0.18672
4534.48,0.23228
4511.34,0.23352
4488.19,0.24590
4465.05,0.26033
4441.9,0.24075
4418.76,0.22781
4395.61,0.19484
4372.47,0.15751
4349.32,0.12725
4326.18,0.11894
4303.03,0.13697
4279.89,0.12364
4256.74,0.10392
4233.6,0.10528
4210.45,0.10725
4187.31,0.11548
4164.16,0.12275
4141.02,0.12239
4117.87,0.11237
4094.73,0.10605
4071.58,0.08893
4048.44,0.08181
4025.29,0.08714
4002.15,0.10690
3979,0.11862
3955.86,0.12281
3932.71,0.12088
3909.57,0.12467
3886.42,0.12750
3863.28,0.12877
3840.13,0.12579
3816.99,0.11967
3793.84,0.12303
3770.7,0.12848
3747.55,0.13286
3724.41,0.12553
3701.26,0.11844
3678.12,0.11644
3654.97,0.10483
3631.83,0.11781
3608.68,0.13120
3585.54,0.13896
3562.39,0.15073
3539.25,0.14753
3516.1,0.14214
3492.96,0.13681
3469.81,0.12905
3446.67,0.12350
3423.52,0.13141
3400.38,0.13584
3377.23,0.13746
3354.09,0.14161
3330.94,0.13419
3307.8,0.11660
3284.65,0.11769
3261.51,0.12061
3238.36,0.11535
3215.22,0.10736
3192.07,0.09735
3168.93,0.08664
3145.78,0.08444
3122.64,0.07651
3099.49,0.06654
3076.35,0.06552
3053.2,0.06547
3030.06,0.06359
3006.91,0.06700
2983.77,0.06737
2960.62,0.06551
2937.48,0.06314
2914.33,0.06825
2891.19,0.06807
2868.04,0.06764
2844.9,0.06868
2821.75,0.06996
2798.61,0.07176
2775.46,0.07360
2752.32,0.07638
2729.17,0.07518
2706.03,0.07472
2682.88,0.07433
2659.74,0.07481
2636.59,0.07339
2613.45,0.07472
2590.3,0.07542
2567.16,0.07606
2544.02,0.07527
2520.87,0.07561
2497.73,0.07573
2474.58,0.07810
2451.44,0.08019
2428.29,0.08179
2405.15,0.08009
2382,0.07871
2358.86,0.07560
2335.71,0.07153
2312.57,0.07333
2289.42,0.07753
2266.28,0.07892
2243.13,0.07892
2219.99,0.08083
2196.84,0.08237
2173.7,0.08282
2150.55,0.08404
2127.41,0.08628
2104.26,0.08708
2081.12,0.08773
2057.97,0.08521
2034.83,0.08264
2011.68,0.07869
1988.54,0.07151
1965.39,0.06672
1942.25,0.06615
1919.1,0.06908
1895.96,0.06735
1872.81,0.06621
1849.67,0.06909
1826.52,0.06702
1803.38,0.06560
1780.23,0.06718
1757.09,0.06564
1733.94,0.06619
1710.8,0.06740
1687.65,0.06535
1664.51,0.06490
1641.36,0.06503
1618.22,0.06450
1595.07,0.06609
1571.93,0.06599
1548.78,0.06430
1525.64,0.06393
1502.49,0.06065
1479.35,0.06551
1456.2,0.05969
1433.06,0.06771
1409.91,0.06593
1386.77,0.06443
1363.62,0.06503
1340.48,0.06529
1317.33,0.06493
1294.19,0.06512
1271.04,0.06535
1247.9,0.06512
1224.75,0.06505
1201.61,0.06435
1178.46,0.06479
1155.32,0.06458
1132.17,0.06565
1109.03,0.06462
1085.88,0.06323
1062.74,0.06404
1039.59,0.06381
1016.45,0.06628
993.304,0.06403
970.159,0.06284
947.014,0.06374
923.869,0.06267
900.724,0.06324
877.579,0.06258
854.434,0.06153
831.289,0.06122
808.144,0.05929
784.999,0.05508
761.854,0.05587
738.709,0.06602
715.565,0.04976
692.42,0.11263
669.275,0.07535
646.13,0.06993
622.985,0.06729
599.84,0.06697