File: 01_Data/PlasticB/FTIR/IS/PlasticB_IS_S_220901_R2.dpt
7497.03,0.82779
7473.89,0.81858
7450.74,0.80348
7427.6,0.80167
7404.45,0.80053
7381.31,0.80253
7358.16,0.81082
7335.02,0.79610
7311.87,0.78185
7288.73,0.75834
7265.58,0.74113
7242.44,0.72528
7219.29,0.71636
7196.15,0.69393
7173,0.69253
7149.86,0.69582
7126.71,0.68645
7103.57,0.67990
7080.42,0.66302
7057.28,0.67422
7034.13,0.67735
7010.99,0.68705
6987.84,0.68898
6964.7,0.68627
6941.55,0.69764
6918.41,0.69927
6895.26,0.71001
6872.12,0.71917
6848.97,0.72079
6825.83,0.72407
6802.68,0.73163
6779.54,0.73528
6756.39,0.74042
6733.25,0.73620
6710.1,0.74918
6686.96,0.74955
6663.82,0.75718
6640.67,0.76416
6617.53,0.76563
6594.38,0.77038
6571.24,0.77366
6548.09,0.78136
6524.95,0.78597
6501.8,0.78942
6478.66,0.79256
6455.51,0.79534
6432.37,0.80094
6409.22,0.79610
6386.08,0.79174
6362.93,0.78426
6339.79,0.77792
6316.64,0.77340
6293.5,0.76381
6270.35,0.75755
6247.21,0.73973
6224.06,0.71706
6200.92,0.69018
6177.77,0.64594
6154.63,0.55609
6131.48,0.48444
6108.34,0.42904
6085.19,0.42846
6062.05,0.45565
6038.9,0.44281
6015.76,0.33082
5992.61,0.24885
5969.47,0.19646
5946.32,0.19238
5923.18,0.20450
5900.03,0.22074
5876.89,0.26435
5853.74,0.29160
5830.6,0.29439
5807.45,0.29698
5784.31,0.30601
5761.16,0.35749
5738.02,0.39951
5714.87,0.36187
5691.73,0.33468
5668.58,0.31687
5645.44,0.34626
5622.29,0.37809
5599.15,0.37986
5576,0.38184
5552.86,0.38689
5529.71,0.38573
5506.57,0.39078
5483.42,0.40700
5460.28,0.41348
5437.13,0.41232
5413.99,0.40775
5390.84,0.40388
5367.7,0.40408
5344.55,0.41756
5321.41,0.42882
5298.26,0.43187
5275.12,0.43721
5251.97,0.43435
5228.83,0.43428
5205.68,0.44364
5182.54,0.44812
5159.39,0.45225
5136.25,0.44785
5113.1,0.44793
5089.96,0.45280
5066.81,0.45265
5043.67,0.45021
5020.52,0.45421
4997.38,0.44965
4974.23,0.44231
4951.09,0.44385
4927.94,0.44266
4904.8,0.44309
4881.65,0.43308
4858.51,0.42679
4835.36,0.41222
4812.22,0.41548
4789.07,0.40991
4765.93,0.37387
4742.78,0.36420
4719.64,0.31472
4696.49,0.26658
4673.35,0.14858
4650.2,0.15094
4627.06,0.13343
4603.92,0.12746
4580.77,0.16443
4557.63,0.18694
4534.48,0.23210
4511.34,0.23414
4488.19,0.24650
4465.05,0.26163
4441.9,0.24075
4418.76,0.22773
4395.61,0.19555
4372.47,0.15774
4349.32,0.12791
4326.18,0.11872
4303.03,0.13703
4279.89,0.12388
4256.74,0.10491
4233.6,0.10571
4210.45,0.10715
4187.31,0.11626
4164.16,0.12312
4141.02,0.12201
4117.87,0.11252
4094.73,0.10592
4071.58,0.08925
4048.44,0.08204
4025.29,0.08675
4002.15,0.10732
3979,0.11898
3955.86,0.12294
3932.71,0.12100
3909.57,0.12532
3886.42,0.12789
3863.28,0.12816
3840.13,0.12555
3816.99,0.11944
3793.84,0.12265
3770.7,0.12858
3747.55,0.13347
3724.41,0.12554
3701.26,0.11766
3678.12,0.11461
3654.97,0.10419
3631.83,0.11762
3608.68,0.13082
3585.54,0.13618
3562.39,0.14995
3539.25,0.14736
3516.1,0.14301
3492.96,0.13573
3469.81,0.12875
3446.67,0.12331
3423.52,0.13187
3400.38,0.13547
3377.23,0.13759
3354.09,0.14030
3330.94,0.13472
3307.8,0.11673
3284.65,0.11792
3261.51,0.12030
3238.36,0.11618
3215.22,0.10753
3192.07,0.09786
3168.93,0.08711
3145.78,0.08349
3122.64,0.07581
3099.49,0.06699
3076.35,0.06498
3053.2,0.06615
3030.06,0.06401
3006.91,0.06712
2983.77,0.06738
2960.62,0.06489
2937.48,0.06362
2914.33,0.06888
2891.19,0.06896
2868.04,0.06788
2844.9,0.06951
2821.75,0.07016
2798.61,0.07168
2775.46,0.07349
2752.32,0.07631
2729.17,0.07483
2706.03,0.07523
2682.88,0.07492
2659.74,0.07461
2636.59,0.07346
2613.45,0.07507
2590.3,0.07578
2567.16,0.07617
2544.02,0.07537
2520.87,0.07549
2497.73,0.07626
2474.58,0.07859
2451.44,0.08016
2428.29,0.08184
2405.15,0.08036
2382,0.07899
2358.86,0.07556
2335.71,0.07150
2312.57,0.07335
2289.42,0.07758
2266.28,0.07876
2243.13,0.07889
2219.99,0.08122
2196.84,0.08226
2173.7,0.08289
2150.55,0.08407
2127.41,0.08622
2104.26,0.08729
2081.12,0.08811
2057.97,0.08535
2034.83,0.08281
2011.68,0.07888
1988.54,0.07138
1965.39,0.06727
1942.25,0.06625
1919.1,0.06907
1895.96,0.06733
1872.81,0.06623
1849.67,0.06879
1826.52,0.06718
1803.38,0.06569
1780.23,0.06744
1757.09,0.06589
1733.94,0.06617
1710.8,0.06700
1687.65,0.06571
1664.51,0.06540
1641.36,0.06537
1618.22,0.06492
1595.07,0.06647
1571.93,0.06570
1548.78,0.06430
1525.64,0.06422
1502.49,0.06056
1479.35,0.06591
1456.2,0.05959
1433.06,0.06817
1409.91,0.06606
1386.77,0.06434
1363.62,0.06538
1340.48,0.06535
1317.33,0.06489
1294.19,0.06554
1271.04,0.06517
1247.9,0.06517
1224.75,0.06472
1201.61,0.06410
1178.46,0.06512
1155.32,0.06465
1132.17,0.06582
1109.03,0.06384
1085.88,0.06333
1062.74,0.06476
1039.59,0.06305
1016.45,0.06667
993.304,0.06441
970.159,0.06298
947.014,0.06364
923.869,0.06208
900.724,0.06368
877.579,0.06220
854.434,0.06200
831.289,0.06158
808.144,0.05973
784.999,0.05498
761.854,0.05638
738.709,0.06444
715.565,0.04953
692.42,0.11476
669.275,0.07456
646.13,0.06957
622.985,0.06711
599.84,0.06812