File: 01_Data/PlasticB/FTIR/IS/PlasticB_IS_S_220901_R4.dpt
7497.03,0.83013
7473.89,0.81266
7450.74,0.80941
7427.6,0.80321
7404.45,0.80057
7381.31,0.80610
7358.16,0.80218
7335.02,0.79700
7311.87,0.77911
7288.73,0.75404
7265.58,0.74267
7242.44,0.72540
7219.29,0.72005
7196.15,0.69644
7173,0.68907
7149.86,0.69153
7126.71,0.68759
7103.57,0.67704
7080.42,0.66926
7057.28,0.67148
7034.13,0.68610
7010.99,0.68685
6987.84,0.67929
6964.7,0.68517
6941.55,0.69529
6918.41,0.70202
6895.26,0.71010
6872.12,0.71149
6848.97,0.72367
6825.83,0.72652
6802.68,0.72626
6779.54,0.73671
6756.39,0.74315
6733.25,0.73905
6710.1,0.74594
6686.96,0.75009
6663.82,0.76092
6640.67,0.75823
6617.53,0.76567
6594.38,0.76679
6571.24,0.77175
6548.09,0.77588
6524.95,0.77885
6501.8,0.78665
6478.66,0.79261
6455.51,0.79529
6432.37,0.80090
6409.22,0.79592
6386.08,0.79275
6362.93,0.78159
6339.79,0.77859
6316.64,0.77359
6293.5,0.75953
6270.35,0.75519
6247.21,0.73712
6224.06,0.71427
6200.92,0.68644
6177.77,0.64090
6154.63,0.55996
6131.48,0.48308
6108.34,0.43001
6085.19,0.42937
6062.05,0.45426
6038.9,0.44197
6015.76,0.32848
5992.61,0.24517
5969.47,0.19385
5946.32,0.18569
5923.18,0.20649
5900.03,0.22111
5876.89,0.26445
5853.74,0.29134
5830.6,0.29640
5807.45,0.29286
5784.31,0.30156
5761.16,0.35917
5738.02,0.39728
5714.87,0.36273
5691.73,0.33502
5668.58,0.31607
5645.44,0.34602
5622.29,0.37806
5599.15,0.37958
5576,0.37913
5552.86,0.38727
5529.71,0.38605
5506.57,0.39204
5483.42,0.40811
5460.28,0.41301
5437.13,0.41041
5413.99,0.40672
5390.84,0.40318
5367.7,0.40232
5344.55,0.41778
5321.41,0.42992
5298.26,0.43092
5275.12,0.43491
5251.97,0.43554
5228.83,0.43415
5205.68,0.44434
5182.54,0.44872
5159.39,0.45189
5136.25,0.44564
5113.1,0.44615
5089.96,0.45171
5066.81,0.45202
5043.67,0.45086
5020.52,0.45303
4997.38,0.44833
4974.23,0.44172
4951.09,0.44313
4927.94,0.44191
4904.8,0.44117
4881.65,0.43129
4858.51,0.42513
4835.36,0.41195
4812.22,0.41356
4789.07,0.40903
4765.93,0.37329
4742.78,0.36310
4719.64,0.31452
4696.49,0.26678
4673.35,0.14884
4650.2,0.15063
4627.06,0.13370
4603.92,0.12597
4580.77,0.16432
4557.63,0.18664
4534.48,0.23091
4511.34,0.23349
4488.19,0.24565
4465.05,0.26210
4441.9,0.24055
4418.76,0.22782
4395.61,0.19457
4372.47,0.15694
4349.32,0.12684
4326.18,0.11868
4303.03,0.13664
4279.89,0.12365
4256.74,0.10454
4233.6,0.10552
4210.45,0.10703
4187.31,0.11532
4164.16,0.12285
4141.02,0.12191
4117.87,0.11183
4094.73,0.10616
4071.58,0.08851
4048.44,0.08148
4025.29,0.08648
4002.15,0.10665
3979,0.11912
3955.86,0.12263
3932.71,0.12068
3909.57,0.12482
3886.42,0.12784
3863.28,0.12719
3840.13,0.12521
3816.99,0.11972
3793.84,0.12193
3770.7,0.12749
3747.55,0.13395
3724.41,0.12451
3701.26,0.11791
3678.12,0.11473
3654.97,0.10474
3631.83,0.11803
3608.68,0.13127
3585.54,0.13687
3562.39,0.14945
3539.25,0.14766
3516.1,0.14259
3492.96,0.13653
3469.81,0.12856
3446.67,0.12347
3423.52,0.13163
3400.38,0.13551
3377.23,0.13773
3354.09,0.14059
3330.94,0.13542
3307.8,0.11651
3284.65,0.11783
3261.51,0.11980
3238.36,0.11603
3215.22,0.10815
3192.07,0.09731
3168.93,0.08684
3145.78,0.08391
3122.64,0.07588
3099.49,0.06563
3076.35,0.06523
3053.2,0.06633
3030.06,0.06425
3006.91,0.06721
2983.77,0.06715
2960.62,0.06478
2937.48,0.06317
2914.33,0.06916
2891.19,0.06867
2868.04,0.06738
2844.9,0.06815
2821.75,0.06989
2798.61,0.07155
2775.46,0.07362
2752.32,0.07603
2729.17,0.07535
2706.03,0.07515
2682.88,0.07421
2659.74,0.07477
2636.59,0.07331
2613.45,0.07510
2590.3,0.07509
2567.16,0.07557
2544.02,0.07536
2520.87,0.07524
2497.73,0.07561
2474.58,0.07818
2451.44,0.08015
2428.29,0.08176
2405.15,0.08020
2382,0.07894
2358.86,0.07588
2335.71,0.07153
2312.57,0.07310
2289.42,0.07750
2266.28,0.07858
2243.13,0.07847
2219.99,0.08090
2196.84,0.08193
2173.7,0.08270
2150.55,0.08386
2127.41,0.08588
2104.26,0.08684
2081.12,0.08748
2057.97,0.08496
2034.83,0.08260
2011.68,0.07892
1988.54,0.07100
1965.39,0.06675
1942.25,0.06614
1919.1,0.06909
1895.96,0.06717
1872.81,0.06603
1849.67,0.06863
1826.52,0.06687
1803.38,0.06589
1780.23,0.06763
1757.09,0.06590
1733.94,0.06556
1710.8,0.06695
1687.65,0.06552
1664.51,0.06511
1641.36,0.06572
1618.22,0.06458
1595.07,0.06591
1571.93,0.06605
1548.78,0.06466
1525.64,0.06424
1502.49,0.06051
1479.35,0.06550
1456.2,0.05920
1433.06,0.06773
1409.91,0.06616
1386.77,0.06417
1363.62,0.06516
1340.48,0.06516
1317.33,0.06496
1294.19,0.06536
1271.04,0.06511
1247.9,0.06468
1224.75,0.06499
1201.61,0.06398
1178.46,0.06527
1155.32,0.06509
1132.17,0.06572
1109.03,0.06463
1085.88,0.06263
1062.74,0.06374
1039.59,0.06384
1016.45,0.06620
993.304,0.06470
970.159,0.06321
947.014,0.06373
923.869,0.06248
900.724,0.06363
877.579,0.06192
854.434,0.06108
831.289,0.06115
808.144,0.05893
784.999,0.05582
761.854,0.05573
738.709,0.06523
715.565,0.04980
692.42,0.11165
669.275,0.07497
646.13,0.06980
622.985,0.06743
599.84,0.06526