File: 01_Data/HIPS/STA/N2/10K_min/HIPS_STA_N2_10KData_211020_R1.csv
##Temp./Â°C,Time/min,Mass loss(subtr.2)/mg,DSC(subtr.2)/(mW/mg),Sensit./(uV/mW)
49.966,10.01,-0.00789,-0.00808403,1.03584
52.566,12.36571,-0.00874772,0.0469341,1.0357
55.166,13.0632,-0.008473316,0.07256034,1.03553
57.766,13.6197,-0.007911866,0.0874543,1.03533
60.366,14.1069,-0.00832793,0.10158,1.03511
62.966,14.5478,-0.0071895,0.1151,1.03485
65.566,14.95845,-0.0088858,0.12605,1.03457
68.166,15.3438,-0.00653702,0.13806,1.03426
70.766,15.709,-0.00795476,0.14761,1.03392
73.366,16.05855,-0.007951866,0.15485,1.03355
75.966,16.39378,-0.008658019,0.16603,1.03316
78.566,16.71904,-0.008132094,0.1728,1.03273
81.166,17.03366,-0.0074945,0.17354,1.03228
83.766,17.33994,-0.007785657,0.17135,1.0318
86.366,17.63917,-0.00985051,0.17251,1.03129
88.966,17.93095,-0.00909998,0.18273,1.03076
91.566,18.21742,-0.009208232,0.18962,1.0302
94.166,18.49889,-0.00942922,0.19919,1.02961
96.766,18.7748,-0.008766246,0.21187,1.029
99.366,19.0478,-0.009507521,0.22468,1.02835
101.966,19.31638,-0.01096117,0.2398,1.02769
104.566,19.58311,-0.01094923,0.24653,1.02699
107.166,19.8482,-0.0082962,0.2511,1.02628
109.766,20.1101,-0.00976001,0.25132,1.02553
112.366,20.3699,-0.01141573,0.25711,1.02476
114.966,20.62837,-0.009692143,0.25837,1.02397
117.566,20.8849,-0.00972454,0.26087,1.02314
120.166,21.139,-0.00997987,0.26346,1.0223
122.766,21.39205,-0.009941474,0.26465,1.02143
125.366,21.6428,-0.009974027,0.26826,1.02053
127.966,21.8918,-0.009979132,0.27244,1.01962
130.566,22.1391,-0.01000791,0.27534,1.01867
133.166,22.3848,-0.01157562,0.27655,1.01771
135.766,22.62934,-0.009057396,0.2802,1.01672
138.366,22.8698,-0.01009012,0.2825,1.0157
140.966,23.11245,-0.01141377,0.28393,1.01466
143.566,23.3541,-0.008922587,0.28616,1.0136
146.166,23.5931,-0.01074765,0.29026,1.01252
148.766,23.8321,-0.01139806,0.29301,1.01142
151.366,24.06971,-0.01162004,0.29489,1.01029
153.966,24.3073,-0.01048691,0.29496,1.00914
156.566,24.54372,-0.01163099,0.29776,1.00797
159.166,24.78003,-0.01196149,0.30128,1.00677
161.766,25.01681,-0.01247408,0.3043,1.00556
164.366,25.25271,-0.01260751,0.30485,1.00432
166.966,25.48876,-0.01129839,0.30817,1.00306
169.566,25.724,-0.01129011,0.30766,1.00178
172.166,25.95906,-0.01404001,0.30958,1.00049
174.766,26.19312,-0.01141183,0.30969,0.99917
177.366,26.42711,-0.01272493,0.31337,0.99783
179.966,26.661,-0.01404693,0.31382,0.99647
182.566,26.8936,-0.01271332,0.31658,0.99509
185.166,27.12643,-0.01404498,0.31677,0.99369
187.766,27.35857,-0.01661761,0.31783,0.99227
190.366,27.59102,-0.01174483,0.3204,0.99083
192.966,27.8229,-0.01305181,0.3235,0.98938
195.566,28.05472,-0.01573019,0.32462,0.9879
198.166,28.2861,-0.01569145,0.32648,0.98641
200.766,28.51721,-0.01639609,0.33078,0.9849
203.366,28.74935,-0.01567919,0.3328,0.98337
205.966,28.98088,-0.0182983,0.3327,0.98182
208.566,29.21213,-0.01701076,0.3376,0.98026
211.166,29.44319,-0.01570052,0.33906,0.97868
213.766,29.6749,-0.01930999,0.33589,0.97708
216.366,29.90584,-0.01799001,0.34148,0.97546
218.966,30.1375,-0.02039028,0.34412,0.97383
221.566,30.36921,-0.01870383,0.34331,0.97218
224.166,30.6005,-0.020206,0.3459,0.97052
226.766,30.8325,-0.02149001,0.34659,0.96884
229.366,31.06424,-0.02276338,0.35011,0.96714
231.966,31.2959,-0.02147626,0.34972,0.96543
234.566,31.5278,-0.02402178,0.35071,0.96371
237.166,31.76,-0.02500996,0.35129,0.96196
239.766,31.99196,-0.02238123,0.35345,0.96021
242.366,32.22402,-0.02405254,0.35633,0.95844
244.966,32.45613,-0.02688,0.35863,0.95665
247.566,32.68825,-0.02786,0.35683,0.95486
250.166,32.92092,-0.02819002,0.35908,0.95304
252.766,33.15341,-0.02850963,0.36012,0.95122
255.366,33.38581,-0.03082,0.3599,0.94938
257.966,33.61871,-0.03270398,0.36368,0.94753
260.566,33.85099,-0.03487994,0.36362,0.94566
263.166,34.08359,-0.03499187,0.36628,0.94379
265.766,34.31641,-0.0363,0.36575,0.9419
268.366,34.54918,-0.03894289,0.36543,0.94
270.966,34.78184,-0.04037002,0.36441,0.93808
273.566,35.0158,-0.04299002,0.36306,0.93616
276.166,35.24933,-0.04430758,0.36315,0.93422
278.766,35.48307,-0.04425517,0.36389,0.93227
281.366,35.7166,-0.04695155,0.36625,0.93032
283.966,35.9503,-0.0509,0.36617,0.92835
286.566,36.18432,-0.05383433,0.365,0.92637
289.166,36.41861,-0.05638177,0.36425,0.92438
291.766,36.65341,-0.05772654,0.36584,0.92238
294.366,36.88818,-0.06166153,0.36721,0.92037
296.966,37.12372,-0.06428037,0.36592,0.91835
299.566,37.3588,-0.0655979,0.36787,0.91632
302.166,37.5944,-0.06951017,0.37271,0.91428
304.766,37.82977,-0.07175937,0.37275,0.91224
307.366,38.06645,-0.07620919,0.37594,0.91018
309.966,38.30153,-0.078865,0.37568,0.90812
312.566,38.53852,-0.08011549,0.37394,0.90605
315.166,38.775,-0.08313989,0.37424,0.90397
317.766,39.0118,-0.08807883,0.36937,0.90188
320.366,39.24865,-0.09070923,0.36869,0.89979
322.966,39.48646,-0.09201303,0.36925,0.89768
325.566,39.72593,-0.09466197,0.35984,0.89557
328.166,39.96409,-0.09720492,0.35571,0.89346
330.766,40.2014,-0.1031,0.35138,0.89134
333.366,40.4396,-0.10836,0.34674,0.88921
335.966,40.6781,-0.10987,0.34146,0.88707
338.566,40.9179,-0.11256,0.33714,0.88493
341.166,41.1562,-0.1165,0.33381,0.88278
343.766,41.39477,-0.11845,0.32409,0.88063
346.366,41.63452,-0.1215,0.31757,0.87847
348.966,41.87395,-0.1257,0.31171,0.87631
351.566,42.11352,-0.12833,0.30817,0.87414
354.166,42.35414,-0.13173,0.30243,0.87197
356.766,42.59434,-0.13623,0.29683,0.86979
359.366,42.835,-0.14053,0.28861,0.86761
361.966,43.075,-0.14481,0.28557,0.86542
364.566,43.31599,-0.1472,0.27696,0.86324
367.166,43.55735,-0.15092,0.27664,0.86104
369.766,43.79865,-0.1574,0.27741,0.85885
372.366,44.0405,-0.16134,0.27998,0.85665
374.966,44.2821,-0.16791,0.28653,0.85444
377.566,44.52375,-0.17447,0.29269,0.85224
380.166,44.7661,-0.18154,0.30793,0.85003
382.766,45.00869,-0.18948,0.32548,0.84782
385.366,45.2513,-0.20031,0.35479,0.84561
387.966,45.49403,-0.21021,0.38601,0.84339
390.566,45.7369,-0.22155,0.42451,0.84118
393.166,45.98037,-0.23345,0.47344,0.83896
395.766,46.22473,-0.25103,0.53232,0.83674
398.366,46.4686,-0.26854,0.60476,0.83452
400.966,46.71353,-0.29282,0.69177,0.83229
403.566,46.9584,-0.32088,0.80424,0.83007
406.166,47.20394,-0.3591,0.94182,0.82785
408.766,47.45002,-0.40255,1.12107,0.82562
411.366,47.69611,-0.46111,1.34088,0.8234
413.966,47.94455,-0.53081,1.62109,0.82117
416.566,48.19193,-0.62402,1.95351,0.81895
419.166,48.4394,-0.74195,2.35428,0.81673
421.766,48.68763,-0.8839,2.78582,0.8145
424.366,48.93723,-1.05984,3.21074,0.81228
426.966,49.18676,-1.25811,3.61912,0.81006
429.566,49.4369,-1.49291,3.99244,0.80783
432.166,49.6869,-1.75257,4.21036,0.80561
434.766,49.93561,-2.02161,4.2288,0.80339
437.366,50.18407,-2.28658,4.10359,0.80118
439.966,50.43076,-2.54258,3.81784,0.79896
442.566,50.67739,-2.77292,3.43016,0.79675
445.166,50.92303,-2.97734,2.98508,0.79453
447.766,51.16815,-3.15717,2.51818,0.79232
450.366,51.413,-3.30612,2.06386,0.79011
452.966,51.65845,-3.43035,1.64918,0.78791
455.566,51.90509,-3.53097,1.28904,0.78571
458.166,52.152,-3.61067,1.00996,0.7835
460.766,52.39878,-3.67611,0.80259,0.78131
463.366,52.6455,-3.73087,0.65721,0.77911
465.966,52.8937,-3.77791,0.53911,0.77692
468.566,53.1414,-3.81713,0.44468,0.77473
471.166,53.39,-3.85195,0.35938,0.77255
473.766,53.63918,-3.88136,0.27389,0.77037
476.366,53.8894,-3.90507,0.19302,0.76819
478.966,54.1395,-3.92266,0.11898,0.76602
481.566,54.3901,-3.93478,0.06209227,0.76385
484.166,54.64085,-3.94209,0.008241724,0.76168
486.766,54.89004,-3.94848,-0.02866726,0.75952
489.366,55.1402,-3.95243,-0.05477532,0.75737
491.966,55.39043,-3.95374,-0.07007131,0.75521
494.566,55.64232,-3.95487,-0.07528609,0.75307
497.166,55.89394,-3.95311,-0.08104991,0.75093
499.766,56.145,-3.95407,-0.08157522,0.74879
502.366,56.3967,-3.95369,-0.0918634,0.74666
504.966,56.64825,-3.95177,-0.09379376,0.74453
507.566,56.8999,-3.95441,-0.10126,0.74241
510.166,57.152,-3.95183,-0.10415,0.74029
512.766,57.40387,-3.95276,-0.1067,0.73818
515.366,57.65693,-3.95388,-0.1008,0.73608
517.966,57.91032,-3.95308,-0.09844933,0.73398
520.566,58.16386,-3.95321,-0.09934647,0.73189
523.166,58.4171,-3.95243,-0.09807241,0.7298
525.766,58.6688,-3.95243,-0.09981772,0.72772
528.366,58.9229,-3.95245,-0.10317,0.72565
530.966,59.1759,-3.95243,-0.10245,0.72358
533.566,59.42961,-3.95112,-0.1068,0.72152
536.166,59.68356,-3.95371,-0.10315,0.71947
538.766,59.9387,-3.95241,-0.09975009,0.71742
541.366,60.19429,-3.95243,-0.10518,0.71538
543.966,60.4498,-3.95243,-0.10591,0.71334
546.566,60.7042,-3.95209,-0.10805,0.71132
549.166,60.9583,-3.95342,-0.10874,0.7093
551.766,61.21246,-3.95375,-0.11086,0.70728
554.366,61.4672,-3.95473,-0.11158,0.70528
556.966,61.72316,-3.95342,-0.11223,0.70328
559.566,61.9797,-3.95342,-0.11056,0.70129
562.166,62.2354,-3.95243,-0.11099,0.69931
564.766,62.49146,-3.9534,-0.11097,0.69733
567.366,62.74748,-3.9521,-0.11617,0.69536
569.966,63.0033,-3.95275,-0.11014,0.6934
572.566,63.2594,-3.95375,-0.11221,0.69145
575.166,63.5159,-3.95276,-0.11115,0.68951
577.766,63.77304,-3.95408,-0.11257,0.68757
580.366,64.0294,-3.95309,-0.11,0.68564
582.966,64.28673,-3.9521,-0.10489,0.68372
585.566,64.54488,-3.95342,-0.10032,0.68181
588.166,64.80328,-3.95342,-0.09801472,0.67991
590.766,65.0611,-3.95473,-0.09793162,0.67801
593.366,65.3192,-3.95341,-0.10017,0.67612
595.966,65.57718,-3.95408,-0.10484,0.67425
598.566,65.83488,-3.95405,-0.10169,0.67238
601.166,66.09321,-3.95408,-0.10302,0.67052
603.766,66.35162,-3.95408,-0.09943223,0.66866
606.366,66.61115,-3.95402,-0.09707056,0.66682
608.966,66.8699,-3.95441,-0.09710293,0.66498
611.566,67.1303,-3.95407,-0.09506322,0.66316
614.166,67.38938,-3.95407,-0.09772446,0.66134
616.766,67.64907,-3.9544,-0.099577,0.65953
619.366,67.90869,-3.95309,-0.10384,0.65773
621.966,68.1686,-3.95309,-0.10431,0.65594
624.566,68.42819,-3.95408,-0.1058,0.65416
627.166,68.68774,-3.95356,-0.10429,0.65239
629.766,68.94795,-3.95388,-0.10094,0.65062
632.366,69.20864,-3.95516,-0.10001,0.64887
634.966,69.46969,-3.95407,-0.09951717,0.64712
637.566,69.7311,-3.95275,-0.10327,0.64538
640.166,69.99252,-3.95408,-0.11063,0.64366