File: 01_Data/HIPS/STA/N2/10K_min/HIPS_STA_N2_10KData_211021_R2.csv
##Temp./Â°C,Time/min,Mass loss(subtr.2)/mg,DSC(subtr.2)/(mW/mg),Sensit./(uV/mW)
49.92,10.01,0.05331,-0.03995749,1.03584
52.42,12.33742,0.06962204,0.01268565,1.03571
54.92,13.01934,0.0741044,0.0356541,1.03555
57.42,13.5603,0.07592218,0.05063395,1.03536
59.92,14.03307,0.08029981,0.06318392,1.03515
62.42,14.46359,0.08034448,0.07318972,1.03491
64.92,14.8638,0.09076008,0.08523003,1.03464
67.42,15.2393,0.0860882,0.09375937,1.03435
69.92,15.5941,0.08888591,0.10287,1.03403
72.42,15.9336,0.08908561,0.11346,1.03369
74.92,16.2604,0.09177525,0.12074,1.03332
77.42,16.57679,0.09214782,0.12738,1.03292
79.92,16.88392,0.09621463,0.13401,1.0325
82.42,17.18216,0.09504243,0.12694,1.03205
84.92,17.4727,0.0961383,0.12658,1.03158
87.42,17.7568,0.0980701,0.12992,1.03108
89.92,18.03505,0.09739606,0.13789,1.03056
92.42,18.3081,0.09826374,0.14695,1.03001
94.92,18.57621,0.09421238,0.15524,1.02943
97.42,18.84122,0.10317,0.16581,1.02884
99.92,19.1023,0.10322,0.1824,1.02821
102.42,19.3609,0.10312,0.19613,1.02757
104.92,19.61688,0.10443,0.20415,1.0269
107.42,19.8702,0.1051,0.20892,1.0262
109.92,20.12204,0.10574,0.21217,1.02549
112.42,20.37215,0.10671,0.21155,1.02474
114.92,20.6197,0.1064,0.21572,1.02398
117.42,20.86616,0.1132,0.21551,1.02319
119.92,21.11061,0.1099,0.21843,1.02238
122.42,21.3536,0.11098,0.21844,1.02155
124.92,21.595,0.11178,0.22037,1.02069
127.42,21.83535,0.11407,0.22505,1.01981
129.92,22.07324,0.11441,0.23072,1.01891
132.42,22.31022,0.1144,0.22927,1.01799
134.92,22.5455,0.11572,0.23187,1.01704
137.42,22.77909,0.11572,0.23423,1.01607
139.92,23.01206,0.11835,0.23905,1.01508
142.42,23.24338,0.11694,0.24027,1.01407
144.92,23.47505,0.11694,0.24354,1.01304
147.42,23.70447,0.11733,0.2464,1.01199
149.92,23.93375,0.11777,0.24768,1.01092
152.42,24.16242,0.12156,0.25165,1.00982
154.92,24.3906,0.12143,0.253,1.00871
157.42,24.61833,0.12011,0.25668,1.00758
159.92,24.84579,0.12011,0.25864,1.00642
162.42,25.07235,0.12142,0.26133,1.00525
164.92,25.29919,0.12145,0.2628,1.00405
167.42,25.5258,0.12162,0.26578,1.00284
169.92,25.75139,0.12216,0.26885,1.00161
172.42,25.97816,0.12344,0.27116,1.00036
174.92,26.20287,0.12285,0.27413,0.99909
177.42,26.4287,0.12493,0.27973,0.9978
179.92,26.65325,0.12582,0.28152,0.99649
182.42,26.87725,0.12655,0.28384,0.99517
184.92,27.10083,0.12546,0.28651,0.99382
187.42,27.3247,0.12679,0.28925,0.99246
189.92,27.54787,0.12839,0.291,0.99108
192.42,27.771,0.13028,0.2923,0.98968
194.92,27.9935,0.12892,0.29435,0.98827
197.42,28.21586,0.13183,0.29968,0.98684
199.92,28.4383,0.13001,0.30195,0.98539
202.42,28.66045,0.13285,0.30444,0.98393
204.92,28.88268,0.13271,0.30701,0.98245
207.42,29.10489,0.13139,0.31088,0.98095
209.92,29.32702,0.13239,0.31415,0.97944
212.42,29.5494,0.13372,0.31765,0.97791
214.92,29.77187,0.13127,0.31982,0.97636
217.42,29.994,0.13248,0.3238,0.9748
219.92,30.2165,0.13338,0.32388,0.97323
222.42,30.43859,0.13421,0.32904,0.97164
224.92,30.66092,0.13272,0.32736,0.97003
227.42,30.8834,0.13414,0.33025,0.96841
229.92,31.10575,0.13338,0.33637,0.96678
232.42,31.3284,0.13205,0.33693,0.96513
234.92,31.5512,0.1291,0.33734,0.96347
237.42,31.774,0.1321,0.3397,0.96179
239.92,31.9969,0.13087,0.34187,0.9601
242.42,32.21986,0.13219,0.34152,0.9584
244.92,32.44274,0.12989,0.34512,0.95669
247.42,32.6661,0.12817,0.34561,0.95496
249.92,32.88941,0.12824,0.34428,0.95322
252.42,33.1128,0.12865,0.34881,0.95146
254.92,33.33665,0.12822,0.35174,0.9497
257.42,33.56049,0.12823,0.35372,0.94792
259.92,33.78398,0.12824,0.35568,0.94613
262.42,34.00792,0.12755,0.35407,0.94433
264.92,34.2321,0.12391,0.35714,0.94251
267.42,34.45593,0.12438,0.35491,0.94069
269.92,34.67982,0.12384,0.35875,0.93885
272.42,34.90337,0.12394,0.35972,0.93701
274.92,35.1274,0.12197,0.35825,0.93515
277.42,35.35195,0.1178,0.36063,0.93328
279.92,35.577,0.11674,0.36087,0.93141
282.42,35.80225,0.11639,0.35716,0.92952
284.92,36.02691,0.11353,0.3585,0.92762
287.42,36.25257,0.1121,0.35959,0.92572
289.92,36.47804,0.10949,0.35928,0.9238
292.42,36.7042,0.10951,0.36,0.92187
294.92,36.93045,0.10815,0.35891,0.91994
297.42,37.15667,0.10402,0.3588,0.918
299.92,37.383,0.10267,0.35975,0.91604
302.42,37.60946,0.10563,0.35518,0.91408
304.92,37.83597,0.10299,0.35757,0.91212
307.42,38.06258,0.10167,0.35518,0.91014
309.92,38.28973,0.0975197,0.35305,0.90816
312.42,38.5171,0.09848691,0.35071,0.90616
314.92,38.74391,0.09520927,0.34948,0.90416
317.42,38.97175,0.09102737,0.34467,0.90216
319.92,39.1993,0.09434963,0.34095,0.90015
322.42,39.42733,0.08520675,0.33658,0.89813
324.92,39.6552,0.08239276,0.33792,0.8961
327.42,39.88367,0.08670933,0.3321,0.89407
329.92,40.11203,0.07933314,0.32555,0.89203
332.42,40.34081,0.07665183,0.32325,0.88998
334.92,40.57008,0.07141005,0.31941,0.88793
337.42,40.79916,0.07439956,0.31299,0.88587
339.92,41.0288,0.06570148,0.30672,0.88381
342.42,41.25877,0.06006412,0.30405,0.88174
344.92,41.48851,0.06030269,0.29903,0.87967
347.42,41.71833,0.05934968,0.29503,0.8776
349.92,41.94822,0.05648911,0.29241,0.87551
352.42,42.17855,0.05386018,0.28233,0.87343
354.92,42.40955,0.05123185,0.27558,0.87134
357.42,42.64042,0.04771024,0.27158,0.86924
359.92,42.87155,0.04508002,0.26896,0.86714
362.42,43.1032,0.04364055,0.25816,0.86504
364.92,43.3348,0.03883569,0.25488,0.86294
367.42,43.56642,0.03167295,0.25315,0.86083
369.92,43.79869,0.02915798,0.25111,0.85872
372.42,44.03069,0.02667083,0.25461,0.8566
374.92,44.26251,0.02405334,0.25789,0.85448
377.42,44.49545,0.0184279,0.2698,0.85236
379.92,44.72829,0.01254237,0.27957,0.85024
382.42,44.96156,0.006011973,0.29642,0.84811
384.92,45.19502,-0.001210104,0.322,0.84599
387.42,45.42855,-0.01013072,0.34686,0.84386
389.92,45.66267,-0.01829014,0.38243,0.84173
392.42,45.89685,-0.02929051,0.42714,0.83959
394.92,46.131,-0.04421857,0.4782,0.83746
397.42,46.36484,-0.06029956,0.54145,0.83532
399.92,46.5991,-0.07953189,0.62032,0.83319
402.42,46.83409,-0.10196,0.71287,0.83105
404.92,47.0687,-0.13265,0.8299,0.82891
407.42,47.30425,-0.16699,0.97534,0.82678
409.92,47.54031,-0.21223,1.15561,0.82464
412.42,47.77681,-0.26694,1.38243,0.8225
414.92,48.01396,-0.33987,1.65951,0.82036
417.42,48.25099,-0.43826,1.99173,0.81822
419.92,48.48908,-0.53826,2.37702,0.81608
422.42,48.7275,-0.67943,2.83867,0.81394
424.92,48.9666,-0.84823,3.22018,0.8118
427.42,49.2057,-1.03955,3.63722,0.80967
429.92,49.44576,-1.26257,3.94848,0.80753
432.42,49.68591,-1.50497,4.13624,0.8054
434.92,49.92454,-1.75564,4.17917,0.80326
437.42,50.16278,-2.00707,4.06277,0.80113
439.92,50.40077,-2.24715,3.79313,0.799
442.42,50.63777,-2.46893,3.42186,0.79687
444.92,50.87399,-2.6624,3.00303,0.79474
447.42,51.1099,-2.83223,2.55795,0.79262
449.92,51.346,-2.97589,2.12173,0.79049
452.42,51.58217,-3.09202,1.7099,0.78837
454.92,51.81895,-3.19345,1.35826,0.78625
457.42,52.05624,-3.27401,1.06573,0.78414
459.92,52.29347,-3.34062,0.84761,0.78202
462.42,52.5313,-3.39437,0.68896,0.77991
464.92,52.76927,-3.44162,0.5707,0.7778
467.42,53.00775,-3.48119,0.46777,0.7757
469.92,53.2466,-3.51471,0.37953,0.77359
472.42,53.4864,-3.54615,0.2975,0.7715
474.92,53.7261,-3.55949,0.2128,0.7694
477.42,53.96561,-3.58907,0.13927,0.76731
479.92,54.2058,-3.60264,0.07394014,0.76522
482.42,54.4465,-3.61121,0.01497832,0.76314
484.92,54.6874,-3.62135,-0.03453284,0.76106
487.42,54.9276,-3.62644,-0.06197601,0.75898
489.92,55.1676,-3.62598,-0.08848238,0.75691
492.42,55.40846,-3.62786,-0.09777936,0.75484
494.92,55.6494,-3.62655,-0.09714861,0.75278
497.42,55.89056,-3.62759,-0.10573,0.75072
499.92,56.1324,-3.62788,-0.11657,0.74866
502.42,56.3742,-3.62803,-0.13053,0.74661
504.92,56.61605,-3.62743,-0.13426,0.74457
507.42,56.858,-3.62494,-0.1402,0.74253
509.92,57.1,-3.62611,-0.1378,0.74049
512.42,57.3427,-3.62513,-0.14423,0.73846
514.92,57.58554,-3.62479,-0.1395,0.73644
517.42,57.8284,-3.62348,-0.13827,0.73442
519.92,58.0718,-3.6249,-0.13731,0.73241
522.42,58.3153,-3.6249,-0.13877,0.7304
524.92,58.5587,-3.61541,-0.14239,0.7284
527.42,58.8016,-3.62239,-0.13816,0.7264
529.92,59.04535,-3.62268,-0.13753,0.72441
532.42,59.28923,-3.62358,-0.13383,0.72243
534.92,59.5337,-3.62223,-0.13735,0.72045
537.42,59.77769,-3.62194,-0.13807,0.71848
539.92,60.0226,-3.62091,-0.13602,0.71651
542.42,60.2671,-3.62103,-0.13911,0.71455
544.92,60.51206,-3.6184,-0.13847,0.7126
547.42,60.75728,-3.61964,-0.13402,0.71065
549.92,61.00269,-3.61832,-0.13699,0.70871
552.42,61.2483,-3.61942,-0.13352,0.70678
554.92,61.49417,-3.61743,-0.13349,0.70485
557.42,61.7399,-3.61854,-0.1354,0.70293
559.92,61.9856,-3.61877,-0.13588,0.70102
562.42,62.232,-3.61657,-0.138,0.69911
564.92,62.478,-3.61657,-0.14136,0.69721
567.42,62.72432,-3.61721,-0.13639,0.69532
569.92,62.97169,-3.61558,-0.13561,0.69344
572.42,63.2192,-3.61432,-0.13598,0.69156
574.92,63.46654,-3.61492,-0.14067,0.68969
577.42,63.71454,-3.61492,-0.13688,0.68783
579.92,63.9615,-3.61262,-0.13731,0.68597
582.42,64.20891,-3.61393,-0.14162,0.68412
584.92,64.456,-3.61362,-0.14292,0.68228
587.42,64.7034,-3.6135,-0.14321,0.68045
589.92,64.95067,-3.61216,-0.14416,0.67863
592.42,65.1987,-3.61372,-0.14315,0.67681
594.92,65.4459,-3.61131,-0.1459,0.675
597.42,65.69378,-3.60524,-0.14121,0.6732
599.92,65.9406,-3.61152,-0.14386,0.67141
602.42,66.18785,-3.60905,-0.14059,0.66962
604.92,66.43584,-3.61173,-0.14501,0.66784
607.42,66.68298,-3.60998,-0.14378,0.66607
609.92,66.9299,-3.60998,-0.14442,0.66431
612.42,67.1769,-3.60763,-0.14513,0.66256
614.92,67.4238,-3.60858,-0.14342,0.66081
617.42,67.6716,-3.60768,-0.14297,0.65908
619.92,67.92031,-3.60922,-0.14652,0.65735
622.42,68.16905,-3.60922,-0.14565,0.65563
624.92,68.41812,-3.60845,-0.14129,0.65392
627.42,68.66825,-3.60845,-0.13978,0.65221
629.92,68.9181,-3.61407,-0.13778,0.65052
632.42,69.16844,-3.60746,-0.14231,0.64883
634.92,69.41811,-3.60834,-0.13573,0.64715
637.42,69.66893,-3.608,-0.13391,0.64548
639.92,69.91869,-3.6078,-0.12972,0.64382
640.72,69.99805,-3.6078,-0.1297,0.64329