File: 01_Data/Cotton_Rug/Cone/Cotton_Rug_HRRPUA_25.csv
Time after Ignition,Cotton_Rug_R1,Cotton_Rug_R2,Cotton_Rug_R3,Mean,Std. Dev.
0.0,55.5,19.1,12.2,28.9,23.2
0.75,75.9,35.9,23.3,45.0,27.4
1.5,93.0,54.6,38.6,62.1,27.9
2.25,112.3,74.1,63.6,83.3,25.6
3.0,137.9,94.5,91.8,108.1,25.9
3.75,156.7,112.1,113.1,127.3,25.5
4.5,178.1,130.8,135.0,148.0,26.2
5.25,198.4,143.1,151.0,164.1,29.9
6.0,210.5,160.0,163.7,178.1,28.1
6.75,228.4,169.7,181.4,193.2,31.1
7.5,235.9,182.2,192.2,203.4,28.6
8.25,253.1,189.3,200.5,214.3,34.1
9.0,263.5,197.5,207.9,223.0,35.5
9.75,272.4,209.0,216.3,232.6,34.7
10.5,274.3,216.0,225.0,238.4,31.4
11.25,276.9,221.6,230.6,243.0,29.7
12.0,287.9,221.7,238.3,249.3,34.4
12.75,287.6,232.7,243.5,254.6,29.1
13.5,294.0,234.0,248.5,258.9,31.3
14.25,299.0,239.2,255.1,264.5,31.0
15.0,301.7,239.3,256.8,265.9,32.2
15.75,305.7,244.0,262.9,270.9,31.6
16.5,314.0,247.4,272.2,277.9,33.7
17.25,314.5,243.8,269.6,276.0,35.8
18.0,321.6,252.5,279.9,284.7,34.8
18.75,321.0,253.3,282.0,285.4,33.9
19.5,332.5,262.1,284.3,293.0,36.0
20.25,327.1,260.5,291.4,293.0,33.3
21.0,333.1,264.4,287.2,294.9,35.0
21.75,340.2,269.5,298.8,302.9,35.5
22.5,337.1,271.5,304.9,304.5,32.8
23.25,348.5,275.4,309.7,311.2,36.6
24.0,346.5,275.9,316.0,312.8,35.4
24.75,350.3,280.8,307.5,312.9,35.1
25.5,346.7,283.4,310.1,313.4,31.8
26.25,339.6,279.8,314.6,311.3,30.1
27.0,348.5,288.6,323.3,320.1,30.1
27.75,344.9,292.3,329.9,322.3,27.1
28.5,339.7,290.4,338.1,322.8,28.0
29.25,347.5,281.0,333.2,320.6,35.0
30.0,352.1,290.7,336.0,326.3,31.8
30.75,343.3,291.3,340.0,324.9,29.1
31.5,348.0,290.7,334.6,324.5,30.0
32.25,340.6,296.3,340.9,325.9,25.7
33.0,346.7,291.1,350.2,329.3,33.1
33.75,340.6,301.0,344.0,328.5,23.9
34.5,345.6,294.1,347.5,329.1,30.3
35.25,346.3,298.7,340.9,328.6,26.1
36.0,338.7,300.1,341.1,326.6,23.0
36.75,346.8,295.2,339.3,327.1,27.9
37.5,343.3,300.5,353.0,332.3,27.9
38.25,335.1,297.7,340.8,324.5,23.4
39.0,338.1,295.5,347.0,326.8,27.5
39.75,333.7,299.2,339.5,324.1,21.8
40.5,333.4,292.9,341.0,322.4,25.9
41.25,325.5,297.8,337.2,320.2,20.2
42.0,329.1,297.1,336.8,321.0,21.1
42.75,325.2,298.0,332.1,318.4,18.0
43.5,325.2,293.4,324.6,314.4,18.2
44.25,322.9,297.2,319.6,313.2,14.0
45.0,320.1,294.3,319.0,311.1,14.6
45.75,314.5,292.0,321.1,309.2,15.3
46.5,316.1,292.6,310.0,306.2,12.2
47.25,308.7,292.2,317.9,306.3,13.1
48.0,300.7,289.3,312.4,300.8,11.5
48.75,305.1,290.1,305.7,300.3,8.8
49.5,294.6,286.6,304.8,295.3,9.1
50.25,289.6,282.9,300.6,291.0,8.9
51.0,288.9,281.8,303.6,291.5,11.1
51.75,285.0,280.4,298.2,287.8,9.3
52.5,281.3,274.8,292.3,282.8,8.8
53.25,272.6,278.3,283.4,278.1,5.4
54.0,267.3,272.3,284.7,274.8,9.0
54.75,264.6,267.6,278.4,270.2,7.3
55.5,261.7,264.3,270.1,265.4,4.3
56.25,256.0,263.0,272.7,263.9,8.4
57.0,249.2,260.2,269.1,259.5,10.0
57.75,250.0,257.4,262.1,256.5,6.1
58.5,242.7,254.9,253.4,250.3,6.6
59.25,238.8,249.6,249.1,245.9,6.1
60.0,234.9,250.9,245.6,243.8,8.2
60.75,226.4,248.1,240.2,238.3,11.0
61.5,220.8,246.3,239.9,235.7,13.3
62.25,214.3,242.1,231.4,229.3,14.0
63.0,206.5,236.1,226.2,223.0,15.1
63.75,205.2,240.3,222.4,222.7,17.5
64.5,198.1,235.3,213.6,215.7,18.7
65.25,197.7,231.1,210.9,213.2,16.8
66.0,188.6,225.9,202.5,205.7,18.9
66.75,182.6,224.7,198.2,201.8,21.3
67.5,179.2,221.4,190.5,197.1,21.8
68.25,174.0,218.3,185.8,192.7,22.9
69.0,167.6,215.8,180.3,187.9,25.0
69.75,162.7,210.4,174.8,182.7,24.8
70.5,159.4,209.3,170.5,179.7,26.2
71.25,155.2,205.3,171.5,177.4,25.5
72.0,153.6,203.5,167.9,175.0,25.7
72.75,149.3,195.8,160.8,168.6,24.2
73.5,144.6,193.2,154.0,163.9,25.8
74.25,140.2,192.0,148.3,160.2,27.9
75.0,135.8,186.3,143.1,155.0,27.3
75.75,128.0,183.1,136.7,149.2,29.6
76.5,123.8,182.5,133.5,146.6,31.5
77.25,121.2,178.6,129.1,143.0,31.1
78.0,119.6,177.3,123.6,140.2,32.2
78.75,116.2,171.2,119.8,135.8,30.8
79.5,111.1,167.4,116.3,131.6,31.1
80.25,107.1,166.1,112.7,128.6,32.5
81.0,103.8,163.0,108.9,125.2,32.8
81.75,100.8,154.9,105.5,120.4,30.0
82.5,99.3,154.9,101.3,118.5,31.5
83.25,95.2,150.0,97.0,114.1,31.1
84.0,94.7,143.4,95.3,111.2,27.9
84.75,92.2,139.4,92.6,108.1,27.2
85.5,90.2,134.2,89.0,104.5,25.7
86.25,87.7,127.0,84.0,99.6,23.8
87.0,85.4,120.5,80.1,95.3,22.0
87.75,83.9,112.7,77.5,91.3,18.7
88.5,80.2,107.7,75.2,87.7,17.5
89.25,78.0,102.7,73.1,84.6,15.9
90.0,76.5,98.7,71.9,82.3,14.3
90.75,75.0,93.4,68.7,79.1,12.8
91.5,71.1,91.0,67.7,76.6,12.6
92.25,70.1,88.3,65.9,74.8,11.9
93.0,68.1,83.2,63.7,71.7,10.2
93.75,68.0,80.9,62.2,70.4,9.6
94.5,66.3,74.9,60.9,67.4,7.0
95.25,63.7,71.9,59.3,65.0,6.4
96.0,61.8,69.8,57.4,63.0,6.2
96.75,61.1,66.7,55.6,61.1,5.6
97.5,60.0,64.6,54.1,59.6,5.3
98.25,57.8,62.3,52.8,57.6,4.7
99.0,57.6,60.2,52.3,56.7,4.0
99.75,55.9,58.0,49.5,54.5,4.5
100.5,55.9,54.5,48.0,52.8,4.2
101.25,54.7,52.8,46.7,51.4,4.2
102.0,54.0,51.3,46.6,50.7,3.7
102.75,52.4,48.1,44.9,48.5,3.8
103.5,51.1,46.4,44.1,47.2,3.6
104.25,50.7,45.0,43.6,46.4,3.7
105.0,50.3,43.4,42.7,45.5,4.2
105.75,49.2,42.4,42.9,44.8,3.8
106.5,48.7,40.9,41.7,43.8,4.3
107.25,49.0,41.0,42.5,44.1,4.3
108.0,47.7,40.2,42.0,43.3,3.9
108.75,47.7,39.1,40.6,42.5,4.6
109.5,47.1,39.4,41.1,42.5,4.0
110.25,46.0,38.8,41.2,42.0,3.7
111.0,45.1,38.0,40.7,41.2,3.6
111.75,45.5,38.3,40.4,41.4,3.7
112.5,45.0,37.9,40.1,41.0,3.7
113.25,44.1,38.3,39.9,40.8,3.0
114.0,43.8,37.4,39.6,40.3,3.3
114.75,43.7,37.6,40.2,40.5,3.0
115.5,43.3,36.7,39.7,39.9,3.3
116.25,43.1,36.0,39.1,39.4,3.5
117.0,42.7,36.1,,39.4,4.7
117.75,42.4,36.0,,39.2,4.5
118.5,41.3,,,41.3,
119.25,41.7,,,41.7,
120.0,40.6,,,40.6,
120.75,41.1,,,41.1,
121.5,40.1,,,40.1,
122.25,40.1,,,40.1,
123.0,39.8,,,39.8,
123.75,39.2,,,39.2,
124.5,39.0,,,39.0,
125.25,38.5,,,38.5,
126.0,39.2,,,39.2,
126.75,38.4,,,38.4,
127.5,37.3,,,37.3,
128.25,37.9,,,37.9,
129.0,37.7,,,37.7,
129.75,37.4,,,37.4,
130.5,37.2,,,37.2,
131.25,36.7,,,36.7,
132.0,37.3,,,37.3,
132.75,37.2,,,37.2,
133.5,36.6,,,36.6,
134.25,36.8,,,36.8,
135.0,35.9,,,35.9,
135.75,36.0,,,36.0,
136.5,35.7,,,35.7,
137.25,35.8,,,35.8,
138.0,35.7,,,35.7,
138.75,35.2,,,35.2,
139.5,35.3,,,35.3,
140.25,34.7,,,34.7,
141.0,34.2,,,34.2,
141.75,33.8,,,33.8,
142.5,33.4,,,33.4,
143.25,33.6,,,33.6,
144.0,33.1,,,33.1,
144.75,32.9,,,32.9,
145.5,32.2,,,32.2,
146.25,32.1,,,32.1,
147.0,31.6,,,31.6,
147.75,32.0,,,32.0,
148.5,32.0,,,32.0,
149.25,32.0,,,32.0,
150.0,31.6,,,31.6,
150.75,31.8,,,31.8,
151.5,31.6,,,31.6,
152.25,31.8,,,31.8,
153.0,32.4,,,32.4,
153.75,32.9,,,32.9,
154.5,33.5,,,33.5,
155.25,33.4,,,33.4,
156.0,33.0,,,33.0,
156.75,33.9,,,33.9,
157.5,34.0,,,34.0,
158.25,33.7,,,33.7,
159.0,34.4,,,34.4,
159.75,34.6,,,34.6,
160.5,34.2,,,34.2,
161.25,33.8,,,33.8,