File: 01_Data/Cotton_Rug/Cone/Cotton_Rug_HRRPUA_75.csv
Time after Ignition,Cotton_Rug_R1,Cotton_Rug_R2,Cotton_Rug_R3,Mean,Std. Dev.
0.0,63.1,54.1,24.4,47.2,20.2
0.75,88.1,83.3,38.9,70.1,27.1
1.5,111.3,114.8,67.8,98.0,26.2
2.25,137.1,147.2,94.9,126.4,27.7
3.0,167.1,177.5,131.2,158.6,24.3
3.75,184.1,210.5,169.6,188.1,20.7
4.5,212.8,226.1,207.6,215.5,9.5
5.25,247.3,254.2,233.9,245.1,10.3
6.0,279.1,281.0,263.0,274.3,9.9
6.75,296.3,305.8,296.8,299.6,5.4
7.5,329.5,335.3,324.9,329.9,5.2
8.25,343.5,346.4,349.9,346.6,3.2
9.0,370.7,374.2,364.2,369.7,5.1
9.75,391.8,394.9,386.3,391.0,4.3
10.5,399.4,405.2,400.9,401.8,3.0
11.25,418.5,438.1,414.0,423.6,12.8
12.0,429.1,466.4,422.7,439.4,23.6
12.75,445.4,479.8,439.9,455.0,21.6
13.5,472.8,501.3,445.9,473.3,27.7
14.25,495.8,538.5,458.2,497.5,40.2
15.0,495.3,546.5,475.0,505.6,36.9
15.75,520.8,577.4,490.0,529.4,44.3
16.5,518.9,622.5,501.8,547.7,65.3
17.25,570.0,614.1,529.5,571.2,42.3
18.0,576.5,651.5,551.8,593.3,51.9
18.75,607.9,692.7,591.6,630.8,54.3
19.5,625.4,679.0,605.8,636.7,37.9
20.25,641.5,715.2,607.7,654.8,55.0
21.0,670.7,713.6,628.7,671.0,42.5
21.75,655.5,753.0,645.0,684.5,59.6
22.5,639.6,725.4,662.5,675.8,44.4
23.25,636.4,769.8,674.9,693.7,68.7
24.0,654.2,774.2,693.5,707.3,61.2
24.75,665.2,777.4,705.9,716.2,56.8
25.5,653.9,779.7,711.6,715.0,63.0
26.25,654.9,761.4,726.0,714.1,54.2
27.0,640.0,757.4,730.4,709.2,61.5
27.75,640.6,754.4,726.8,707.3,59.4
28.5,627.1,747.5,719.6,698.0,63.0
29.25,628.0,764.9,725.4,706.1,70.4
30.0,632.3,739.7,732.2,701.4,60.0
30.75,606.1,761.7,735.0,700.9,83.2
31.5,625.5,719.3,728.2,691.0,56.9
32.25,573.5,709.8,734.8,672.7,86.8
33.0,579.5,702.8,727.9,670.0,79.4
33.75,544.6,686.2,709.1,646.6,89.1
34.5,544.9,647.9,716.2,636.3,86.2
35.25,519.4,619.8,710.9,616.7,95.8
36.0,494.4,597.8,689.1,593.8,97.4
36.75,475.2,569.3,678.1,574.2,101.5
37.5,453.3,544.8,639.6,545.9,93.2
38.25,426.4,512.1,581.3,506.6,77.6
39.0,394.8,495.3,567.4,485.8,86.7
39.75,348.7,464.9,535.8,449.8,94.4
40.5,308.5,436.8,502.8,416.0,98.8
41.25,274.9,398.0,469.6,380.8,98.5
42.0,246.8,363.3,430.8,347.0,93.1
42.75,215.7,334.9,390.2,313.6,89.2
43.5,200.0,305.6,347.9,284.5,76.2
44.25,177.5,283.4,321.6,260.8,74.7
45.0,162.9,262.1,290.7,238.6,67.1
45.75,147.2,246.6,268.9,220.9,64.8
46.5,134.6,230.4,247.5,204.2,60.8
47.25,122.2,222.8,230.2,191.7,60.3
48.0,111.0,209.4,211.1,177.1,57.3
48.75,103.3,198.0,198.2,166.5,54.7
49.5,94.0,186.8,184.1,155.0,52.8
50.25,87.7,178.7,174.6,147.0,51.4
51.0,81.8,170.0,163.1,138.3,49.0
51.75,77.8,165.6,154.0,132.4,47.7
52.5,72.9,158.3,148.0,126.4,46.6
53.25,69.6,155.7,141.4,122.2,46.1
54.0,66.2,148.9,136.7,117.3,44.6
54.75,63.0,146.7,132.7,114.1,44.8
55.5,61.0,140.0,130.7,110.6,43.2
56.25,60.3,134.8,128.5,107.9,41.3
57.0,56.9,131.6,125.5,104.7,41.5
57.75,55.8,126.2,122.4,101.5,39.6
58.5,54.4,121.1,121.7,99.0,38.7
59.25,54.5,118.3,120.4,97.7,37.4
60.0,53.4,115.1,116.8,95.1,36.1
60.75,52.4,114.6,117.0,94.7,36.6
61.5,51.5,109.7,113.4,91.5,34.7
62.25,50.3,105.8,113.0,89.7,34.3
63.0,50.4,104.1,110.0,88.2,32.8
63.75,48.8,102.7,109.3,87.0,33.2
64.5,49.2,101.5,106.1,85.6,31.6
65.25,49.0,99.3,104.1,84.1,30.6
66.0,49.0,99.0,102.3,83.4,29.9
66.75,48.4,97.7,99.9,82.0,29.1
67.5,47.2,95.5,97.4,80.0,28.4
68.25,47.7,93.5,97.0,79.4,27.5
69.0,47.4,92.0,94.2,77.8,26.4
69.75,47.3,89.3,90.8,75.8,24.7
70.5,46.1,88.3,88.8,74.4,24.5
71.25,46.2,87.0,86.0,73.1,23.3
72.0,46.1,84.9,82.5,71.2,21.7
72.75,45.2,85.8,81.3,70.7,22.2
73.5,45.2,83.0,78.1,68.8,20.5
74.25,44.7,81.1,75.2,67.0,19.6
75.0,44.5,81.1,73.9,66.5,19.4
75.75,43.8,80.3,72.0,65.4,19.1
76.5,43.0,79.2,70.2,64.1,18.9
77.25,43.1,77.6,68.4,63.1,17.9
78.0,43.4,76.3,66.8,62.2,16.9
78.75,42.9,75.9,65.2,61.3,16.9
79.5,42.8,74.4,63.3,60.2,16.0
80.25,42.6,72.9,62.7,59.4,15.4
81.0,42.7,72.4,61.9,59.0,15.1
81.75,42.3,72.0,60.2,58.2,15.0
82.5,42.2,71.5,59.3,57.7,14.7
83.25,42.8,69.8,58.5,57.0,13.6
84.0,42.7,70.9,58.9,57.5,14.2
84.75,42.6,69.9,57.4,56.6,13.7
85.5,42.4,68.7,56.8,56.0,13.2
86.25,42.4,67.4,57.1,55.6,12.5
87.0,41.9,67.5,56.5,55.3,12.8
87.75,42.0,67.4,55.6,55.0,12.7
88.5,41.4,66.1,54.6,54.0,12.3
89.25,40.8,67.2,55.3,54.4,13.3
90.0,40.3,66.5,55.8,54.2,13.2
90.75,40.3,65.6,54.2,53.4,12.7
91.5,40.2,65.7,53.1,53.0,12.7
92.25,40.1,65.5,53.0,52.9,12.7
93.0,40.0,65.2,52.3,52.5,12.6
93.75,39.4,65.3,51.3,52.0,12.9
94.5,39.8,65.1,51.4,52.1,12.7
95.25,39.3,65.4,51.0,51.9,13.1
96.0,38.9,65.4,50.9,51.7,13.3
96.75,39.1,64.5,50.4,51.3,12.7
97.5,38.6,62.6,50.6,50.6,12.0
98.25,39.6,63.4,49.4,50.8,12.0
99.0,39.0,61.8,49.5,50.1,11.5
99.75,39.1,62.2,49.2,50.1,11.6
100.5,39.0,61.8,49.2,50.0,11.4
101.25,38.6,60.9,49.5,49.7,11.1
102.0,38.6,60.7,49.2,49.5,11.1
102.75,38.5,59.7,48.4,48.9,10.6
103.5,38.6,59.3,49.2,49.0,10.3
104.25,37.9,58.7,48.6,48.4,10.4
105.0,38.0,59.0,47.9,48.3,10.5
105.75,37.7,58.4,48.2,48.1,10.4
106.5,36.9,57.7,47.7,47.4,10.4
107.25,36.6,57.3,48.1,47.4,10.4
108.0,36.5,56.6,47.6,46.9,10.1
108.75,36.6,56.5,46.9,46.7,10.0
109.5,37.0,56.0,48.2,47.1,9.6
110.25,36.4,55.5,48.7,46.9,9.7
111.0,35.9,55.9,47.9,46.6,10.0
111.75,35.9,55.6,48.6,46.7,10.0
112.5,35.4,55.2,48.5,46.3,10.1
113.25,35.3,55.5,48.8,46.5,10.3
114.0,35.3,55.7,49.3,46.8,10.4
114.75,34.9,56.3,49.1,46.7,10.9
115.5,35.0,56.4,48.5,46.6,10.9
116.25,34.9,56.8,47.8,46.5,11.0
117.0,34.4,56.2,47.7,46.1,11.0
117.75,34.4,55.7,47.5,45.9,10.8
118.5,34.1,54.9,47.7,45.6,10.6
119.25,34.0,55.1,46.5,45.2,10.6
120.0,33.8,54.8,46.7,45.1,10.6
120.75,33.8,54.2,46.9,45.0,10.3
121.5,33.5,54.3,45.0,44.3,10.4
122.25,33.8,52.7,44.4,43.6,9.5
123.0,33.7,53.1,44.2,43.7,9.7
123.75,33.9,53.1,43.9,43.6,9.6
124.5,33.4,,43.7,38.5,7.3
125.25,33.5,,43.4,38.4,7.0
126.0,33.0,,42.8,37.9,7.0
126.75,32.7,,42.9,37.8,7.2
127.5,32.7,,42.9,37.8,7.2
128.25,32.8,,42.5,37.6,6.8
129.0,32.8,,42.0,37.4,6.5
129.75,32.6,,41.3,36.9,6.1
130.5,32.5,,40.8,36.7,5.8
131.25,32.7,,41.0,36.8,5.9
132.0,32.3,,40.2,36.3,5.6
132.75,32.7,,40.3,36.5,5.4
133.5,32.1,,40.4,36.2,5.9
134.25,31.2,,39.6,35.4,5.9
135.0,31.4,,38.7,35.1,5.2
135.75,31.3,,38.5,34.9,5.1
136.5,31.1,,38.7,34.9,5.4
137.25,30.8,,37.4,34.1,4.6
138.0,30.7,,37.7,34.2,5.0
138.75,30.4,,37.8,34.1,5.2
139.5,30.2,,38.0,34.1,5.5
140.25,29.7,,37.5,33.6,5.5
141.0,29.6,,37.3,33.4,5.5
141.75,30.0,,36.9,33.4,4.9
142.5,30.2,,37.1,33.6,4.9
143.25,30.0,,37.4,33.7,5.2
144.0,29.9,,37.7,33.8,5.5
144.75,30.2,,36.8,33.5,4.7
145.5,30.6,,,30.6,
146.25,30.4,,,30.4,
147.0,29.5,,,29.5,
147.75,29.9,,,29.9,
148.5,29.6,,,29.6,
149.25,28.9,,,28.9,
150.0,29.3,,,29.3,
150.75,28.8,,,28.8,
151.5,28.0,,,28.0,
152.25,27.8,,,27.8,
153.0,27.7,,,27.7,
153.75,27.4,,,27.4,
154.5,26.6,,,26.6,
155.25,26.4,,,26.4,
156.0,26.3,,,26.3,
156.75,25.7,,,25.7,
157.5,25.0,,,25.0,
158.25,25.0,,,25.0,
159.0,25.1,,,25.1,
159.75,25.1,,,25.1,
160.5,24.9,,,24.9,
161.25,24.4,,,24.4,
162.0,24.1,,,24.1,
162.75,24.1,,,24.1,
163.5,23.8,,,23.8,
164.25,24.1,,,24.1,
165.0,23.7,,,23.7,
165.75,23.7,,,23.7,
166.5,23.4,,,23.4,
167.25,22.7,,,22.7,
168.0,23.4,,,23.4,
168.75,22.6,,,22.6,
169.5,22.7,,,22.7,
170.25,22.8,,,22.8,
171.0,22.4,,,22.4,
171.75,22.3,,,22.3,
172.5,22.2,,,22.2,
173.25,22.1,,,22.1,
174.0,21.4,,,21.4,
174.75,21.6,,,21.6,
175.5,21.9,,,21.9,
176.25,21.1,,,21.1,
177.0,20.8,,,20.8,
177.75,20.7,,,20.7,
178.5,20.5,,,20.5,
179.25,20.5,,,20.5,
180.0,20.2,,,20.2,
180.75,20.1,,,20.1,
181.5,20.4,,,20.4,
182.25,20.2,,,20.2,
183.0,20.5,,,20.5,
183.75,20.1,,,20.1,
184.5,20.4,,,20.4,
185.25,20.1,,,20.1,
185.5,20.3,,,20.3,