File: 01_Data/Cotton_Rug/Cone/Cotton_Rug_HRRPUA_50.csv
Time after Ignition,Cotton_Rug_R1,Cotton_Rug_R2,Cotton_Rug_R3,Mean,Std. Dev.
0.0,41.2,28.8,33.0,34.3,6.3
0.75,59.6,47.2,50.3,52.3,6.4
1.5,73.9,63.8,74.1,70.6,5.9
2.25,90.9,83.7,95.9,90.2,6.1
3.0,110.2,105.5,115.9,110.5,5.2
3.75,128.3,127.9,138.7,131.7,6.1
4.5,148.4,147.3,158.5,151.4,6.2
5.25,168.2,167.3,174.6,170.0,4.0
6.0,184.5,182.9,195.5,187.6,6.8
6.75,196.3,202.8,215.5,204.9,9.8
7.5,211.1,219.8,229.8,220.2,9.4
8.25,227.7,235.6,249.1,237.5,10.8
9.0,233.0,251.6,260.1,248.2,13.8
9.75,247.9,263.0,272.9,261.3,12.6
10.5,261.7,278.5,291.1,277.1,14.7
11.25,271.7,297.9,308.0,292.5,18.7
12.0,285.0,304.2,320.0,303.1,17.5
12.75,286.8,321.1,339.1,315.7,26.6
13.5,302.1,333.1,362.4,332.5,30.2
14.25,317.3,346.3,375.7,346.4,29.2
15.0,321.3,356.0,397.3,358.2,38.1
15.75,333.0,364.9,395.8,364.6,31.4
16.5,359.9,384.5,414.9,386.4,27.6
17.25,355.6,391.3,420.7,389.2,32.6
18.0,380.4,400.0,432.2,404.2,26.2
18.75,382.4,416.0,457.9,418.8,37.8
19.5,390.3,415.5,449.3,418.3,29.6
20.25,404.4,443.2,479.1,442.2,37.3
21.0,418.1,456.0,485.5,453.2,33.8
21.75,429.1,474.8,507.8,470.6,39.5
22.5,434.2,471.2,522.0,475.8,44.1
23.25,445.7,484.9,520.0,483.5,37.1
24.0,448.8,494.6,544.0,495.8,47.6
24.75,472.2,492.5,547.1,503.9,38.7
25.5,478.5,511.9,550.5,513.6,36.0
26.25,475.8,519.4,551.6,515.6,38.0
27.0,490.1,531.7,573.2,531.7,41.5
27.75,498.0,560.3,580.2,546.2,42.9
28.5,494.2,549.5,581.1,541.6,44.0
29.25,502.8,557.5,576.3,545.5,38.2
30.0,514.8,566.0,578.5,553.1,33.7
30.75,503.4,565.4,587.4,552.1,43.5
31.5,520.6,581.6,573.5,558.6,33.2
32.25,526.2,580.3,589.7,565.4,34.3
33.0,511.7,581.1,579.5,557.4,39.6
33.75,524.3,548.8,586.4,553.2,31.3
34.5,528.3,562.3,584.1,558.2,28.1
35.25,522.7,546.3,570.5,546.5,23.9
36.0,519.5,562.5,560.7,547.6,24.4
36.75,530.7,557.2,546.0,544.6,13.3
37.5,512.9,554.2,534.2,533.7,20.6
38.25,515.7,555.7,538.1,536.5,20.0
39.0,521.3,535.3,540.0,532.2,9.8
39.75,490.7,503.6,533.9,509.4,22.2
40.5,506.0,523.6,511.8,513.8,9.0
41.25,483.3,502.4,489.4,491.7,9.7
42.0,480.8,479.1,491.7,483.9,6.8
42.75,479.1,474.1,488.1,480.5,7.1
43.5,482.1,461.2,468.7,470.7,10.6
44.25,475.6,451.2,458.1,461.6,12.6
45.0,460.2,440.2,433.3,444.6,13.9
45.75,449.8,422.2,429.1,433.7,14.3
46.5,441.4,407.4,409.7,419.5,19.0
47.25,437.6,378.6,401.1,405.8,29.8
48.0,427.9,353.2,378.2,386.4,38.0
48.75,410.9,334.4,352.2,365.8,40.1
49.5,403.2,314.9,328.5,348.9,47.6
50.25,387.7,299.6,306.1,331.1,49.1
51.0,380.5,275.6,280.4,312.2,59.2
51.75,362.9,257.2,265.5,295.2,58.8
52.5,347.9,237.7,238.9,274.8,63.3
53.25,328.7,216.9,225.2,257.0,62.3
54.0,318.1,201.7,209.3,243.0,65.1
54.75,304.4,184.6,187.7,225.6,68.3
55.5,292.1,168.5,170.0,210.2,70.9
56.25,278.5,156.2,153.7,196.1,71.3
57.0,272.5,142.9,142.8,186.1,74.9
57.75,260.5,135.0,132.7,176.1,73.1
58.5,249.5,124.6,122.4,165.5,72.7
59.25,242.3,117.5,112.9,157.6,73.4
60.0,235.7,108.6,104.9,149.7,74.5
60.75,222.4,101.9,99.7,141.3,70.2
61.5,210.3,96.5,92.6,133.1,66.9
62.25,202.6,89.7,89.1,127.2,65.4
63.0,192.7,85.3,83.0,120.3,62.7
63.75,185.2,81.3,77.8,114.8,61.0
64.5,176.7,79.1,78.2,111.3,56.6
65.25,170.1,75.7,74.9,106.9,54.8
66.0,167.1,75.7,71.9,104.9,53.9
66.75,160.2,71.0,68.6,99.9,52.2
67.5,157.4,68.5,68.5,98.1,51.3
68.25,152.0,67.5,65.4,95.0,49.4
69.0,145.2,65.9,64.8,92.0,46.1
69.75,141.4,64.3,63.5,89.8,44.7
70.5,139.4,62.4,63.0,88.3,44.3
71.25,137.9,62.5,63.7,88.0,43.2
72.0,135.8,60.5,62.5,86.3,42.9
72.75,133.7,59.3,61.5,84.8,42.3
73.5,129.3,58.3,62.3,83.3,39.9
74.25,127.1,58.2,61.9,82.4,38.7
75.0,122.8,56.8,61.5,80.4,36.8
75.75,119.3,56.8,62.4,79.5,34.5
76.5,113.2,56.3,60.9,76.8,31.6
77.25,112.0,56.2,61.1,76.5,30.9
78.0,108.0,56.2,60.1,74.8,28.9
78.75,107.7,55.8,59.8,74.4,28.9
79.5,102.9,56.2,60.8,73.3,25.8
80.25,100.0,56.2,60.2,72.1,24.2
81.0,98.7,55.4,59.3,71.1,24.0
81.75,94.5,55.4,58.8,69.6,21.7
82.5,90.8,55.8,57.4,68.0,19.7
83.25,87.9,56.2,57.7,67.3,17.9
84.0,85.7,55.8,56.6,66.0,17.0
84.75,84.1,56.1,56.5,65.6,16.1
85.5,82.4,54.9,55.8,64.3,15.6
86.25,80.9,53.7,56.0,63.5,15.1
87.0,78.8,54.8,55.9,63.1,13.5
87.75,78.3,55.2,55.3,62.9,13.3
88.5,77.1,53.6,55.2,62.0,13.1
89.25,75.5,54.0,53.5,61.0,12.6
90.0,74.0,54.3,54.9,61.1,11.2
90.75,72.9,54.0,54.0,60.3,10.9
91.5,71.8,53.1,53.8,59.6,10.6
92.25,71.3,53.6,54.1,59.6,10.1
93.0,69.9,52.5,53.4,58.6,9.8
93.75,69.1,51.5,53.2,58.0,9.7
94.5,68.3,52.3,52.8,57.8,9.1
95.25,68.4,52.3,52.4,57.7,9.3
96.0,67.0,52.1,52.3,57.1,8.5
96.75,65.6,52.5,51.5,56.5,7.9
97.5,65.2,51.9,51.4,56.2,7.8
98.25,65.9,52.2,51.0,56.4,8.3
99.0,65.3,52.1,51.0,56.1,8.0
99.75,64.5,51.8,50.9,55.7,7.6
100.5,64.0,51.6,50.2,55.3,7.6
101.25,64.1,52.2,50.0,55.5,7.6
102.0,63.5,51.1,50.3,55.0,7.4
102.75,62.3,52.3,50.5,55.0,6.3
103.5,62.1,50.9,51.3,54.8,6.3
104.25,62.0,51.8,50.0,54.6,6.5
105.0,61.6,50.6,51.6,54.6,6.0
105.75,61.8,50.1,51.4,54.4,6.4
106.5,61.3,50.0,51.1,54.1,6.2
107.25,61.2,50.0,51.6,54.3,6.0
108.0,60.9,50.3,52.0,54.4,5.7
108.75,60.5,49.9,51.1,53.8,5.8
109.5,60.8,49.9,51.3,54.0,5.9
110.25,59.6,49.5,52.1,53.7,5.3
111.0,60.0,49.5,52.6,54.0,5.4
111.75,59.9,49.1,52.5,53.8,5.5
112.5,60.4,49.9,52.0,54.1,5.6
113.25,59.1,49.5,52.2,53.6,4.9
114.0,58.9,49.8,52.4,53.7,4.7
114.75,58.8,49.9,52.2,53.6,4.6
115.5,58.9,49.6,52.9,53.8,4.7
116.25,59.0,49.4,52.8,53.7,4.9
117.0,59.2,49.6,52.5,53.8,4.9
117.75,59.0,49.8,51.7,53.5,4.8
118.5,58.4,50.4,52.3,53.7,4.2
119.25,58.6,48.8,51.9,53.1,5.0
120.0,58.8,49.2,51.7,53.2,5.0
120.75,57.4,50.1,51.8,53.1,3.8
121.5,58.2,49.1,50.6,52.6,4.9
122.25,58.5,48.5,51.3,52.8,5.1
123.0,56.7,49.1,51.4,52.4,3.9
123.75,57.6,48.2,51.6,52.5,4.8
124.5,56.2,48.5,51.2,52.0,3.9
125.25,55.6,48.3,50.8,51.6,3.7
126.0,56.0,48.1,51.2,51.7,4.0
126.75,55.5,48.3,50.8,51.5,3.7
127.5,55.6,48.2,50.8,51.5,3.8
128.25,56.1,49.2,51.1,52.1,3.6
129.0,55.3,48.1,50.1,51.2,3.7
129.75,54.8,47.8,50.4,51.0,3.5
130.5,54.4,47.9,49.9,50.7,3.3
131.25,53.7,47.7,49.8,50.4,3.1
132.0,53.0,47.3,50.2,50.2,2.9
132.75,53.4,46.6,49.7,49.9,3.4
133.5,52.7,47.4,49.4,49.9,2.7
134.25,52.5,47.1,49.6,49.7,2.7
135.0,51.8,47.1,49.7,49.5,2.4
135.75,50.7,46.9,50.1,49.2,2.1
136.5,51.5,46.7,49.4,49.2,2.4
137.25,50.6,47.0,48.9,48.8,1.8
138.0,50.8,47.0,48.8,48.8,1.9
138.75,50.2,46.8,48.6,48.5,1.7
139.5,49.5,46.5,48.8,48.3,1.6
140.25,49.4,46.4,49.0,48.3,1.6
141.0,48.6,46.6,49.0,48.1,1.3
141.75,48.4,46.5,48.7,47.9,1.2
142.5,48.4,45.5,48.5,47.5,1.7
143.25,48.6,45.7,49.2,47.8,1.9
144.0,48.7,45.5,48.8,47.7,1.9
144.75,48.5,45.2,48.2,47.3,1.8
145.5,48.0,44.8,48.8,47.2,2.1
146.25,47.4,45.0,48.4,46.9,1.8
147.0,46.7,44.9,48.1,46.5,1.6
147.75,46.2,45.2,48.1,46.5,1.5
148.5,45.6,44.9,48.6,46.4,1.9
149.25,45.1,44.4,47.1,45.5,1.4
150.0,44.9,44.0,47.7,45.5,2.0
150.75,43.9,43.7,47.6,45.1,2.2
151.5,43.9,44.3,46.6,44.9,1.4
152.25,42.9,43.4,46.0,44.1,1.7
153.0,41.9,43.7,46.6,44.1,2.4
153.75,41.9,43.9,46.6,44.1,2.4
154.5,41.0,43.1,46.5,43.5,2.8
155.25,41.2,44.0,46.3,43.8,2.6
156.0,41.1,43.4,47.2,43.9,3.1
156.75,40.1,43.9,45.9,43.3,2.9
157.5,39.4,43.7,45.3,42.8,3.1
158.25,39.2,42.9,45.4,42.5,3.1
159.0,38.2,42.9,45.5,42.2,3.7
159.75,37.9,42.0,46.0,41.9,4.0
160.5,37.2,41.8,46.2,41.7,4.5
161.25,37.3,41.7,45.9,41.6,4.3
162.0,36.7,41.4,44.9,41.0,4.1
162.75,36.9,40.9,44.6,40.8,3.9
163.5,36.7,40.6,44.7,40.7,4.0
164.25,36.5,40.3,44.5,40.4,4.0
165.0,36.2,39.7,45.1,40.3,4.5
165.75,35.5,39.3,44.3,39.7,4.4
166.5,35.7,39.1,43.6,39.5,4.0
167.25,35.0,38.8,44.2,39.3,4.6
168.0,35.3,38.8,43.6,39.2,4.2
168.75,35.4,38.7,43.8,39.3,4.3
169.5,34.4,38.3,43.8,38.8,4.7
170.25,34.9,38.4,43.6,39.0,4.4
171.0,34.3,38.1,43.0,38.4,4.4
171.75,34.3,37.3,43.3,38.3,4.6
172.5,33.8,38.1,42.6,38.2,4.4
173.25,34.5,37.5,43.0,38.3,4.3
174.0,34.4,37.9,42.5,38.3,4.1
174.75,34.1,37.5,42.4,38.0,4.2
175.5,33.3,37.1,42.6,37.7,4.7
176.25,32.6,37.4,41.9,37.3,4.6
177.0,32.1,37.3,42.1,37.2,5.0
177.75,32.5,37.3,42.9,37.6,5.2
178.5,32.2,36.6,41.9,36.9,4.8
179.25,32.1,,41.6,36.8,6.7
180.0,31.6,,42.0,36.8,7.4
180.75,31.5,,41.0,36.3,6.7
181.5,30.9,,40.8,35.8,7.0
182.25,30.7,,40.1,35.4,6.7
183.0,30.3,,40.1,35.2,7.0
183.75,30.1,,39.4,34.8,6.5
184.5,30.2,,40.2,35.2,7.1
185.25,30.0,,39.0,34.5,6.4
186.0,29.6,,39.0,34.3,6.6
186.75,29.4,,38.3,33.8,6.3
187.5,29.0,,38.9,33.9,7.0
188.25,29.0,,38.5,33.7,6.7
189.0,28.6,,39.2,33.9,7.5
189.75,28.6,,38.1,33.3,6.7
190.5,28.5,,38.4,33.4,7.0
191.25,28.4,,37.5,33.0,6.4
192.0,28.6,,38.2,33.4,6.8
192.75,28.1,,37.2,32.7,6.4