File: 01_Data/Nylon/HFM/Nylon_Density_Wet_R3.csv
,Nylon_Carpet_High_Pile_WET_3
Sample Mass [g],146.8
Sample Volume [cm3],136.9
Sample Density [kg/m3],1072