File: 01_Data/LDPE/HFM/LDPE_Density_Wet_R1.csv
,HDPE_WET_1
Sample Mass [g],120.8
Sample Volume [cm3],130.5
Sample Density [kg/m3],925