File: 01_Data/LDPE/HFM/LDPE_Density_Wet_R2.csv
,HDPE_WET_2
Sample Mass [g],121.4
Sample Volume [cm3],130.5
Sample Density [kg/m3],930