File: 01_Data/LDPE/HFM/LDPE_Density_Wet_R3.csv
,HDPE_WET_3
Sample Mass [g],121
Sample Volume [cm3],130.5
Sample Density [kg/m3],927