File: 01_Data/Hemp_Sheet/FTIR/IS/Hemp_Sheet_IS_S_220909_R1.dpt
7497.03,0.57133
7473.89,0.57550
7450.74,0.57077
7427.6,0.56957
7404.45,0.56728
7381.31,0.55303
7358.16,0.55777
7335.02,0.55619
7311.87,0.55224
7288.73,0.55636
7265.58,0.55512
7242.44,0.56354
7219.29,0.54888
7196.15,0.55802
7173,0.55881
7149.86,0.54512
7126.71,0.54963
7103.57,0.53503
7080.42,0.53494
7057.28,0.52639
7034.13,0.52226
7010.99,0.50536
6987.84,0.50479
6964.7,0.49146
6941.55,0.49694
6918.41,0.49011
6895.26,0.48792
6872.12,0.47786
6848.97,0.48339
6825.83,0.47943
6802.68,0.47010
6779.54,0.46925
6756.39,0.46308
6733.25,0.45693
6710.1,0.46350
6686.96,0.46136
6663.82,0.46068
6640.67,0.46544
6617.53,0.46728
6594.38,0.47115
6571.24,0.47210
6548.09,0.47152
6524.95,0.47210
6501.8,0.46860
6478.66,0.46936
6455.51,0.46991
6432.37,0.47446
6409.22,0.47325
6386.08,0.47538
6362.93,0.47654
6339.79,0.47621
6316.64,0.48188
6293.5,0.47890
6270.35,0.48382
6247.21,0.48866
6224.06,0.49596
6200.92,0.50357
6177.77,0.50699
6154.63,0.51427
6131.48,0.51729
6108.34,0.52396
6085.19,0.52729
6062.05,0.52591
6038.9,0.53253
6015.76,0.53671
5992.61,0.53657
5969.47,0.53674
5946.32,0.53705
5923.18,0.53351
5900.03,0.53497
5876.89,0.52738
5853.74,0.52548
5830.6,0.52667
5807.45,0.52463
5784.31,0.52377
5761.16,0.52361
5738.02,0.52129
5714.87,0.52039
5691.73,0.52014
5668.58,0.51752
5645.44,0.51663
5622.29,0.51753
5599.15,0.51815
5576,0.51971
5552.86,0.51934
5529.71,0.51969
5506.57,0.51976
5483.42,0.51862
5460.28,0.51972
5437.13,0.52291
5413.99,0.52684
5390.84,0.52821
5367.7,0.52811
5344.55,0.52925
5321.41,0.52393
5298.26,0.51533
5275.12,0.49922
5251.97,0.47582
5228.83,0.45466
5205.68,0.44268
5182.54,0.43747
5159.39,0.43971
5136.25,0.44506
5113.1,0.45383
5089.96,0.46056
5066.81,0.46847
5043.67,0.47345
5020.52,0.47796
4997.38,0.48016
4974.23,0.47817
4951.09,0.47164
4927.94,0.45806
4904.8,0.44203
4881.65,0.42029
4858.51,0.40097
4835.36,0.38439
4812.22,0.36891
4789.07,0.36183
4765.93,0.35501
4742.78,0.35419
4719.64,0.36034
4696.49,0.36837
4673.35,0.37867
4650.2,0.38837
4627.06,0.39596
4603.92,0.40464
4580.77,0.41292
4557.63,0.42232
4534.48,0.42936
4511.34,0.43463
4488.19,0.43608
4465.05,0.43169
4441.9,0.41415
4418.76,0.38178
4395.61,0.35957
4372.47,0.37169
4349.32,0.37029
4326.18,0.35938
4303.03,0.34919
4279.89,0.33922
4256.74,0.34074
4233.6,0.34336
4210.45,0.34523
4187.31,0.35098
4164.16,0.35408
4141.02,0.34984
4117.87,0.33998
4094.73,0.31692
4071.58,0.29523
4048.44,0.26785
4025.29,0.25231
4002.15,0.25937
3979,0.26958
3955.86,0.27797
3932.71,0.28996
3909.57,0.29834
3886.42,0.30712
3863.28,0.31571
3840.13,0.32689
3816.99,0.32858
3793.84,0.32762
3770.7,0.32553
3747.55,0.32185
3724.41,0.30718
3701.26,0.28270
3678.12,0.23987
3654.97,0.17703
3631.83,0.12453
3608.68,0.08878
3585.54,0.06502
3562.39,0.05111
3539.25,0.04188
3516.1,0.03547
3492.96,0.03156
3469.81,0.02909
3446.67,0.02823
3423.52,0.02812
3400.38,0.02805
3377.23,0.02953
3354.09,0.02959
3330.94,0.03393
3307.8,0.03475
3284.65,0.03614
3261.51,0.03969
3238.36,0.04098
3215.22,0.04528
3192.07,0.04914
3168.93,0.05432
3145.78,0.06105
3122.64,0.06869
3099.49,0.07757
3076.35,0.08599
3053.2,0.09510
3030.06,0.10279
3006.91,0.10721
2983.77,0.09476
2960.62,0.06447
2937.48,0.05633
2914.33,0.04838
2891.19,0.04936
2868.04,0.05317
2844.9,0.06378
2821.75,0.08330
2798.61,0.09943
2775.46,0.10425
2752.32,0.10723
2729.17,0.10790
2706.03,0.11549
2682.88,0.12786
2659.74,0.13615
2636.59,0.14443
2613.45,0.15280
2590.3,0.15823
2567.16,0.15858
2544.02,0.15518
2520.87,0.15803
2497.73,0.16942
2474.58,0.18076
2451.44,0.18785
2428.29,0.19949
2405.15,0.21040
2382,0.22038
2358.86,0.23071
2335.71,0.23879
2312.57,0.24274
2289.42,0.23865
2266.28,0.22975
2243.13,0.21942
2219.99,0.22001
2196.84,0.22172
2173.7,0.20648
2150.55,0.19183
2127.41,0.18881
2104.26,0.19940
2081.12,0.20606
2057.97,0.20540
2034.83,0.21048
2011.68,0.23098
1988.54,0.24031
1965.39,0.24700
1942.25,0.25913
1919.1,0.27078
1895.96,0.27331
1872.81,0.27044
1849.67,0.26273
1826.52,0.25197
1803.38,0.23936
1780.23,0.22442
1757.09,0.20525
1733.94,0.18360
1710.8,0.16468
1687.65,0.13420
1664.51,0.09836
1641.36,0.08679
1618.22,0.09313
1595.07,0.10222
1571.93,0.11787
1548.78,0.12211
1525.64,0.11689
1502.49,0.09732
1479.35,0.06215
1456.2,0.04184
1433.06,0.03428
1409.91,0.04416
1386.77,0.03787
1363.62,0.03295
1340.48,0.03401
1317.33,0.03449
1294.19,0.04181
1271.04,0.04114
1247.9,0.03958
1224.75,0.04128
1201.61,0.03014
1178.46,0.02645
1155.32,0.03557
1132.17,0.02241
1109.03,0.03484
1085.88,0.03057
1062.74,0.06819
1039.59,0.05543
1016.45,0.05815
993.304,0.06019
970.159,0.08371
947.014,0.11009
923.869,0.11374
900.724,0.08672
877.579,0.10753
854.434,0.11549
831.289,0.10208
808.144,0.07728
784.999,0.07843
761.854,0.06941
738.709,0.05658
715.565,0.04495
692.42,0.04665
669.275,0.04559
646.13,0.04382
622.985,0.03896
599.84,0.04511