File: 01_Data/Hemp_Sheet/FTIR/IS/Hemp_Sheet_IS_S_220909_R2.dpt
7497.03,0.57613
7473.89,0.58478
7450.74,0.57424
7427.6,0.57193
7404.45,0.56677
7381.31,0.57006
7358.16,0.56586
7335.02,0.55730
7311.87,0.56135
7288.73,0.55424
7265.58,0.55266
7242.44,0.54937
7219.29,0.55492
7196.15,0.56284
7173,0.55290
7149.86,0.54917
7126.71,0.54667
7103.57,0.54979
7080.42,0.53390
7057.28,0.52530
7034.13,0.52056
7010.99,0.50785
6987.84,0.50477
6964.7,0.50114
6941.55,0.49843
6918.41,0.48996
6895.26,0.49310
6872.12,0.48931
6848.97,0.48427
6825.83,0.47840
6802.68,0.47566
6779.54,0.46788
6756.39,0.46248
6733.25,0.45948
6710.1,0.46280
6686.96,0.46183
6663.82,0.46426
6640.67,0.46681
6617.53,0.46761
6594.38,0.46847
6571.24,0.47519
6548.09,0.47087
6524.95,0.47030
6501.8,0.47238
6478.66,0.46892
6455.51,0.47566
6432.37,0.47245
6409.22,0.47407
6386.08,0.47769
6362.93,0.47976
6339.79,0.47817
6316.64,0.48129
6293.5,0.48178
6270.35,0.48441
6247.21,0.49331
6224.06,0.49814
6200.92,0.50329
6177.77,0.50494
6154.63,0.51684
6131.48,0.52138
6108.34,0.52587
6085.19,0.52852
6062.05,0.53081
6038.9,0.53535
6015.76,0.53651
5992.61,0.53549
5969.47,0.53942
5946.32,0.54030
5923.18,0.53648
5900.03,0.53347
5876.89,0.53010
5853.74,0.52827
5830.6,0.52687
5807.45,0.52612
5784.31,0.52343
5761.16,0.52518
5738.02,0.52284
5714.87,0.52113
5691.73,0.51959
5668.58,0.51843
5645.44,0.51902
5622.29,0.51744
5599.15,0.51619
5576,0.51905
5552.86,0.52030
5529.71,0.51815
5506.57,0.51927
5483.42,0.51956
5460.28,0.52048
5437.13,0.52333
5413.99,0.52586
5390.84,0.52833
5367.7,0.52922
5344.55,0.52949
5321.41,0.52538
5298.26,0.51905
5275.12,0.50418
5251.97,0.48534
5228.83,0.46454
5205.68,0.45347
5182.54,0.44902
5159.39,0.45279
5136.25,0.45734
5113.1,0.46565
5089.96,0.47073
5066.81,0.47747
5043.67,0.48226
5020.52,0.48590
4997.38,0.48730
4974.23,0.48395
4951.09,0.47550
4927.94,0.46113
4904.8,0.44266
4881.65,0.42135
4858.51,0.40114
4835.36,0.38574
4812.22,0.36900
4789.07,0.36071
4765.93,0.35515
4742.78,0.35474
4719.64,0.36060
4696.49,0.36928
4673.35,0.37948
4650.2,0.38855
4627.06,0.39644
4603.92,0.40502
4580.77,0.41403
4557.63,0.42405
4534.48,0.43041
4511.34,0.43455
4488.19,0.43585
4465.05,0.43240
4441.9,0.41411
4418.76,0.38232
4395.61,0.36040
4372.47,0.37142
4349.32,0.36997
4326.18,0.36013
4303.03,0.34980
4279.89,0.34016
4256.74,0.34029
4233.6,0.34387
4210.45,0.34608
4187.31,0.35137
4164.16,0.35499
4141.02,0.35133
4117.87,0.34099
4094.73,0.31847
4071.58,0.29594
4048.44,0.26891
4025.29,0.25438
4002.15,0.25962
3979,0.27101
3955.86,0.27964
3932.71,0.29084
3909.57,0.30022
3886.42,0.30790
3863.28,0.31642
3840.13,0.32864
3816.99,0.32992
3793.84,0.33063
3770.7,0.32908
3747.55,0.32520
3724.41,0.31291
3701.26,0.28964
3678.12,0.24960
3654.97,0.18791
3631.83,0.13536
3608.68,0.09601
3585.54,0.07001
3562.39,0.05341
3539.25,0.04364
3516.1,0.03635
3492.96,0.03179
3469.81,0.02904
3446.67,0.02780
3423.52,0.02807
3400.38,0.02851
3377.23,0.02899
3354.09,0.02985
3330.94,0.03490
3307.8,0.03472
3284.65,0.03637
3261.51,0.03921
3238.36,0.04228
3215.22,0.04564
3192.07,0.05036
3168.93,0.05641
3145.78,0.06363
3122.64,0.07193
3099.49,0.08108
3076.35,0.09007
3053.2,0.09915
3030.06,0.10677
3006.91,0.11099
2983.77,0.09678
2960.62,0.06512
2937.48,0.05607
2914.33,0.04781
2891.19,0.04920
2868.04,0.05289
2844.9,0.06403
2821.75,0.08362
2798.61,0.09964
2775.46,0.10553
2752.32,0.10802
2729.17,0.10860
2706.03,0.11615
2682.88,0.12929
2659.74,0.13648
2636.59,0.14568
2613.45,0.15305
2590.3,0.15867
2567.16,0.15944
2544.02,0.15581
2520.87,0.15853
2497.73,0.16986
2474.58,0.18134
2451.44,0.18914
2428.29,0.20045
2405.15,0.21140
2382,0.22163
2358.86,0.23153
2335.71,0.24029
2312.57,0.24534
2289.42,0.24189
2266.28,0.23292
2243.13,0.22242
2219.99,0.22376
2196.84,0.22571
2173.7,0.21007
2150.55,0.19535
2127.41,0.19245
2104.26,0.20323
2081.12,0.21024
2057.97,0.20878
2034.83,0.21454
2011.68,0.23502
1988.54,0.24443
1965.39,0.25098
1942.25,0.26334
1919.1,0.27480
1895.96,0.27739
1872.81,0.27446
1849.67,0.26668
1826.52,0.25598
1803.38,0.24334
1780.23,0.22826
1757.09,0.20939
1733.94,0.18782
1710.8,0.17132
1687.65,0.14254
1664.51,0.10581
1641.36,0.09306
1618.22,0.09796
1595.07,0.10588
1571.93,0.12125
1548.78,0.12517
1525.64,0.11916
1502.49,0.09845
1479.35,0.06257
1456.2,0.04179
1433.06,0.03404
1409.91,0.04395
1386.77,0.03788
1363.62,0.03298
1340.48,0.03387
1317.33,0.03466
1294.19,0.04151
1271.04,0.04086
1247.9,0.03903
1224.75,0.04048
1201.61,0.02993
1178.46,0.02643
1155.32,0.03562
1132.17,0.02191
1109.03,0.03483
1085.88,0.03137
1062.74,0.06837
1039.59,0.05611
1016.45,0.05855
993.304,0.06052
970.159,0.08379
947.014,0.11126
923.869,0.11490
900.724,0.08804
877.579,0.10913
854.434,0.12001
831.289,0.10570
808.144,0.08064
784.999,0.08248
761.854,0.07229
738.709,0.05806
715.565,0.04772
692.42,0.04789
669.275,0.04627
646.13,0.04348
622.985,0.04068
599.84,0.04579