File: 01_Data/Hemp_Sheet/FTIR/IS/Hemp_Sheet_IS_S_220909_R3.dpt
7497.03,0.57400
7473.89,0.57711
7450.74,0.57147
7427.6,0.57303
7404.45,0.56671
7381.31,0.56825
7358.16,0.56991
7335.02,0.55845
7311.87,0.56161
7288.73,0.55350
7265.58,0.55503
7242.44,0.55330
7219.29,0.55935
7196.15,0.55603
7173,0.55527
7149.86,0.55390
7126.71,0.54584
7103.57,0.54668
7080.42,0.53884
7057.28,0.52903
7034.13,0.51939
7010.99,0.50483
6987.84,0.49830
6964.7,0.49960
6941.55,0.49178
6918.41,0.48510
6895.26,0.48156
6872.12,0.48366
6848.97,0.48190
6825.83,0.47096
6802.68,0.47256
6779.54,0.47091
6756.39,0.46351
6733.25,0.46424
6710.1,0.46463
6686.96,0.45950
6663.82,0.46846
6640.67,0.46497
6617.53,0.46845
6594.38,0.47371
6571.24,0.47444
6548.09,0.47888
6524.95,0.47092
6501.8,0.47334
6478.66,0.47269
6455.51,0.47180
6432.37,0.47501
6409.22,0.47890
6386.08,0.47930
6362.93,0.47822
6339.79,0.47988
6316.64,0.48002
6293.5,0.48371
6270.35,0.48917
6247.21,0.48931
6224.06,0.49804
6200.92,0.50322
6177.77,0.51032
6154.63,0.51393
6131.48,0.51693
6108.34,0.52406
6085.19,0.52746
6062.05,0.53211
6038.9,0.53347
6015.76,0.53509
5992.61,0.54033
5969.47,0.54082
5946.32,0.54071
5923.18,0.53508
5900.03,0.53515
5876.89,0.52907
5853.74,0.52929
5830.6,0.52891
5807.45,0.52784
5784.31,0.52530
5761.16,0.52429
5738.02,0.52470
5714.87,0.52327
5691.73,0.52147
5668.58,0.52121
5645.44,0.51931
5622.29,0.51659
5599.15,0.51883
5576,0.52002
5552.86,0.52006
5529.71,0.52177
5506.57,0.51757
5483.42,0.52083
5460.28,0.52029
5437.13,0.52424
5413.99,0.52718
5390.84,0.52998
5367.7,0.53195
5344.55,0.53266
5321.41,0.52727
5298.26,0.52016
5275.12,0.50793
5251.97,0.48837
5228.83,0.47100
5205.68,0.45893
5182.54,0.45713
5159.39,0.45817
5136.25,0.46521
5113.1,0.47164
5089.96,0.47643
5066.81,0.48241
5043.67,0.48700
5020.52,0.49057
4997.38,0.49142
4974.23,0.48672
4951.09,0.47867
4927.94,0.46261
4904.8,0.44546
4881.65,0.42191
4858.51,0.40262
4835.36,0.38628
4812.22,0.37035
4789.07,0.36192
4765.93,0.35650
4742.78,0.35560
4719.64,0.36191
4696.49,0.37000
4673.35,0.38100
4650.2,0.38869
4627.06,0.39773
4603.92,0.40609
4580.77,0.41462
4557.63,0.42473
4534.48,0.43120
4511.34,0.43610
4488.19,0.43724
4465.05,0.43339
4441.9,0.41635
4418.76,0.38386
4395.61,0.36141
4372.47,0.37193
4349.32,0.37061
4326.18,0.36042
4303.03,0.35018
4279.89,0.34072
4256.74,0.34222
4233.6,0.34498
4210.45,0.34672
4187.31,0.35316
4164.16,0.35641
4141.02,0.35228
4117.87,0.34224
4094.73,0.32026
4071.58,0.29647
4048.44,0.27059
4025.29,0.25439
4002.15,0.26085
3979,0.27087
3955.86,0.28070
3932.71,0.29271
3909.57,0.30150
3886.42,0.30910
3863.28,0.31802
3840.13,0.32971
3816.99,0.33216
3793.84,0.33344
3770.7,0.33202
3747.55,0.32789
3724.41,0.31588
3701.26,0.29380
3678.12,0.25457
3654.97,0.19296
3631.83,0.13979
3608.68,0.09910
3585.54,0.07140
3562.39,0.05479
3539.25,0.04416
3516.1,0.03589
3492.96,0.03125
3469.81,0.02895
3446.67,0.02805
3423.52,0.02795
3400.38,0.02845
3377.23,0.02888
3354.09,0.02969
3330.94,0.03394
3307.8,0.03511
3284.65,0.03621
3261.51,0.03942
3238.36,0.04242
3215.22,0.04613
3192.07,0.05105
3168.93,0.05751
3145.78,0.06457
3122.64,0.07188
3099.49,0.08226
3076.35,0.09209
3053.2,0.10139
3030.06,0.10883
3006.91,0.11243
2983.77,0.09771
2960.62,0.06492
2937.48,0.05676
2914.33,0.04824
2891.19,0.04914
2868.04,0.05320
2844.9,0.06430
2821.75,0.08402
2798.61,0.10022
2775.46,0.10648
2752.32,0.10832
2729.17,0.10946
2706.03,0.11624
2682.88,0.12923
2659.74,0.13699
2636.59,0.14567
2613.45,0.15332
2590.3,0.15956
2567.16,0.15967
2544.02,0.15636
2520.87,0.15945
2497.73,0.17094
2474.58,0.18215
2451.44,0.18927
2428.29,0.20175
2405.15,0.21276
2382,0.22266
2358.86,0.23335
2335.71,0.24173
2312.57,0.24701
2289.42,0.24313
2266.28,0.23472
2243.13,0.22415
2219.99,0.22567
2196.84,0.22815
2173.7,0.21216
2150.55,0.19705
2127.41,0.19447
2104.26,0.20496
2081.12,0.21217
2057.97,0.21080
2034.83,0.21645
2011.68,0.23706
1988.54,0.24675
1965.39,0.25352
1942.25,0.26528
1919.1,0.27782
1895.96,0.27989
1872.81,0.27706
1849.67,0.26924
1826.52,0.25807
1803.38,0.24546
1780.23,0.23044
1757.09,0.21173
1733.94,0.19029
1710.8,0.17477
1687.65,0.14644
1664.51,0.10958
1641.36,0.09615
1618.22,0.10006
1595.07,0.10722
1571.93,0.12314
1548.78,0.12652
1525.64,0.12120
1502.49,0.09926
1479.35,0.06325
1456.2,0.04179
1433.06,0.03453
1409.91,0.04395
1386.77,0.03806
1363.62,0.03285
1340.48,0.03363
1317.33,0.03429
1294.19,0.04111
1271.04,0.04103
1247.9,0.03976
1224.75,0.04042
1201.61,0.02991
1178.46,0.02614
1155.32,0.03574
1132.17,0.02237
1109.03,0.03452
1085.88,0.03077
1062.74,0.06788
1039.59,0.05594
1016.45,0.05846
993.304,0.06018
970.159,0.08348
947.014,0.11110
923.869,0.11541
900.724,0.08890
877.579,0.11098
854.434,0.12185
831.289,0.10817
808.144,0.08167
784.999,0.08348
761.854,0.07446
738.709,0.06038
715.565,0.04684
692.42,0.04709
669.275,0.04563
646.13,0.04443
622.985,0.03917
599.84,0.04794