File: 01_Data/Hemp_Sheet/FTIR/IS/Hemp_Sheet_IS_S_220909_R5.dpt
7497.03,0.57423
7473.89,0.57735
7450.74,0.56929
7427.6,0.57114
7404.45,0.56935
7381.31,0.57456
7358.16,0.56656
7335.02,0.55173
7311.87,0.56221
7288.73,0.55614
7265.58,0.55467
7242.44,0.55840
7219.29,0.55222
7196.15,0.55453
7173,0.55405
7149.86,0.55313
7126.71,0.54642
7103.57,0.55174
7080.42,0.53461
7057.28,0.52892
7034.13,0.51997
7010.99,0.50455
6987.84,0.50190
6964.7,0.50151
6941.55,0.49326
6918.41,0.48771
6895.26,0.48457
6872.12,0.48867
6848.97,0.48386
6825.83,0.48261
6802.68,0.47311
6779.54,0.46909
6756.39,0.46360
6733.25,0.46281
6710.1,0.46019
6686.96,0.46116
6663.82,0.46579
6640.67,0.47006
6617.53,0.46922
6594.38,0.46989
6571.24,0.46837
6548.09,0.47553
6524.95,0.47572
6501.8,0.47139
6478.66,0.47407
6455.51,0.47083
6432.37,0.47625
6409.22,0.47319
6386.08,0.47707
6362.93,0.47911
6339.79,0.48045
6316.64,0.48101
6293.5,0.48359
6270.35,0.48575
6247.21,0.49488
6224.06,0.50122
6200.92,0.50437
6177.77,0.51232
6154.63,0.51302
6131.48,0.52053
6108.34,0.52409
6085.19,0.53007
6062.05,0.53308
6038.9,0.53589
6015.76,0.53991
5992.61,0.54011
5969.47,0.54071
5946.32,0.54037
5923.18,0.53669
5900.03,0.53663
5876.89,0.52810
5853.74,0.52772
5830.6,0.52861
5807.45,0.52797
5784.31,0.52367
5761.16,0.52395
5738.02,0.52461
5714.87,0.52171
5691.73,0.52047
5668.58,0.51991
5645.44,0.51867
5622.29,0.51892
5599.15,0.51959
5576,0.52032
5552.86,0.52159
5529.71,0.52158
5506.57,0.52027
5483.42,0.51911
5460.28,0.52047
5437.13,0.52560
5413.99,0.52720
5390.84,0.52997
5367.7,0.53094
5344.55,0.53020
5321.41,0.52862
5298.26,0.52196
5275.12,0.50922
5251.97,0.49283
5228.83,0.47752
5205.68,0.46561
5182.54,0.46267
5159.39,0.46540
5136.25,0.47033
5113.1,0.47594
5089.96,0.48176
5066.81,0.48782
5043.67,0.49146
5020.52,0.49239
4997.38,0.49309
4974.23,0.48932
4951.09,0.47860
4927.94,0.46439
4904.8,0.44384
4881.65,0.42236
4858.51,0.40258
4835.36,0.38546
4812.22,0.36896
4789.07,0.36136
4765.93,0.35740
4742.78,0.35596
4719.64,0.36167
4696.49,0.37019
4673.35,0.38046
4650.2,0.38905
4627.06,0.39713
4603.92,0.40607
4580.77,0.41510
4557.63,0.42425
4534.48,0.43121
4511.34,0.43734
4488.19,0.43752
4465.05,0.43393
4441.9,0.41546
4418.76,0.38278
4395.61,0.36155
4372.47,0.37253
4349.32,0.37058
4326.18,0.36063
4303.03,0.34984
4279.89,0.34022
4256.74,0.34134
4233.6,0.34470
4210.45,0.34693
4187.31,0.35390
4164.16,0.35715
4141.02,0.35254
4117.87,0.34246
4094.73,0.32004
4071.58,0.29661
4048.44,0.26963
4025.29,0.25497
4002.15,0.26184
3979,0.27240
3955.86,0.28064
3932.71,0.29279
3909.57,0.30222
3886.42,0.30910
3863.28,0.31901
3840.13,0.33071
3816.99,0.33372
3793.84,0.33462
3770.7,0.33353
3747.55,0.32996
3724.41,0.31886
3701.26,0.29768
3678.12,0.25994
3654.97,0.20004
3631.83,0.14638
3608.68,0.10383
3585.54,0.07418
3562.39,0.05567
3539.25,0.04447
3516.1,0.03640
3492.96,0.03182
3469.81,0.02946
3446.67,0.02811
3423.52,0.02784
3400.38,0.02819
3377.23,0.02933
3354.09,0.03085
3330.94,0.03417
3307.8,0.03476
3284.65,0.03587
3261.51,0.03936
3238.36,0.04193
3215.22,0.04654
3192.07,0.05224
3168.93,0.05831
3145.78,0.06575
3122.64,0.07456
3099.49,0.08454
3076.35,0.09430
3053.2,0.10300
3030.06,0.11154
3006.91,0.11467
2983.77,0.09879
2960.62,0.06542
2937.48,0.05635
2914.33,0.04849
2891.19,0.04932
2868.04,0.05321
2844.9,0.06433
2821.75,0.08444
2798.61,0.10046
2775.46,0.10661
2752.32,0.10898
2729.17,0.10964
2706.03,0.11737
2682.88,0.13001
2659.74,0.13703
2636.59,0.14609
2613.45,0.15391
2590.3,0.15995
2567.16,0.16026
2544.02,0.15672
2520.87,0.15969
2497.73,0.17122
2474.58,0.18238
2451.44,0.18981
2428.29,0.20149
2405.15,0.21326
2382,0.22297
2358.86,0.23359
2335.71,0.24271
2312.57,0.24772
2289.42,0.24436
2266.28,0.23604
2243.13,0.22580
2219.99,0.22754
2196.84,0.23000
2173.7,0.21367
2150.55,0.19867
2127.41,0.19602
2104.26,0.20698
2081.12,0.21394
2057.97,0.21273
2034.83,0.21792
2011.68,0.23896
1988.54,0.24842
1965.39,0.25540
1942.25,0.26720
1919.1,0.27955
1895.96,0.28206
1872.81,0.27944
1849.67,0.27112
1826.52,0.26018
1803.38,0.24725
1780.23,0.23251
1757.09,0.21367
1733.94,0.19305
1710.8,0.17786
1687.65,0.15120
1664.51,0.11345
1641.36,0.09962
1618.22,0.10265
1595.07,0.10929
1571.93,0.12439
1548.78,0.12823
1525.64,0.12149
1502.49,0.10002
1479.35,0.06360
1456.2,0.04168
1433.06,0.03462
1409.91,0.04390
1386.77,0.03791
1363.62,0.03291
1340.48,0.03381
1317.33,0.03437
1294.19,0.04152
1271.04,0.04052
1247.9,0.03943
1224.75,0.04078
1201.61,0.02991
1178.46,0.02699
1155.32,0.03581
1132.17,0.02251
1109.03,0.03484
1085.88,0.03139
1062.74,0.06901
1039.59,0.05697
1016.45,0.05790
993.304,0.06061
970.159,0.08399
947.014,0.11185
923.869,0.11598
900.724,0.08925
877.579,0.11125
854.434,0.12441
831.289,0.10963
808.144,0.08337
784.999,0.08520
761.854,0.07598
738.709,0.06124
715.565,0.04774
692.42,0.04916
669.275,0.04586
646.13,0.04543
622.985,0.04100
599.84,0.04552