File: 01_Data/Hemp_Sheet/FTIR/IS/Hemp_Sheet_IS_S_220909_R6.dpt
7497.03,0.57029
7473.89,0.56411
7450.74,0.56827
7427.6,0.57356
7404.45,0.56291
7381.31,0.56917
7358.16,0.56996
7335.02,0.55827
7311.87,0.55524
7288.73,0.55775
7265.58,0.55681
7242.44,0.55793
7219.29,0.55874
7196.15,0.56048
7173,0.55435
7149.86,0.54732
7126.71,0.54210
7103.57,0.54374
7080.42,0.53445
7057.28,0.53315
7034.13,0.51955
7010.99,0.51040
6987.84,0.49988
6964.7,0.50043
6941.55,0.49282
6918.41,0.48711
6895.26,0.48919
6872.12,0.49043
6848.97,0.48026
6825.83,0.47733
6802.68,0.47268
6779.54,0.46791
6756.39,0.46799
6733.25,0.46627
6710.1,0.46616
6686.96,0.46391
6663.82,0.46665
6640.67,0.46745
6617.53,0.47020
6594.38,0.47319
6571.24,0.47634
6548.09,0.47207
6524.95,0.47379
6501.8,0.47541
6478.66,0.46981
6455.51,0.47308
6432.37,0.47790
6409.22,0.47747
6386.08,0.47741
6362.93,0.47733
6339.79,0.48168
6316.64,0.48171
6293.5,0.48193
6270.35,0.48954
6247.21,0.49527
6224.06,0.49943
6200.92,0.50771
6177.77,0.51370
6154.63,0.51400
6131.48,0.52032
6108.34,0.52311
6085.19,0.52851
6062.05,0.53292
6038.9,0.53445
6015.76,0.53689
5992.61,0.53975
5969.47,0.54184
5946.32,0.53932
5923.18,0.53873
5900.03,0.53398
5876.89,0.52902
5853.74,0.52670
5830.6,0.53028
5807.45,0.52824
5784.31,0.52783
5761.16,0.52477
5738.02,0.52372
5714.87,0.52259
5691.73,0.52325
5668.58,0.51806
5645.44,0.51862
5622.29,0.51926
5599.15,0.51877
5576,0.52094
5552.86,0.52392
5529.71,0.52107
5506.57,0.51991
5483.42,0.51916
5460.28,0.52178
5437.13,0.52303
5413.99,0.52839
5390.84,0.52855
5367.7,0.53183
5344.55,0.53008
5321.41,0.52747
5298.26,0.52342
5275.12,0.51216
5251.97,0.49453
5228.83,0.47694
5205.68,0.46854
5182.54,0.46362
5159.39,0.46673
5136.25,0.47147
5113.1,0.47904
5089.96,0.48501
5066.81,0.48975
5043.67,0.49331
5020.52,0.49494
4997.38,0.49379
4974.23,0.49115
4951.09,0.47999
4927.94,0.46528
4904.8,0.44363
4881.65,0.42178
4858.51,0.40177
4835.36,0.38514
4812.22,0.37045
4789.07,0.36072
4765.93,0.35691
4742.78,0.35527
4719.64,0.36279
4696.49,0.37056
4673.35,0.38165
4650.2,0.38968
4627.06,0.39844
4603.92,0.40573
4580.77,0.41555
4557.63,0.42396
4534.48,0.43169
4511.34,0.43666
4488.19,0.43761
4465.05,0.43435
4441.9,0.41548
4418.76,0.38347
4395.61,0.36089
4372.47,0.37163
4349.32,0.37038
4326.18,0.36077
4303.03,0.35013
4279.89,0.34077
4256.74,0.34218
4233.6,0.34492
4210.45,0.34694
4187.31,0.35292
4164.16,0.35737
4141.02,0.35316
4117.87,0.34335
4094.73,0.32053
4071.58,0.29774
4048.44,0.26952
4025.29,0.25447
4002.15,0.26121
3979,0.27190
3955.86,0.28112
3932.71,0.29292
3909.57,0.30310
3886.42,0.31023
3863.28,0.31918
3840.13,0.33137
3816.99,0.33366
3793.84,0.33526
3770.7,0.33418
3747.55,0.33144
3724.41,0.32006
3701.26,0.29891
3678.12,0.26153
3654.97,0.20200
3631.83,0.14804
3608.68,0.10433
3585.54,0.07515
3562.39,0.05711
3539.25,0.04438
3516.1,0.03678
3492.96,0.03199
3469.81,0.02881
3446.67,0.02750
3423.52,0.02809
3400.38,0.02789
3377.23,0.02915
3354.09,0.03126
3330.94,0.03418
3307.8,0.03489
3284.65,0.03616
3261.51,0.03978
3238.36,0.04197
3215.22,0.04636
3192.07,0.05158
3168.93,0.05863
3145.78,0.06619
3122.64,0.07452
3099.49,0.08481
3076.35,0.09449
3053.2,0.10455
3030.06,0.11143
3006.91,0.11516
2983.77,0.09894
2960.62,0.06541
2937.48,0.05643
2914.33,0.04847
2891.19,0.04882
2868.04,0.05309
2844.9,0.06443
2821.75,0.08420
2798.61,0.10111
2775.46,0.10725
2752.32,0.10909
2729.17,0.10953
2706.03,0.11717
2682.88,0.12987
2659.74,0.13763
2636.59,0.14622
2613.45,0.15425
2590.3,0.15986
2567.16,0.16030
2544.02,0.15699
2520.87,0.15981
2497.73,0.17072
2474.58,0.18272
2451.44,0.18973
2428.29,0.20187
2405.15,0.21342
2382,0.22320
2358.86,0.23442
2335.71,0.24266
2312.57,0.24827
2289.42,0.24481
2266.28,0.23622
2243.13,0.22603
2219.99,0.22779
2196.84,0.23020
2173.7,0.21376
2150.55,0.19957
2127.41,0.19666
2104.26,0.20711
2081.12,0.21468
2057.97,0.21327
2034.83,0.21841
2011.68,0.23924
1988.54,0.24919
1965.39,0.25585
1942.25,0.26773
1919.1,0.28016
1895.96,0.28302
1872.81,0.27972
1849.67,0.27178
1826.52,0.26067
1803.38,0.24798
1780.23,0.23321
1757.09,0.21396
1733.94,0.19328
1710.8,0.17886
1687.65,0.15243
1664.51,0.11507
1641.36,0.10100
1618.22,0.10337
1595.07,0.10913
1571.93,0.12502
1548.78,0.12833
1525.64,0.12183
1502.49,0.10011
1479.35,0.06346
1456.2,0.04163
1433.06,0.03446
1409.91,0.04364
1386.77,0.03786
1363.62,0.03322
1340.48,0.03362
1317.33,0.03439
1294.19,0.04148
1271.04,0.04078
1247.9,0.03980
1224.75,0.04101
1201.61,0.02989
1178.46,0.02698
1155.32,0.03608
1132.17,0.02232
1109.03,0.03526
1085.88,0.03080
1062.74,0.06810
1039.59,0.05595
1016.45,0.05867
993.304,0.05996
970.159,0.08366
947.014,0.11092
923.869,0.11548
900.724,0.08955
877.579,0.11209
854.434,0.12420
831.289,0.11175
808.144,0.08375
784.999,0.08588
761.854,0.07576
738.709,0.06076
715.565,0.04802
692.42,0.04888
669.275,0.04635
646.13,0.04517
622.985,0.04001
599.84,0.04762