File: 01_Data/Hemp_Sheet/FTIR/IS/Hemp_Sheet_IS_S_220909_R4.dpt
7497.03,0.57710
7473.89,0.57283
7450.74,0.56450
7427.6,0.56163
7404.45,0.56741
7381.31,0.56746
7358.16,0.55807
7335.02,0.55493
7311.87,0.55859
7288.73,0.55804
7265.58,0.55061
7242.44,0.55415
7219.29,0.56208
7196.15,0.56059
7173,0.55732
7149.86,0.55176
7126.71,0.54372
7103.57,0.53657
7080.42,0.53416
7057.28,0.53313
7034.13,0.52225
7010.99,0.50448
6987.84,0.50251
6964.7,0.49032
6941.55,0.49895
6918.41,0.48720
6895.26,0.48817
6872.12,0.48784
6848.97,0.47953
6825.83,0.47940
6802.68,0.47432
6779.54,0.46775
6756.39,0.46931
6733.25,0.46214
6710.1,0.45904
6686.96,0.45648
6663.82,0.46483
6640.67,0.46544
6617.53,0.46970
6594.38,0.47241
6571.24,0.47412
6548.09,0.47756
6524.95,0.47507
6501.8,0.47247
6478.66,0.47197
6455.51,0.47611
6432.37,0.47509
6409.22,0.47641
6386.08,0.47896
6362.93,0.48013
6339.79,0.47586
6316.64,0.48207
6293.5,0.48262
6270.35,0.48651
6247.21,0.49043
6224.06,0.49957
6200.92,0.50361
6177.77,0.50904
6154.63,0.51216
6131.48,0.52029
6108.34,0.52371
6085.19,0.52640
6062.05,0.52840
6038.9,0.53361
6015.76,0.53803
5992.61,0.53894
5969.47,0.53918
5946.32,0.53995
5923.18,0.53836
5900.03,0.53379
5876.89,0.52983
5853.74,0.52741
5830.6,0.52841
5807.45,0.52767
5784.31,0.52521
5761.16,0.52404
5738.02,0.52289
5714.87,0.52453
5691.73,0.52323
5668.58,0.51799
5645.44,0.51816
5622.29,0.51845
5599.15,0.51714
5576,0.51961
5552.86,0.52061
5529.71,0.52151
5506.57,0.51983
5483.42,0.51975
5460.28,0.52058
5437.13,0.52339
5413.99,0.52688
5390.84,0.52967
5367.7,0.53053
5344.55,0.52843
5321.41,0.52780
5298.26,0.52064
5275.12,0.50957
5251.97,0.48960
5228.83,0.47230
5205.68,0.46127
5182.54,0.45819
5159.39,0.46002
5136.25,0.46512
5113.1,0.47260
5089.96,0.47936
5066.81,0.48574
5043.67,0.48971
5020.52,0.49183
4997.38,0.49127
4974.23,0.48668
4951.09,0.47745
4927.94,0.46309
4904.8,0.44437
4881.65,0.42268
4858.51,0.40109
4835.36,0.38485
4812.22,0.36882
4789.07,0.36165
4765.93,0.35535
4742.78,0.35509
4719.64,0.36257
4696.49,0.36987
4673.35,0.37957
4650.2,0.38862
4627.06,0.39815
4603.92,0.40609
4580.77,0.41501
4557.63,0.42412
4534.48,0.43115
4511.34,0.43543
4488.19,0.43584
4465.05,0.43311
4441.9,0.41460
4418.76,0.38398
4395.61,0.36131
4372.47,0.37210
4349.32,0.37052
4326.18,0.36018
4303.03,0.34962
4279.89,0.34035
4256.74,0.34066
4233.6,0.34478
4210.45,0.34669
4187.31,0.35303
4164.16,0.35610
4141.02,0.35224
4117.87,0.34226
4094.73,0.32085
4071.58,0.29672
4048.44,0.26958
4025.29,0.25466
4002.15,0.26032
3979,0.27158
3955.86,0.28035
3932.71,0.29167
3909.57,0.30101
3886.42,0.30945
3863.28,0.31873
3840.13,0.32971
3816.99,0.33265
3793.84,0.33387
3770.7,0.33252
3747.55,0.32842
3724.41,0.31690
3701.26,0.29532
3678.12,0.25661
3654.97,0.19628
3631.83,0.14329
3608.68,0.10077
3585.54,0.07306
3562.39,0.05559
3539.25,0.04429
3516.1,0.03643
3492.96,0.03089
3469.81,0.02908
3446.67,0.02850
3423.52,0.02784
3400.38,0.02786
3377.23,0.02887
3354.09,0.03043
3330.94,0.03443
3307.8,0.03435
3284.65,0.03659
3261.51,0.03942
3238.36,0.04245
3215.22,0.04596
3192.07,0.05094
3168.93,0.05820
3145.78,0.06554
3122.64,0.07365
3099.49,0.08312
3076.35,0.09254
3053.2,0.10221
3030.06,0.11009
3006.91,0.11356
2983.77,0.09839
2960.62,0.06511
2937.48,0.05627
2914.33,0.04844
2891.19,0.04911
2868.04,0.05295
2844.9,0.06430
2821.75,0.08397
2798.61,0.10055
2775.46,0.10635
2752.32,0.10859
2729.17,0.10956
2706.03,0.11663
2682.88,0.12954
2659.74,0.13709
2636.59,0.14562
2613.45,0.15395
2590.3,0.15921
2567.16,0.16013
2544.02,0.15675
2520.87,0.15905
2497.73,0.17082
2474.58,0.18195
2451.44,0.18946
2428.29,0.20136
2405.15,0.21278
2382,0.22259
2358.86,0.23333
2335.71,0.24214
2312.57,0.24714
2289.42,0.24333
2266.28,0.23530
2243.13,0.22445
2219.99,0.22592
2196.84,0.22874
2173.7,0.21271
2150.55,0.19782
2127.41,0.19481
2104.26,0.20584
2081.12,0.21321
2057.97,0.21158
2034.83,0.21682
2011.68,0.23771
1988.54,0.24732
1965.39,0.25403
1942.25,0.26585
1919.1,0.27791
1895.96,0.28062
1872.81,0.27778
1849.67,0.26934
1826.52,0.25909
1803.38,0.24617
1780.23,0.23139
1757.09,0.21220
1733.94,0.19109
1710.8,0.17577
1687.65,0.14833
1664.51,0.11097
1641.36,0.09774
1618.22,0.10100
1595.07,0.10768
1571.93,0.12330
1548.78,0.12705
1525.64,0.12101
1502.49,0.09960
1479.35,0.06354
1456.2,0.04139
1433.06,0.03429
1409.91,0.04389
1386.77,0.03787
1363.62,0.03321
1340.48,0.03345
1317.33,0.03447
1294.19,0.04164
1271.04,0.04093
1247.9,0.03922
1224.75,0.04034
1201.61,0.02988
1178.46,0.02659
1155.32,0.03553
1132.17,0.02249
1109.03,0.03464
1085.88,0.03108
1062.74,0.06798
1039.59,0.05654
1016.45,0.05793
993.304,0.05986
970.159,0.08366
947.014,0.11149
923.869,0.11524
900.724,0.08906
877.579,0.11104
854.434,0.12251
831.289,0.10941
808.144,0.08384
784.999,0.08400
761.854,0.07423
738.709,0.06001
715.565,0.04760
692.42,0.04850
669.275,0.04614
646.13,0.04634
622.985,0.04072
599.84,0.04453