File: 01_Data/Hemp_Sheet/FTIR/IS/Hemp_Sheet_IS_T_220909_R6.dpt
7497.03,0.02554
7473.89,0.02761
7450.74,0.01987
7427.6,0.02079
7404.45,0.03075
7381.31,0.02275
7358.16,0.02541
7335.02,0.02124
7311.87,0.02826
7288.73,0.02755
7265.58,0.02799
7242.44,0.02360
7219.29,0.03131
7196.15,0.03014
7173,0.02319
7149.86,0.03180
7126.71,0.02425
7103.57,0.02105
7080.42,0.02450
7057.28,0.02647
7034.13,0.02173
7010.99,0.02177
6987.84,0.02403
6964.7,0.02375
6941.55,0.02892
6918.41,0.01868
6895.26,0.02836
6872.12,0.02195
6848.97,0.02141
6825.83,0.02376
6802.68,0.02434
6779.54,0.02366
6756.39,0.01831
6733.25,0.02040
6710.1,0.02552
6686.96,0.02274
6663.82,0.02236
6640.67,0.01996
6617.53,0.02620
6594.38,0.02444
6571.24,0.02724
6548.09,0.02265
6524.95,0.02340
6501.8,0.01976
6478.66,0.02643
6455.51,0.02250
6432.37,0.02051
6409.22,0.02242
6386.08,0.02324
6362.93,0.02454
6339.79,0.02431
6316.64,0.02275
6293.5,0.02270
6270.35,0.02235
6247.21,0.02681
6224.06,0.02395
6200.92,0.02253
6177.77,0.01780
6154.63,0.02342
6131.48,0.01946
6108.34,0.01957
6085.19,0.02215
6062.05,0.02165
6038.9,0.02275
6015.76,0.02424
5992.61,0.02110
5969.47,0.02086
5946.32,0.02003
5923.18,0.02317
5900.03,0.02104
5876.89,0.02255
5853.74,0.02335
5830.6,0.01970
5807.45,0.02325
5784.31,0.02155
5761.16,0.02227
5738.02,0.02093
5714.87,0.02042
5691.73,0.02158
5668.58,0.02317
5645.44,0.02339
5622.29,0.02210
5599.15,0.02052
5576,0.02183
5552.86,0.02362
5529.71,0.02040
5506.57,0.02085
5483.42,0.02392
5460.28,0.02061
5437.13,0.02060
5413.99,0.02266
5390.84,0.02027
5367.7,0.02244
5344.55,0.02287
5321.41,0.02172
5298.26,0.02069
5275.12,0.02050
5251.97,0.02261
5228.83,0.02269
5205.68,0.02224
5182.54,0.02275
5159.39,0.02165
5136.25,0.02221
5113.1,0.02170
5089.96,0.02344
5066.81,0.02259
5043.67,0.02335
5020.52,0.02273
4997.38,0.02321
4974.23,0.02258
4951.09,0.02031
4927.94,0.02117
4904.8,0.02162
4881.65,0.02175
4858.51,0.02221
4835.36,0.02325
4812.22,0.02231
4789.07,0.02161
4765.93,0.02252
4742.78,0.02230
4719.64,0.02245
4696.49,0.02261
4673.35,0.02249
4650.2,0.02252
4627.06,0.02226
4603.92,0.02193
4580.77,0.02226
4557.63,0.02191
4534.48,0.02247
4511.34,0.02226
4488.19,0.02148
4465.05,0.02263
4441.9,0.02325
4418.76,0.02259
4395.61,0.02257
4372.47,0.02263
4349.32,0.02293
4326.18,0.02194
4303.03,0.02261
4279.89,0.02226
4256.74,0.02320
4233.6,0.02232
4210.45,0.02258
4187.31,0.02266
4164.16,0.02236
4141.02,0.02211
4117.87,0.02170
4094.73,0.02251
4071.58,0.02230
4048.44,0.02272
4025.29,0.02223
4002.15,0.02202
3979,0.02254
3955.86,0.02247
3932.71,0.02199
3909.57,0.02231
3886.42,0.02254
3863.28,0.02265
3840.13,0.02165
3816.99,0.02203
3793.84,0.02236
3770.7,0.02243
3747.55,0.02269
3724.41,0.02262
3701.26,0.02257
3678.12,0.02194
3654.97,0.02173
3631.83,0.02184
3608.68,0.02110
3585.54,0.02200
3562.39,0.02129
3539.25,0.02047
3516.1,0.02079
3492.96,0.02031
3469.81,0.02045
3446.67,0.02052
3423.52,0.02012
3400.38,0.02075
3377.23,0.02027
3354.09,0.02079
3330.94,0.02073
3307.8,0.02060
3284.65,0.02113
3261.51,0.02079
3238.36,0.02060
3215.22,0.02002
3192.07,0.02057
3168.93,0.02087
3145.78,0.02054
3122.64,0.02047
3099.49,0.02050
3076.35,0.02083
3053.2,0.02057
3030.06,0.02036
3006.91,0.02016
2983.77,0.01976
2960.62,0.01983
2937.48,0.01977
2914.33,0.01996
2891.19,0.02094
2868.04,0.02044
2844.9,0.02106
2821.75,0.02108
2798.61,0.02106
2775.46,0.02097
2752.32,0.02134
2729.17,0.02092
2706.03,0.02114
2682.88,0.02108
2659.74,0.02105
2636.59,0.02105
2613.45,0.02133
2590.3,0.02129
2567.16,0.02083
2544.02,0.02096
2520.87,0.02107
2497.73,0.02108
2474.58,0.02106
2451.44,0.02090
2428.29,0.02137
2405.15,0.02091
2382,0.02061
2358.86,0.02073
2335.71,0.02078
2312.57,0.02074
2289.42,0.02073
2266.28,0.02090
2243.13,0.02079
2219.99,0.02075
2196.84,0.02092
2173.7,0.02067
2150.55,0.02085
2127.41,0.02076
2104.26,0.02088
2081.12,0.02056
2057.97,0.02078
2034.83,0.02095
2011.68,0.02047
1988.54,0.02063
1965.39,0.02033
1942.25,0.02099
1919.1,0.02060
1895.96,0.02040
1872.81,0.02028
1849.67,0.02006
1826.52,0.02040
1803.38,0.01942
1780.23,0.01874
1757.09,0.01746
1733.94,0.01975
1710.8,0.02054
1687.65,0.01903
1664.51,0.01871
1641.36,0.01841
1618.22,0.01884
1595.07,0.01935
1571.93,0.01819
1548.78,0.01833
1525.64,0.01887
1502.49,0.01852
1479.35,0.01880
1456.2,0.01859
1433.06,0.01866
1409.91,0.01793
1386.77,0.01815
1363.62,0.01815
1340.48,0.01784
1317.33,0.01706
1294.19,0.01783
1271.04,0.01915
1247.9,0.01969
1224.75,0.01914
1201.61,0.01815
1178.46,0.01768
1155.32,0.01754
1132.17,0.01831
1109.03,0.01893
1085.88,0.01793
1062.74,0.01984
1039.59,0.01933
1016.45,0.01922
993.304,0.02135
970.159,0.02008
947.014,0.01984
923.869,0.01945
900.724,0.01866
877.579,0.01894
854.434,0.01910
831.289,0.01898
808.144,0.01917
784.999,0.01804
761.854,0.01884
738.709,0.01867
715.565,0.01794
692.42,0.01652
669.275,0.01618
646.13,0.01731
622.985,0.01453
599.84,0.01567