File: 01_Data/Hemp_Sheet/FTIR/IS/Hemp_Sheet_IS_S_220909_R8.dpt
7497.03,0.56904
7473.89,0.56783
7450.74,0.56959
7427.6,0.55997
7404.45,0.57530
7381.31,0.56086
7358.16,0.56089
7335.02,0.56451
7311.87,0.55931
7288.73,0.55190
7265.58,0.55291
7242.44,0.55737
7219.29,0.55571
7196.15,0.55438
7173,0.55553
7149.86,0.55192
7126.71,0.55357
7103.57,0.53612
7080.42,0.53342
7057.28,0.52979
7034.13,0.51576
7010.99,0.50825
6987.84,0.50033
6964.7,0.49943
6941.55,0.48716
6918.41,0.49369
6895.26,0.48919
6872.12,0.48422
6848.97,0.48242
6825.83,0.47540
6802.68,0.46998
6779.54,0.46236
6756.39,0.45984
6733.25,0.46484
6710.1,0.46218
6686.96,0.46369
6663.82,0.46506
6640.67,0.46203
6617.53,0.46923
6594.38,0.47174
6571.24,0.47297
6548.09,0.47374
6524.95,0.47531
6501.8,0.47081
6478.66,0.47406
6455.51,0.47569
6432.37,0.47571
6409.22,0.47714
6386.08,0.47898
6362.93,0.47695
6339.79,0.48178
6316.64,0.48351
6293.5,0.48159
6270.35,0.48809
6247.21,0.49474
6224.06,0.49767
6200.92,0.50315
6177.77,0.51194
6154.63,0.51513
6131.48,0.51789
6108.34,0.52433
6085.19,0.52866
6062.05,0.52982
6038.9,0.53324
6015.76,0.53653
5992.61,0.54058
5969.47,0.53811
5946.32,0.53984
5923.18,0.53609
5900.03,0.53203
5876.89,0.52836
5853.74,0.52688
5830.6,0.52791
5807.45,0.52589
5784.31,0.52507
5761.16,0.52517
5738.02,0.52151
5714.87,0.52299
5691.73,0.52046
5668.58,0.51941
5645.44,0.51838
5622.29,0.52016
5599.15,0.51728
5576,0.51948
5552.86,0.52069
5529.71,0.51935
5506.57,0.51893
5483.42,0.51869
5460.28,0.52004
5437.13,0.52241
5413.99,0.52623
5390.84,0.53009
5367.7,0.52938
5344.55,0.53078
5321.41,0.52747
5298.26,0.52299
5275.12,0.51100
5251.97,0.49464
5228.83,0.47868
5205.68,0.47072
5182.54,0.46587
5159.39,0.46877
5136.25,0.47493
5113.1,0.47877
5089.96,0.48454
5066.81,0.48984
5043.67,0.49390
5020.52,0.49525
4997.38,0.49510
4974.23,0.49083
4951.09,0.47959
4927.94,0.46375
4904.8,0.44425
4881.65,0.42290
4858.51,0.40256
4835.36,0.38443
4812.22,0.36965
4789.07,0.36151
4765.93,0.35510
4742.78,0.35576
4719.64,0.36137
4696.49,0.36913
4673.35,0.38016
4650.2,0.38943
4627.06,0.39726
4603.92,0.40511
4580.77,0.41417
4557.63,0.42388
4534.48,0.43020
4511.34,0.43531
4488.19,0.43632
4465.05,0.43228
4441.9,0.41478
4418.76,0.38275
4395.61,0.35990
4372.47,0.37158
4349.32,0.37021
4326.18,0.36012
4303.03,0.34965
4279.89,0.33975
4256.74,0.34158
4233.6,0.34490
4210.45,0.34673
4187.31,0.35224
4164.16,0.35670
4141.02,0.35301
4117.87,0.34229
4094.73,0.32021
4071.58,0.29662
4048.44,0.26980
4025.29,0.25459
4002.15,0.26071
3979,0.27156
3955.86,0.28088
3932.71,0.29257
3909.57,0.30221
3886.42,0.31024
3863.28,0.31896
3840.13,0.33103
3816.99,0.33437
3793.84,0.33557
3770.7,0.33403
3747.55,0.33154
3724.41,0.31992
3701.26,0.29998
3678.12,0.26313
3654.97,0.20554
3631.83,0.15115
3608.68,0.10600
3585.54,0.07556
3562.39,0.05751
3539.25,0.04491
3516.1,0.03673
3492.96,0.03155
3469.81,0.02945
3446.67,0.02802
3423.52,0.02793
3400.38,0.02830
3377.23,0.02914
3354.09,0.03095
3330.94,0.03444
3307.8,0.03524
3284.65,0.03600
3261.51,0.03896
3238.36,0.04282
3215.22,0.04741
3192.07,0.05284
3168.93,0.05918
3145.78,0.06707
3122.64,0.07543
3099.49,0.08560
3076.35,0.09548
3053.2,0.10490
3030.06,0.11224
3006.91,0.11550
2983.77,0.09969
2960.62,0.06462
2937.48,0.05663
2914.33,0.04834
2891.19,0.04910
2868.04,0.05366
2844.9,0.06446
2821.75,0.08367
2798.61,0.10102
2775.46,0.10660
2752.32,0.10914
2729.17,0.10923
2706.03,0.11709
2682.88,0.12999
2659.74,0.13713
2636.59,0.14619
2613.45,0.15361
2590.3,0.15966
2567.16,0.15989
2544.02,0.15668
2520.87,0.15961
2497.73,0.17099
2474.58,0.18185
2451.44,0.18968
2428.29,0.20145
2405.15,0.21303
2382,0.22305
2358.86,0.23359
2335.71,0.24296
2312.57,0.24809
2289.42,0.24501
2266.28,0.23634
2243.13,0.22607
2219.99,0.22737
2196.84,0.23029
2173.7,0.21436
2150.55,0.19945
2127.41,0.19652
2104.26,0.20775
2081.12,0.21522
2057.97,0.21358
2034.83,0.21876
2011.68,0.23958
1988.54,0.24937
1965.39,0.25574
1942.25,0.26813
1919.1,0.28005
1895.96,0.28293
1872.81,0.27996
1849.67,0.27190
1826.52,0.26125
1803.38,0.24806
1780.23,0.23313
1757.09,0.21433
1733.94,0.19386
1710.8,0.17961
1687.65,0.15387
1664.51,0.11680
1641.36,0.10236
1618.22,0.10454
1595.07,0.10986
1571.93,0.12570
1548.78,0.12916
1525.64,0.12233
1502.49,0.10062
1479.35,0.06348
1456.2,0.04158
1433.06,0.03415
1409.91,0.04348
1386.77,0.03756
1363.62,0.03315
1340.48,0.03377
1317.33,0.03469
1294.19,0.04140
1271.04,0.04018
1247.9,0.03936
1224.75,0.04042
1201.61,0.03004
1178.46,0.02677
1155.32,0.03550
1132.17,0.02189
1109.03,0.03449
1085.88,0.03099
1062.74,0.06854
1039.59,0.05653
1016.45,0.05825
993.304,0.06016
970.159,0.08366
947.014,0.11159
923.869,0.11662
900.724,0.08958
877.579,0.11157
854.434,0.12513
831.289,0.11251
808.144,0.08384
784.999,0.08735
761.854,0.07678
738.709,0.06163
715.565,0.04768
692.42,0.05000
669.275,0.04802
646.13,0.04474
622.985,0.04016
599.84,0.04737