File: 01_Data/Hemp_Sheet/FTIR/IS/Hemp_Sheet_IS_S_220909_R7.dpt
7497.03,0.57022
7473.89,0.56673
7450.74,0.56784
7427.6,0.56335
7404.45,0.56784
7381.31,0.57306
7358.16,0.56607
7335.02,0.55811
7311.87,0.56312
7288.73,0.55146
7265.58,0.55037
7242.44,0.55316
7219.29,0.55797
7196.15,0.55836
7173,0.54985
7149.86,0.55713
7126.71,0.54839
7103.57,0.54428
7080.42,0.53644
7057.28,0.52869
7034.13,0.52329
7010.99,0.51228
6987.84,0.49945
6964.7,0.49738
6941.55,0.49610
6918.41,0.48937
6895.26,0.48880
6872.12,0.48214
6848.97,0.48075
6825.83,0.47479
6802.68,0.47401
6779.54,0.46886
6756.39,0.46736
6733.25,0.46032
6710.1,0.46127
6686.96,0.46181
6663.82,0.46437
6640.67,0.46855
6617.53,0.47256
6594.38,0.47408
6571.24,0.47561
6548.09,0.47281
6524.95,0.47328
6501.8,0.47457
6478.66,0.47599
6455.51,0.47380
6432.37,0.47704
6409.22,0.47680
6386.08,0.47603
6362.93,0.48043
6339.79,0.47876
6316.64,0.48184
6293.5,0.48420
6270.35,0.48575
6247.21,0.49498
6224.06,0.49982
6200.92,0.50698
6177.77,0.50844
6154.63,0.51756
6131.48,0.52150
6108.34,0.52451
6085.19,0.52838
6062.05,0.53151
6038.9,0.53563
6015.76,0.53676
5992.61,0.53972
5969.47,0.54419
5946.32,0.54232
5923.18,0.53759
5900.03,0.53872
5876.89,0.53201
5853.74,0.53019
5830.6,0.53139
5807.45,0.52681
5784.31,0.52559
5761.16,0.52649
5738.02,0.52209
5714.87,0.52469
5691.73,0.52282
5668.58,0.52228
5645.44,0.52191
5622.29,0.52108
5599.15,0.51950
5576,0.52326
5552.86,0.52155
5529.71,0.52192
5506.57,0.52209
5483.42,0.52338
5460.28,0.52267
5437.13,0.52429
5413.99,0.52913
5390.84,0.53273
5367.7,0.53136
5344.55,0.53260
5321.41,0.52994
5298.26,0.52451
5275.12,0.51318
5251.97,0.49700
5228.83,0.48175
5205.68,0.46999
5182.54,0.46866
5159.39,0.47081
5136.25,0.47469
5113.1,0.48037
5089.96,0.48624
5066.81,0.49036
5043.67,0.49585
5020.52,0.49697
4997.38,0.49585
4974.23,0.49164
4951.09,0.48203
4927.94,0.46551
4904.8,0.44668
4881.65,0.42345
4858.51,0.40273
4835.36,0.38678
4812.22,0.37144
4789.07,0.36242
4765.93,0.35690
4742.78,0.35695
4719.64,0.36350
4696.49,0.37138
4673.35,0.38200
4650.2,0.39129
4627.06,0.39813
4603.92,0.40706
4580.77,0.41593
4557.63,0.42631
4534.48,0.43315
4511.34,0.43765
4488.19,0.43867
4465.05,0.43487
4441.9,0.41655
4418.76,0.38439
4395.61,0.36222
4372.47,0.37353
4349.32,0.37110
4326.18,0.36145
4303.03,0.35101
4279.89,0.34196
4256.74,0.34306
4233.6,0.34559
4210.45,0.34815
4187.31,0.35447
4164.16,0.35834
4141.02,0.35360
4117.87,0.34375
4094.73,0.32165
4071.58,0.29741
4048.44,0.27150
4025.29,0.25604
4002.15,0.26215
3979,0.27305
3955.86,0.28176
3932.71,0.29377
3909.57,0.30389
3886.42,0.31099
3863.28,0.32016
3840.13,0.33291
3816.99,0.33549
3793.84,0.33728
3770.7,0.33568
3747.55,0.33262
3724.41,0.32112
3701.26,0.30035
3678.12,0.26303
3654.97,0.20334
3631.83,0.15036
3608.68,0.10594
3585.54,0.07572
3562.39,0.05685
3539.25,0.04453
3516.1,0.03708
3492.96,0.03132
3469.81,0.02948
3446.67,0.02881
3423.52,0.02839
3400.38,0.02818
3377.23,0.02883
3354.09,0.03034
3330.94,0.03420
3307.8,0.03432
3284.65,0.03554
3261.51,0.03921
3238.36,0.04234
3215.22,0.04626
3192.07,0.05203
3168.93,0.05826
3145.78,0.06675
3122.64,0.07484
3099.49,0.08484
3076.35,0.09522
3053.2,0.10442
3030.06,0.11208
3006.91,0.11595
2983.77,0.09917
2960.62,0.06582
2937.48,0.05614
2914.33,0.04864
2891.19,0.04928
2868.04,0.05315
2844.9,0.06466
2821.75,0.08448
2798.61,0.10143
2775.46,0.10661
2752.32,0.10917
2729.17,0.10975
2706.03,0.11768
2682.88,0.13045
2659.74,0.13766
2636.59,0.14652
2613.45,0.15484
2590.3,0.15989
2567.16,0.16074
2544.02,0.15692
2520.87,0.15964
2497.73,0.17129
2474.58,0.18316
2451.44,0.19023
2428.29,0.20241
2405.15,0.21403
2382,0.22388
2358.86,0.23476
2335.71,0.24402
2312.57,0.24918
2289.42,0.24547
2266.28,0.23717
2243.13,0.22674
2219.99,0.22839
2196.84,0.23103
2173.7,0.21504
2150.55,0.20010
2127.41,0.19719
2104.26,0.20838
2081.12,0.21577
2057.97,0.21395
2034.83,0.21969
2011.68,0.24053
1988.54,0.25065
1965.39,0.25691
1942.25,0.26904
1919.1,0.28146
1895.96,0.28392
1872.81,0.28125
1849.67,0.27298
1826.52,0.26168
1803.38,0.24905
1780.23,0.23393
1757.09,0.21548
1733.94,0.19382
1710.8,0.18011
1687.65,0.15321
1664.51,0.11621
1641.36,0.10196
1618.22,0.10407
1595.07,0.10991
1571.93,0.12568
1548.78,0.12917
1525.64,0.12256
1502.49,0.10061
1479.35,0.06390
1456.2,0.04181
1433.06,0.03462
1409.91,0.04394
1386.77,0.03785
1363.62,0.03270
1340.48,0.03358
1317.33,0.03449
1294.19,0.04162
1271.04,0.04061
1247.9,0.03971
1224.75,0.04019
1201.61,0.03023
1178.46,0.02659
1155.32,0.03584
1132.17,0.02215
1109.03,0.03449
1085.88,0.03150
1062.74,0.06879
1039.59,0.05605
1016.45,0.05846
993.304,0.06006
970.159,0.08376
947.014,0.11180
923.869,0.11660
900.724,0.08937
877.579,0.11225
854.434,0.12496
831.289,0.11100
808.144,0.08463
784.999,0.08515
761.854,0.07689
738.709,0.06072
715.565,0.04840
692.42,0.04807
669.275,0.04621
646.13,0.04301
622.985,0.04216
599.84,0.04699