File: 01_Data/Nylon/Cone/Deprecated/Nylon_Cone_HF25Scan_220225_R1.csv
Names,Time,Stack TC,Smoke TC,Exh Press,Smoke Comp,Smoke Meas,CO Meter,CO2 Meter,O2 Meter,Sample Mass,Ext Coeff,Start Test,Flame Verif
Chan Gain,,500,500,1,1,1,1,1,1,1,1,1.0,1.0
Offset,,0,0,0.136092,0,0,0,0,0,0,0,0.0,0.0
Gain,,1,1,25.011,15.4219,15.1528,1,1,1,1.00089,1.02113,1.0,1.0
Units,sec,C,C,Pa,%,%,%,%,%,g,/m,,
Baseline,,22.3126,23.2988,161.704,114.278,113.99,-0.00909365,0.0965153,20.82,0.0125528,0.0225785,,
125,31,20.504,21.2363,163.186,116.335,116.179,-0.00944101,0.0971865,20.8153,908.004,0.0119523,0.0,0.0
250,62.25,21.0924,22.4333,158.184,116.007,115.877,-0.0095507,0.0990728,20.8078,907.954,0.0100785,0.0,0.0
375,93.5,21.5809,22.9104,162.832,115.792,115.516,-0.00949225,0.0965067,20.8191,907.894,0.0213814,0.0,0.0
500,124.75,22.8632,23.5351,160.673,115.61,115.192,-0.00935464,0.0985778,20.8123,907.764,0.0324159,0.0,0.0
625,156,23.3311,23.5868,161.996,116.228,114.839,-0.00916259,0.0966415,20.8174,907.634,0.10768,0.0,0.0
750,187.25,23.3674,24.6542,159.924,116.389,115.539,-0.00936824,0.100966,20.806,907.504,0.0656339,0.0,0.0
875,218.5,23.5148,24.345,161.241,116.284,115.583,-0.00943415,0.0968834,20.8137,907.374,0.054149,0.0,0.0
1000,249.75,23.6889,24.9482,156.715,115.622,114.898,-0.00956934,0.0995256,20.81,907.304,0.0562629,0.0,0.0
1125,281,23.7088,25.3245,159.34,115.74,115.215,-0.00934658,0.0985522,20.8164,907.193,0.0407128,0.0,0.0
1250,312.25,23.6585,25.8417,159.117,115.947,115.126,-0.00958222,0.0978016,20.8156,907.073,0.0635942,0.0,0.0
1375,343.5,23.8953,25.7629,159.835,115.954,115.328,-0.00958171,0.101395,20.8028,907.033,0.0484668,0.0,0.0
1500,374.75,24.2715,25.0376,158.162,115.742,115.487,-0.0095301,0.0970203,20.8194,906.933,0.0197451,0.0,0.0
1625,406,24.3779,25.5198,156.995,115.351,114.871,-0.00929883,0.0997921,20.8088,906.883,0.0374,0.0,0.0
1750,437.25,24.8397,26.0326,157.431,114.807,114.372,-0.00958978,0.100449,20.8116,906.843,0.0340095,0.0,0.0
1875,468.5,24.6566,26.052,163.492,114.223,113.735,-0.0094988,0.0992276,20.8108,906.783,0.0383325,0.0,0.0
2000,499.75,24.4947,26.1589,162.86,113.931,113.248,-0.00978058,0.0970056,20.8185,906.753,0.0538518,0.0,0.0
2125,531,24.6608,26.3625,165.271,113.98,113.413,-0.00951667,0.0960456,20.8275,906.703,0.0446884,0.0,0.0
2250,562.25,25.7435,26.5539,161.419,114.974,114.242,-0.00950219,0.0884269,20.8552,906.683,0.0572168,0.0,0.0
2375,593.5,25.2609,27.0251,156.579,115.939,115.354,-0.00992888,0.0874158,20.856,906.653,0.0452557,0.0,0.0
2500,624.75,25.6554,26.5577,158.792,115.928,115.117,-0.00951567,0.0926491,20.8421,906.553,0.0628945,0.0,0.0
2625,656,25.6465,26.5564,158.243,115.062,114.066,-0.00981393,0.0913638,20.8469,906.513,0.0779319,0.0,0.0
2750,687.25,25.2254,27.2353,163.086,115.858,114.459,-0.00968464,0.095128,20.8319,906.483,0.108824,0.0,0.0
2875,718.5,25.8711,26.1368,158.756,115.895,114.782,-0.00955631,0.0931659,20.8342,906.413,0.0864745,0.0,0.0
3000,749.75,26.0162,26.7766,155.004,114.126,112.285,-0.00944631,0.0916289,20.8398,906.363,0.14567,0.0,0.0
3125,781,25.3186,26.8233,161.664,116.347,114.699,-0.00958782,0.0960545,20.8338,906.253,0.127823,0.0,0.0
3250,812.25,25.8377,26.9889,161.277,115.319,113.799,-0.00980505,0.0924312,20.8442,906.213,0.11889,0.0,0.0
3375,843.5,25.5924,27.1796,160.996,114.826,113.65,-0.00963106,0.0920209,20.8403,906.183,0.0922267,0.0,0.0
3500,874.75,25.8467,27.1486,161.741,115.75,114.611,-0.00964731,0.0933745,20.8403,906.112,0.0885163,0.0,0.0
3625,906,25.9872,27.3327,162.916,115.775,114.356,-0.0100629,0.0926644,20.8432,906.062,0.110491,0.0,0.0
3750,937.25,25.649,26.7114,161.998,116.12,114.25,-0.00943749,0.0923068,20.8386,905.982,0.14544,0.0,0.0
3875,968.5,25.435,26.849,165.312,115.961,114.166,-0.00950302,0.0932764,20.8394,905.932,0.139688,0.0,0.0
4000,999.75,26.0862,27.0335,161.965,116.382,115.206,-0.00987272,0.0957983,20.8294,905.842,0.0909393,0.0,0.0
4125,1031,25.6992,27.0886,156.531,116.367,114.509,-0.00953355,0.102027,20.8184,905.782,0.144236,0.0,0.0
4250,1062.25,26.0963,26.7826,158.188,116.225,114.806,-0.00951271,0.101028,20.8173,905.722,0.11006,0.0,0.0
4375,1093.5,26.0063,27.3742,159.151,115.834,113.85,-0.00958756,0.0958594,20.8273,905.622,0.154791,0.0,0.0
4500,1124.75,26.1154,27.1802,161.554,115.84,113.863,-0.00958486,0.0991352,20.8194,905.552,0.154209,0.0,0.0
4625,1156,26.141,27.1771,161.001,116.187,114.295,-0.00963766,0.100461,20.8182,905.502,0.147078,0.0,0.0
4750,1187.25,26.054,27.0766,162.893,116.381,114.594,-0.00963195,0.0947808,20.8253,905.412,0.13856,0.0,0.0
4875,1218.5,26.2536,27.4706,161.009,115.942,114.532,-0.00965302,0.0963998,20.8262,905.382,0.109618,0.0,0.0
5000,1249.75,25.7172,26.8699,157.35,115.773,114.339,-0.0096223,0.0933141,20.8331,905.302,0.111613,0.0,0.0
5125,1281,25.5326,27.1861,163.252,115.88,114.677,-0.00941137,0.100796,20.8141,905.202,0.0935053,0.0,0.0
5250,1312.25,26.1828,26.8721,160.255,115.752,114.488,-0.0093333,0.0962901,20.8195,905.202,0.0983173,0.0,0.0
5375,1343.5,26.2206,27.1753,160.451,115.22,113.465,-0.00939248,0.0964972,20.8213,905.122,0.13742,0.0,0.0
5500,1374.75,26.7227,26.6563,162.295,113.971,112.559,-0.0094392,0.0970305,20.8201,905.052,0.11166,0.0,0.0
5625,1406,25.4617,26.5331,158.625,114.666,113.221,-0.00975219,0.0985337,20.8142,904.992,0.113549,0.0,0.0
5750,1437.25,26.1015,26.9447,157.355,116.207,114.698,-0.00979206,0.104466,20.8056,904.951,0.117056,0.0,0.0
5875,1468.5,25.9597,26.6899,160.929,115.999,114.605,-0.00966534,0.0998967,20.8156,904.911,0.108268,0.0,0.0
6000,1499.75,25.8744,26.9258,161.036,116.204,114.365,-0.0096879,0.101458,20.8156,904.811,0.142876,0.0,0.0
6125,1531,26.0715,27.4951,153.841,115.521,114.559,-0.00928344,0.0981263,20.8169,904.801,0.0749559,0.0,0.0
6250,1562.25,25.7148,27.151,159.971,115.81,114.341,-0.00942037,0.0962841,20.8234,904.751,0.114309,0.0,0.0
6375,1593.5,25.8162,26.5828,159.404,115.645,113.927,-0.00979287,0.0964472,20.8233,904.661,0.134039,0.0,0.0
6500,1624.75,25.4493,26.8931,161.812,114.574,113.677,-0.00964831,0.0956468,20.8237,904.621,0.0704132,0.0,0.0
6625,1656,25.809,27.2029,155.486,113.861,112.802,-0.00956788,0.0967944,20.8202,904.531,0.0837023,0.0,0.0
6750,1687.25,25.5942,27.4902,160.726,115.016,113.881,-0.00936183,0.0953226,20.8268,904.481,0.088805,0.0,0.0
6875,1718.5,25.1327,26.8422,159.073,116.32,115.114,-0.00929692,0.0927628,20.8368,904.421,0.0933511,0.0,0.0
7000,1749.75,25.7849,26.4896,159.003,116.159,115.087,-0.00927604,0.0978425,20.8206,904.341,0.0831077,0.0,0.0
7125,1781,25.7536,26.8865,160.822,115.565,114.555,-0.00941651,0.098367,20.817,904.291,0.078566,0.0,0.0
7250,1812.25,25.4961,27.1919,160.007,116.283,114.958,-0.00974693,0.0983063,20.8132,904.221,0.102622,0.0,0.0
7375,1843.5,26.476,26.9375,158.042,116.048,114.698,-0.00947709,0.0977832,20.8179,904.171,0.104858,0.0,0.0
7500,1874.75,26.3037,27.2839,160.664,115.575,114.287,-0.00966521,0.0957441,20.8246,904.071,0.100401,0.0,0.0
7625,1906,26.1287,27.0819,161.134,115.891,114.85,-0.00954638,0.0949213,20.8226,904.041,0.0808075,0.0,0.0
7750,1937.25,26.2236,27.769,161.747,115.512,114.213,-0.00979923,0.0954808,20.8219,904.001,0.101312,0.0,0.0
7875,1968.5,25.932,27.196,160.007,114.512,113.675,-0.00938682,0.0980582,20.8178,903.951,0.0657007,0.0,0.0
8000,1999.75,25.8942,27.0784,161.961,113.858,112.541,-0.0093262,0.0955524,20.8229,903.871,0.104214,0.0,0.0
8125,2031,25.8305,26.7098,156.669,114.159,113.398,-0.00960147,0.0952217,20.8251,903.78,0.0598996,0.0,0.0
8250,2062.25,25.8634,26.8138,157.219,114.657,113.633,-0.00930959,0.0905583,20.8441,903.77,0.0803112,0.0,0.0
8375,2093.5,25.9239,26.678,162.553,114.46,113.864,-0.0095053,0.0912109,20.8445,903.69,0.0468333,0.0,0.0
8500,2124.75,26.8448,27.3076,155.528,113.947,113.706,-0.0094918,0.0984508,20.8312,903.63,0.0189002,0.0,0.0
8625,2156,26.2656,27.3076,158.365,115.892,115.037,-0.00928081,0.0935497,20.8309,903.58,0.0663218,0.0,0.0
8750,2187.25,26.176,27.5045,159.767,115.576,115.107,-0.00983803,0.092376,20.8306,903.53,0.0364451,0.0,0.0
8875,2218.5,25.7179,27.6617,158.833,114.17,112.785,-0.00975261,0.0919303,20.8368,903.51,0.109316,0.0,0.0
9000,2249.75,26.5155,27.4894,153.922,115.582,113.557,-0.00972144,0.0913014,20.8387,903.43,0.158396,0.0,0.0
9125,2281,26.167,27.7108,157.304,115.934,114.133,-0.00964418,0.0882849,20.8501,903.33,0.140192,0.0,0.0
9250,2312.25,26.4744,27.3036,158.318,115.594,113.931,-0.0097099,0.086238,20.857,903.3,0.129811,0.0,0.0
9375,2343.5,26.0674,26.7053,159.575,115.499,113.328,-0.00999345,0.0869222,20.8563,903.16,0.169976,0.0,0.0
9500,2374.75,26.1487,27.5087,159.709,115.707,113.851,-0.00938766,0.0882579,20.8562,903.18,0.144814,0.0,0.0
9625,2406,26.6596,27.5791,157.098,115.812,113.73,-0.00953366,0.0871398,20.8564,903.12,0.162472,0.0,0.0
9750,2437.25,26.5083,27.8452,158.492,116.375,114.573,-0.0097589,0.0881101,20.8574,903.07,0.139716,0.0,0.0
9875,2468.5,26.5035,27.863,157.328,115.107,113.114,-0.00964015,0.0853686,20.8633,903.03,0.156385,0.0,0.0
10000,2499.75,26.5732,27.9101,158.603,114.098,112.059,-0.00953239,0.0864746,20.8554,902.96,0.161509,0.0,0.0
10125,2531,25.8754,27.3804,163.152,114.17,112.429,-0.00964282,0.0894237,20.8548,902.92,0.137639,0.0,0.0
10250,2562.25,25.9322,27.7987,160.819,114.968,112.988,-0.00988973,0.0974019,20.8404,902.88,0.155614,0.0,0.0
10375,2593.5,25.7665,27.7462,160.849,115.446,113.594,-0.00965801,0.0911093,20.8464,902.83,0.144932,0.0,0.0
10500,2624.75,26.2508,27.5066,156.906,115.629,113.81,-0.00960582,0.0912752,20.8461,902.74,0.14204,0.0,0.0
10625,2656,25.7458,27.276,155.909,115.655,113.581,-0.00966732,0.0890283,20.8487,902.69,0.162114,0.0,0.0
10750,2687.25,26.144,27.0593,163.444,115.683,113.341,-0.00976277,0.0920722,20.8403,902.639,0.183211,0.0,0.0
10875,2718.5,26.5214,27.679,158.652,115.663,114.219,-0.00961619,0.0896586,20.8471,902.579,0.112512,0.0,0.0
11000,2749.75,26.0916,27.2842,155.686,115.663,113.594,-0.00974354,0.0911537,20.8434,902.499,0.161713,0.0,0.0
11125,2781,26.1022,27.3913,157.678,115.67,113.551,-0.00982984,0.0905509,20.845,902.459,0.165542,0.0,0.0
11250,2812.25,25.714,27.2629,160.606,115.63,114.209,-0.00964223,0.0900375,20.8431,902.349,0.110758,0.0,0.0
11375,2843.5,25.9192,26.6806,158.281,115.573,113.845,-0.00960105,0.0890452,20.8486,902.369,0.134971,0.0,0.0
11500,2874.75,25.3695,26.7586,159.511,114.845,113.197,-0.00952403,0.0911211,20.8414,902.289,0.129411,0.0,0.0
11625,2906,26.0729,27.0347,157.497,113.988,111.768,-0.00969812,0.0866017,20.8529,902.259,0.176214,0.0,0.0
11750,2937.25,25.7117,27.0189,164.254,114.492,112.874,,,,902.209,0.127489,0.0,0.0
11758,2939.25,25.2199,26.5398,158.481,114.556,112.752,,,,902.199,0.14215,0.0,0.0