File: 01_Data/Nylon/Cone/Deprecated/Nylon_Cone_HF25Scalar_220225_R1.csv
LABORATORY,FSRI
TEST IDENT,Nylon_HF25_1
OPERATOR,Dow
MATERIAL,Nylon
ORIENTATION,Horizontal
HEAT FLUX,25
SURF AREA,0.01
C FACTOR,0.0385692
SPEC HOLDER DIFF,304.57
SPECIMEN MASS,36.5
SCAN TIME,0.25
O2 DELAY TIME,11
CO DELAY TIME,11
CO2 DELAY TIME,8
FLOW FACTOR,1
SCAN COUNT,11758
TIME TO IGN,0
END OF TEST SCAN,11278
END OF TEST TIME,2819.5
TEST STATUS,1
PRE TEST CMT,Dimensions: 99.93 x 99.56 x 3.12 mm; 60 mm spacing
POST TEST CMT,Sample did not ignite. Expanded vertically. See post test pictures.