File: 01_Data/LDPE/FTIR/IS/LDPE_IS_S_220831_R3.dpt
7497.03,0.49291
7473.89,0.48665
7450.74,0.48167
7427.6,0.48373
7404.45,0.48957
7381.31,0.47613
7358.16,0.47276
7335.02,0.44998
7311.87,0.44155
7288.73,0.40288
7265.58,0.36493
7242.44,0.33590
7219.29,0.28851
7196.15,0.23600
7173,0.17204
7149.86,0.24912
7126.71,0.26962
7103.57,0.24632
7080.42,0.22735
7057.28,0.20668
7034.13,0.22477
7010.99,0.23125
6987.84,0.24395
6964.7,0.24176
6941.55,0.25539
6918.41,0.27790
6895.26,0.28831
6872.12,0.31184
6848.97,0.32566
6825.83,0.34062
6802.68,0.36860
6779.54,0.38795
6756.39,0.40172
6733.25,0.40680
6710.1,0.42339
6686.96,0.43349
6663.82,0.43726
6640.67,0.44869
6617.53,0.45259
6594.38,0.45454
6571.24,0.45335
6548.09,0.45217
6524.95,0.44751
6501.8,0.43490
6478.66,0.43095
6455.51,0.47159
6432.37,0.48952
6409.22,0.49402
6386.08,0.50367
6362.93,0.50931
6339.79,0.51412
6316.64,0.52196
6293.5,0.52268
6270.35,0.51993
6247.21,0.52176
6224.06,0.52066
6200.92,0.51796
6177.77,0.50870
6154.63,0.50603
6131.48,0.49807
6108.34,0.49286
6085.19,0.48569
6062.05,0.47972
6038.9,0.46864
6015.76,0.44932
5992.61,0.42125
5969.47,0.38788
5946.32,0.33784
5923.18,0.26689
5900.03,0.20408
5876.89,0.13957
5853.74,0.07863
5830.6,0.06205
5807.45,0.05863
5784.31,0.05696
5761.16,0.05597
5738.02,0.06590
5714.87,0.07965
5691.73,0.06602
5668.58,0.05906
5645.44,0.06975
5622.29,0.08174
5599.15,0.09446
5576,0.09059
5552.86,0.08559
5529.71,0.08817
5506.57,0.08702
5483.42,0.08507
5460.28,0.09616
5437.13,0.10006
5413.99,0.11183
5390.84,0.13002
5367.7,0.14184
5344.55,0.15975
5321.41,0.16494
5298.26,0.16209
5275.12,0.16274
5251.97,0.16318
5228.83,0.15998
5205.68,0.16016
5182.54,0.15873
5159.39,0.16093
5136.25,0.16649
5113.1,0.16507
5089.96,0.16481
5066.81,0.16823
5043.67,0.17188
5020.52,0.17051
4997.38,0.16224
4974.23,0.14809
4951.09,0.16286
4927.94,0.17129
4904.8,0.17263
4881.65,0.16655
4858.51,0.17054
4835.36,0.19041
4812.22,0.20819
4789.07,0.21973
4765.93,0.23152
4742.78,0.24392
4719.64,0.25336
4696.49,0.26050
4673.35,0.24693
4650.2,0.25349
4627.06,0.25137
4603.92,0.24177
4580.77,0.23005
4557.63,0.20961
4534.48,0.18481
4511.34,0.16004
4488.19,0.13178
4465.05,0.10614
4441.9,0.07977
4418.76,0.06261
4395.61,0.05743
4372.47,0.05745
4349.32,0.05637
4326.18,0.05617
4303.03,0.05665
4279.89,0.05681
4256.74,0.05679
4233.6,0.05607
4210.45,0.05710
4187.31,0.05693
4164.16,0.05710
4141.02,0.05643
4117.87,0.05652
4094.73,0.05727
4071.58,0.05786
4048.44,0.05709
4025.29,0.05812
4002.15,0.05758
3979,0.05727
3955.86,0.05741
3932.71,0.05726
3909.57,0.05742
3886.42,0.05699
3863.28,0.05732
3840.13,0.05738
3816.99,0.05710
3793.84,0.05724
3770.7,0.05769
3747.55,0.05772
3724.41,0.05732
3701.26,0.05777
3678.12,0.05808
3654.97,0.05706
3631.83,0.05659
3608.68,0.05666
3585.54,0.05717
3562.39,0.05828
3539.25,0.05990
3516.1,0.05924
3492.96,0.05977
3469.81,0.05751
3446.67,0.05714
3423.52,0.05651
3400.38,0.05583
3377.23,0.05534
3354.09,0.05568
3330.94,0.05622
3307.8,0.05645
3284.65,0.05642
3261.51,0.05586
3238.36,0.05643
3215.22,0.05480
3192.07,0.05526
3168.93,0.05441
3145.78,0.05459
3122.64,0.05369
3099.49,0.05308
3076.35,0.05312
3053.2,0.05157
3030.06,0.05146
3006.91,0.04977
2983.77,0.04712
2960.62,0.04451
2937.48,0.03608
2914.33,0.08303
2891.19,0.06451
2868.04,0.05620
2844.9,0.07926
2821.75,0.06529
2798.61,0.06203
2775.46,0.06095
2752.32,0.06001
2729.17,0.05963
2706.03,0.05959
2682.88,0.05915
2659.74,0.05905
2636.59,0.05867
2613.45,0.05868
2590.3,0.05835
2567.16,0.05796
2544.02,0.05815
2520.87,0.05836
2497.73,0.05785
2474.58,0.05791
2451.44,0.05856
2428.29,0.05823
2405.15,0.05820
2382,0.05808
2358.86,0.05801
2335.71,0.05816
2312.57,0.05799
2289.42,0.05811
2266.28,0.05833
2243.13,0.05853
2219.99,0.05994
2196.84,0.06025
2173.7,0.06029
2150.55,0.05881
2127.41,0.06322
2104.26,0.06517
2081.12,0.06329
2057.97,0.06012
2034.83,0.05840
2011.68,0.05801
1988.54,0.06699
1965.39,0.06612
1942.25,0.06474
1919.1,0.06103
1895.96,0.05768
1872.81,0.07034
1849.67,0.08175
1826.52,0.07155
1803.38,0.06930
1780.23,0.07094
1757.09,0.06727
1733.94,0.05893
1710.8,0.05777
1687.65,0.05907
1664.51,0.05756
1641.36,0.05617
1618.22,0.05653
1595.07,0.05618
1571.93,0.05586
1548.78,0.05587
1525.64,0.05563
1502.49,0.05481
1479.35,0.05182
1456.2,0.06000
1433.06,0.05865
1409.91,0.05753
1386.77,0.05696
1363.62,0.05739
1340.48,0.05754
1317.33,0.05718
1294.19,0.05728
1271.04,0.05775
1247.9,0.05721
1224.75,0.05729
1201.61,0.05713
1178.46,0.05671
1155.32,0.05666
1132.17,0.05686
1109.03,0.05691
1085.88,0.05639
1062.74,0.05741
1039.59,0.05689
1016.45,0.05714
993.304,0.05712
970.159,0.05708
947.014,0.05773
923.869,0.05765
900.724,0.05716
877.579,0.05734
854.434,0.05748
831.289,0.05755
808.144,0.05725
784.999,0.05651
761.854,0.05595
738.709,0.05373
715.565,0.06214
692.42,0.05786
669.275,0.06321
646.13,0.08850
622.985,0.10987
599.84,0.09199