File: 01_Data/LDPE/FTIR/IS/LDPE_IS_S_220831_R7.dpt
7497.03,0.48615
7473.89,0.48411
7450.74,0.48465
7427.6,0.48978
7404.45,0.48734
7381.31,0.47668
7358.16,0.46713
7335.02,0.45205
7311.87,0.42970
7288.73,0.40316
7265.58,0.37835
7242.44,0.33840
7219.29,0.29869
7196.15,0.23657
7173,0.17286
7149.86,0.25754
7126.71,0.26837
7103.57,0.24883
7080.42,0.22876
7057.28,0.20945
7034.13,0.22261
7010.99,0.23515
6987.84,0.23860
6964.7,0.24451
6941.55,0.25457
6918.41,0.28195
6895.26,0.29387
6872.12,0.31337
6848.97,0.32495
6825.83,0.33950
6802.68,0.36340
6779.54,0.38804
6756.39,0.39748
6733.25,0.41047
6710.1,0.42213
6686.96,0.43188
6663.82,0.44711
6640.67,0.44578
6617.53,0.45319
6594.38,0.45306
6571.24,0.45386
6548.09,0.44725
6524.95,0.44677
6501.8,0.44194
6478.66,0.43423
6455.51,0.47041
6432.37,0.48534
6409.22,0.49000
6386.08,0.50111
6362.93,0.50894
6339.79,0.51590
6316.64,0.51754
6293.5,0.52096
6270.35,0.51796
6247.21,0.51265
6224.06,0.52105
6200.92,0.51791
6177.77,0.50845
6154.63,0.50511
6131.48,0.49495
6108.34,0.49157
6085.19,0.48471
6062.05,0.47778
6038.9,0.46398
6015.76,0.44621
5992.61,0.42219
5969.47,0.38599
5946.32,0.33899
5923.18,0.26802
5900.03,0.20206
5876.89,0.13745
5853.74,0.07984
5830.6,0.06120
5807.45,0.05787
5784.31,0.05609
5761.16,0.05616
5738.02,0.06571
5714.87,0.07927
5691.73,0.06697
5668.58,0.05945
5645.44,0.06923
5622.29,0.08262
5599.15,0.09636
5576,0.09337
5552.86,0.08601
5529.71,0.08570
5506.57,0.08590
5483.42,0.08892
5460.28,0.09480
5437.13,0.10004
5413.99,0.11047
5390.84,0.12928
5367.7,0.14099
5344.55,0.15773
5321.41,0.16415
5298.26,0.16113
5275.12,0.16351
5251.97,0.16191
5228.83,0.15984
5205.68,0.15928
5182.54,0.15800
5159.39,0.16028
5136.25,0.16690
5113.1,0.16568
5089.96,0.16457
5066.81,0.16874
5043.67,0.17258
5020.52,0.17023
4997.38,0.16118
4974.23,0.14768
4951.09,0.16224
4927.94,0.17152
4904.8,0.17042
4881.65,0.16705
4858.51,0.17012
4835.36,0.19086
4812.22,0.20676
4789.07,0.21911
4765.93,0.23052
4742.78,0.24336
4719.64,0.25318
4696.49,0.25955
4673.35,0.24629
4650.2,0.25336
4627.06,0.25011
4603.92,0.24061
4580.77,0.23014
4557.63,0.20944
4534.48,0.18376
4511.34,0.16008
4488.19,0.13049
4465.05,0.10495
4441.9,0.07938
4418.76,0.06232
4395.61,0.05769
4372.47,0.05661
4349.32,0.05626
4326.18,0.05594
4303.03,0.05651
4279.89,0.05753
4256.74,0.05660
4233.6,0.05664
4210.45,0.05680
4187.31,0.05661
4164.16,0.05621
4141.02,0.05705
4117.87,0.05606
4094.73,0.05603
4071.58,0.05732
4048.44,0.05718
4025.29,0.05699
4002.15,0.05734
3979,0.05752
3955.86,0.05703
3932.71,0.05697
3909.57,0.05670
3886.42,0.05660
3863.28,0.05736
3840.13,0.05757
3816.99,0.05726
3793.84,0.05688
3770.7,0.05780
3747.55,0.05758
3724.41,0.05774
3701.26,0.05738
3678.12,0.05718
3654.97,0.05771
3631.83,0.05738
3608.68,0.05643
3585.54,0.05669
3562.39,0.05858
3539.25,0.05949
3516.1,0.05981
3492.96,0.05953
3469.81,0.05777
3446.67,0.05658
3423.52,0.05718
3400.38,0.05631
3377.23,0.05557
3354.09,0.05552
3330.94,0.05633
3307.8,0.05659
3284.65,0.05564
3261.51,0.05600
3238.36,0.05594
3215.22,0.05542
3192.07,0.05469
3168.93,0.05437
3145.78,0.05451
3122.64,0.05384
3099.49,0.05324
3076.35,0.05275
3053.2,0.05189
3030.06,0.05055
3006.91,0.04969
2983.77,0.04738
2960.62,0.04424
2937.48,0.03531
2914.33,0.08294
2891.19,0.06450
2868.04,0.05542
2844.9,0.07912
2821.75,0.06514
2798.61,0.06254
2775.46,0.06139
2752.32,0.06015
2729.17,0.05934
2706.03,0.05902
2682.88,0.05914
2659.74,0.05873
2636.59,0.05870
2613.45,0.05864
2590.3,0.05860
2567.16,0.05841
2544.02,0.05818
2520.87,0.05818
2497.73,0.05814
2474.58,0.05822
2451.44,0.05888
2428.29,0.05824
2405.15,0.05864
2382,0.05836
2358.86,0.05792
2335.71,0.05801
2312.57,0.05805
2289.42,0.05763
2266.28,0.05807
2243.13,0.05822
2219.99,0.05994
2196.84,0.06028
2173.7,0.05997
2150.55,0.05850
2127.41,0.06342
2104.26,0.06520
2081.12,0.06349
2057.97,0.05976
2034.83,0.05803
2011.68,0.05807
1988.54,0.06683
1965.39,0.06625
1942.25,0.06450
1919.1,0.06093
1895.96,0.05789
1872.81,0.07041
1849.67,0.08184
1826.52,0.07168
1803.38,0.06888
1780.23,0.07080
1757.09,0.06723
1733.94,0.05881
1710.8,0.05791
1687.65,0.05896
1664.51,0.05784
1641.36,0.05622
1618.22,0.05630
1595.07,0.05595
1571.93,0.05603
1548.78,0.05541
1525.64,0.05539
1502.49,0.05500
1479.35,0.05185
1456.2,0.05978
1433.06,0.05860
1409.91,0.05754
1386.77,0.05661
1363.62,0.05718
1340.48,0.05701
1317.33,0.05717
1294.19,0.05736
1271.04,0.05719
1247.9,0.05714
1224.75,0.05722
1201.61,0.05698
1178.46,0.05723
1155.32,0.05669
1132.17,0.05684
1109.03,0.05712
1085.88,0.05667
1062.74,0.05683
1039.59,0.05686
1016.45,0.05735
993.304,0.05711
970.159,0.05724
947.014,0.05740
923.869,0.05696
900.724,0.05726
877.579,0.05655
854.434,0.05754
831.289,0.05693
808.144,0.05654
784.999,0.05750
761.854,0.05578
738.709,0.05375
715.565,0.06335
692.42,0.05787
669.275,0.06277
646.13,0.08871
622.985,0.10814
599.84,0.09070