File: 01_Data/LDPE/FTIR/IS/LDPE_IS_S_220831_R1.dpt
7497.03,0.48825
7473.89,0.49460
7450.74,0.48962
7427.6,0.49336
7404.45,0.49089
7381.31,0.48061
7358.16,0.46908
7335.02,0.45154
7311.87,0.43404
7288.73,0.40663
7265.58,0.36448
7242.44,0.32734
7219.29,0.29541
7196.15,0.22972
7173,0.17374
7149.86,0.25809
7126.71,0.26699
7103.57,0.24920
7080.42,0.22999
7057.28,0.21487
7034.13,0.22381
7010.99,0.23063
6987.84,0.24684
6964.7,0.24593
6941.55,0.25285
6918.41,0.27737
6895.26,0.29426
6872.12,0.31540
6848.97,0.33159
6825.83,0.34713
6802.68,0.37017
6779.54,0.38549
6756.39,0.40051
6733.25,0.41297
6710.1,0.42658
6686.96,0.43361
6663.82,0.44439
6640.67,0.44785
6617.53,0.45686
6594.38,0.45975
6571.24,0.45261
6548.09,0.45195
6524.95,0.44582
6501.8,0.44036
6478.66,0.44037
6455.51,0.47252
6432.37,0.49106
6409.22,0.49869
6386.08,0.50667
6362.93,0.51007
6339.79,0.51882
6316.64,0.52339
6293.5,0.52466
6270.35,0.52223
6247.21,0.52279
6224.06,0.52148
6200.92,0.51863
6177.77,0.51496
6154.63,0.50666
6131.48,0.49896
6108.34,0.49429
6085.19,0.48654
6062.05,0.48167
6038.9,0.46869
6015.76,0.44783
5992.61,0.42519
5969.47,0.38775
5946.32,0.34176
5923.18,0.26851
5900.03,0.20675
5876.89,0.13997
5853.74,0.07945
5830.6,0.06259
5807.45,0.05827
5784.31,0.05491
5761.16,0.05682
5738.02,0.06248
5714.87,0.07899
5691.73,0.06507
5668.58,0.05806
5645.44,0.06898
5622.29,0.08095
5599.15,0.09511
5576,0.09389
5552.86,0.08685
5529.71,0.08921
5506.57,0.08619
5483.42,0.08905
5460.28,0.09614
5437.13,0.10020
5413.99,0.11245
5390.84,0.12958
5367.7,0.14047
5344.55,0.15968
5321.41,0.16514
5298.26,0.16238
5275.12,0.16247
5251.97,0.16577
5228.83,0.16123
5205.68,0.15959
5182.54,0.16056
5159.39,0.16132
5136.25,0.16671
5113.1,0.16487
5089.96,0.16597
5066.81,0.16951
5043.67,0.17484
5020.52,0.17043
4997.38,0.16428
4974.23,0.14678
4951.09,0.16345
4927.94,0.17073
4904.8,0.17074
4881.65,0.16777
4858.51,0.17027
4835.36,0.19101
4812.22,0.20735
4789.07,0.22002
4765.93,0.23270
4742.78,0.24385
4719.64,0.25440
4696.49,0.26056
4673.35,0.24742
4650.2,0.25402
4627.06,0.25224
4603.92,0.24211
4580.77,0.23035
4557.63,0.21083
4534.48,0.18513
4511.34,0.16022
4488.19,0.13279
4465.05,0.10546
4441.9,0.08068
4418.76,0.06287
4395.61,0.05780
4372.47,0.05762
4349.32,0.05674
4326.18,0.05562
4303.03,0.05640
4279.89,0.05690
4256.74,0.05719
4233.6,0.05621
4210.45,0.05668
4187.31,0.05689
4164.16,0.05645
4141.02,0.05684
4117.87,0.05698
4094.73,0.05693
4071.58,0.05667
4048.44,0.05709
4025.29,0.05755
4002.15,0.05770
3979,0.05691
3955.86,0.05772
3932.71,0.05712
3909.57,0.05656
3886.42,0.05773
3863.28,0.05707
3840.13,0.05784
3816.99,0.05754
3793.84,0.05747
3770.7,0.05794
3747.55,0.05789
3724.41,0.05762
3701.26,0.05774
3678.12,0.05780
3654.97,0.05740
3631.83,0.05670
3608.68,0.05674
3585.54,0.05697
3562.39,0.05831
3539.25,0.05951
3516.1,0.06025
3492.96,0.05890
3469.81,0.05830
3446.67,0.05685
3423.52,0.05688
3400.38,0.05676
3377.23,0.05571
3354.09,0.05639
3330.94,0.05681
3307.8,0.05676
3284.65,0.05686
3261.51,0.05632
3238.36,0.05580
3215.22,0.05479
3192.07,0.05466
3168.93,0.05455
3145.78,0.05370
3122.64,0.05368
3099.49,0.05336
3076.35,0.05248
3053.2,0.05143
3030.06,0.05110
3006.91,0.05006
2983.77,0.04770
2960.62,0.04437
2937.48,0.03586
2914.33,0.08368
2891.19,0.06485
2868.04,0.05579
2844.9,0.07983
2821.75,0.06554
2798.61,0.06205
2775.46,0.06164
2752.32,0.06072
2729.17,0.05991
2706.03,0.05958
2682.88,0.05928
2659.74,0.05908
2636.59,0.05900
2613.45,0.05883
2590.3,0.05846
2567.16,0.05833
2544.02,0.05828
2520.87,0.05850
2497.73,0.05857
2474.58,0.05859
2451.44,0.05892
2428.29,0.05838
2405.15,0.05823
2382,0.05825
2358.86,0.05804
2335.71,0.05785
2312.57,0.05811
2289.42,0.05859
2266.28,0.05863
2243.13,0.05839
2219.99,0.05976
2196.84,0.06091
2173.7,0.06014
2150.55,0.05882
2127.41,0.06384
2104.26,0.06603
2081.12,0.06351
2057.97,0.06007
2034.83,0.05810
2011.68,0.05828
1988.54,0.06730
1965.39,0.06618
1942.25,0.06463
1919.1,0.06139
1895.96,0.05825
1872.81,0.07071
1849.67,0.08185
1826.52,0.07180
1803.38,0.06947
1780.23,0.07089
1757.09,0.06771
1733.94,0.05907
1710.8,0.05794
1687.65,0.05921
1664.51,0.05764
1641.36,0.05645
1618.22,0.05631
1595.07,0.05637
1571.93,0.05624
1548.78,0.05556
1525.64,0.05549
1502.49,0.05520
1479.35,0.05221
1456.2,0.05994
1433.06,0.05874
1409.91,0.05764
1386.77,0.05678
1363.62,0.05738
1340.48,0.05761
1317.33,0.05745
1294.19,0.05741
1271.04,0.05757
1247.9,0.05758
1224.75,0.05744
1201.61,0.05727
1178.46,0.05746
1155.32,0.05798
1132.17,0.05722
1109.03,0.05701
1085.88,0.05656
1062.74,0.05740
1039.59,0.05763
1016.45,0.05789
993.304,0.05780
970.159,0.05730
947.014,0.05772
923.869,0.05848
900.724,0.05714
877.579,0.05672
854.434,0.05781
831.289,0.05728
808.144,0.05712
784.999,0.05669
761.854,0.05614
738.709,0.05392
715.565,0.06253
692.42,0.05756
669.275,0.06345
646.13,0.08674
622.985,0.10918
599.84,0.09019