File: 01_Data/LDPE/FTIR/IS/LDPE_IS_S_220831_R4.dpt
7497.03,0.49170
7473.89,0.49152
7450.74,0.48305
7427.6,0.48767
7404.45,0.48785
7381.31,0.46842
7358.16,0.46187
7335.02,0.45854
7311.87,0.42602
7288.73,0.39715
7265.58,0.36304
7242.44,0.33366
7219.29,0.28775
7196.15,0.23385
7173,0.17309
7149.86,0.25045
7126.71,0.26798
7103.57,0.24259
7080.42,0.22377
7057.28,0.19995
7034.13,0.21895
7010.99,0.23240
6987.84,0.23947
6964.7,0.24021
6941.55,0.25526
6918.41,0.28002
6895.26,0.28857
6872.12,0.31297
6848.97,0.32569
6825.83,0.34117
6802.68,0.36405
6779.54,0.38365
6756.39,0.39848
6733.25,0.41395
6710.1,0.41926
6686.96,0.43151
6663.82,0.44140
6640.67,0.44887
6617.53,0.44639
6594.38,0.44791
6571.24,0.44997
6548.09,0.44755
6524.95,0.44293
6501.8,0.44044
6478.66,0.43088
6455.51,0.47018
6432.37,0.48640
6409.22,0.48675
6386.08,0.49858
6362.93,0.50766
6339.79,0.51500
6316.64,0.51570
6293.5,0.51794
6270.35,0.51786
6247.21,0.51733
6224.06,0.51475
6200.92,0.51009
6177.77,0.51196
6154.63,0.50176
6131.48,0.49145
6108.34,0.48791
6085.19,0.48537
6062.05,0.47783
6038.9,0.46321
6015.76,0.44764
5992.61,0.42247
5969.47,0.38242
5946.32,0.33663
5923.18,0.26585
5900.03,0.20150
5876.89,0.13843
5853.74,0.07849
5830.6,0.06148
5807.45,0.05701
5784.31,0.05698
5761.16,0.05710
5738.02,0.06441
5714.87,0.07634
5691.73,0.06383
5668.58,0.05934
5645.44,0.06677
5622.29,0.08085
5599.15,0.09487
5576,0.09185
5552.86,0.08283
5529.71,0.08757
5506.57,0.08567
5483.42,0.08654
5460.28,0.09499
5437.13,0.09994
5413.99,0.10987
5390.84,0.12996
5367.7,0.13965
5344.55,0.15848
5321.41,0.16386
5298.26,0.16110
5275.12,0.16212
5251.97,0.16246
5228.83,0.15779
5205.68,0.15865
5182.54,0.15688
5159.39,0.16032
5136.25,0.16635
5113.1,0.16463
5089.96,0.16367
5066.81,0.16776
5043.67,0.17297
5020.52,0.16899
4997.38,0.16060
4974.23,0.14636
4951.09,0.16080
4927.94,0.16999
4904.8,0.17078
4881.65,0.16552
4858.51,0.16986
4835.36,0.18978
4812.22,0.20573
4789.07,0.21782
4765.93,0.23078
4742.78,0.24138
4719.64,0.25222
4696.49,0.25791
4673.35,0.24489
4650.2,0.25168
4627.06,0.24852
4603.92,0.23907
4580.77,0.22872
4557.63,0.20779
4534.48,0.18345
4511.34,0.15784
4488.19,0.12969
4465.05,0.10516
4441.9,0.07885
4418.76,0.06228
4395.61,0.05756
4372.47,0.05689
4349.32,0.05613
4326.18,0.05599
4303.03,0.05697
4279.89,0.05626
4256.74,0.05659
4233.6,0.05582
4210.45,0.05619
4187.31,0.05628
4164.16,0.05635
4141.02,0.05701
4117.87,0.05632
4094.73,0.05621
4071.58,0.05609
4048.44,0.05686
4025.29,0.05711
4002.15,0.05676
3979,0.05701
3955.86,0.05692
3932.71,0.05642
3909.57,0.05669
3886.42,0.05647
3863.28,0.05656
3840.13,0.05685
3816.99,0.05724
3793.84,0.05729
3770.7,0.05745
3747.55,0.05664
3724.41,0.05758
3701.26,0.05745
3678.12,0.05689
3654.97,0.05714
3631.83,0.05626
3608.68,0.05636
3585.54,0.05650
3562.39,0.05817
3539.25,0.05943
3516.1,0.05961
3492.96,0.05886
3469.81,0.05784
3446.67,0.05633
3423.52,0.05609
3400.38,0.05614
3377.23,0.05532
3354.09,0.05536
3330.94,0.05607
3307.8,0.05563
3284.65,0.05655
3261.51,0.05585
3238.36,0.05557
3215.22,0.05515
3192.07,0.05490
3168.93,0.05472
3145.78,0.05422
3122.64,0.05346
3099.49,0.05237
3076.35,0.05241
3053.2,0.05187
3030.06,0.05100
3006.91,0.04912
2983.77,0.04734
2960.62,0.04333
2937.48,0.03558
2914.33,0.08279
2891.19,0.06408
2868.04,0.05579
2844.9,0.07883
2821.75,0.06500
2798.61,0.06188
2775.46,0.06057
2752.32,0.06000
2729.17,0.05969
2706.03,0.05897
2682.88,0.05864
2659.74,0.05854
2636.59,0.05836
2613.45,0.05846
2590.3,0.05793
2567.16,0.05825
2544.02,0.05814
2520.87,0.05796
2497.73,0.05814
2474.58,0.05768
2451.44,0.05831
2428.29,0.05772
2405.15,0.05780
2382,0.05805
2358.86,0.05787
2335.71,0.05759
2312.57,0.05754
2289.42,0.05746
2266.28,0.05753
2243.13,0.05743
2219.99,0.05910
2196.84,0.06022
2173.7,0.05954
2150.55,0.05813
2127.41,0.06302
2104.26,0.06515
2081.12,0.06271
2057.97,0.05942
2034.83,0.05744
2011.68,0.05777
1988.54,0.06627
1965.39,0.06577
1942.25,0.06416
1919.1,0.06066
1895.96,0.05762
1872.81,0.07004
1849.67,0.08119
1826.52,0.07091
1803.38,0.06844
1780.23,0.07030
1757.09,0.06672
1733.94,0.05851
1710.8,0.05690
1687.65,0.05858
1664.51,0.05703
1641.36,0.05610
1618.22,0.05575
1595.07,0.05583
1571.93,0.05590
1548.78,0.05489
1525.64,0.05486
1502.49,0.05466
1479.35,0.05156
1456.2,0.05958
1433.06,0.05837
1409.91,0.05753
1386.77,0.05669
1363.62,0.05712
1340.48,0.05672
1317.33,0.05674
1294.19,0.05704
1271.04,0.05693
1247.9,0.05712
1224.75,0.05683
1201.61,0.05651
1178.46,0.05622
1155.32,0.05674
1132.17,0.05666
1109.03,0.05694
1085.88,0.05693
1062.74,0.05651
1039.59,0.05727
1016.45,0.05735
993.304,0.05672
970.159,0.05674
947.014,0.05745
923.869,0.05694
900.724,0.05685
877.579,0.05725
854.434,0.05742
831.289,0.05740
808.144,0.05676
784.999,0.05679
761.854,0.05528
738.709,0.05366
715.565,0.06186
692.42,0.05771
669.275,0.06268
646.13,0.08792
622.985,0.10918
599.84,0.09066