File: 01_Data/LDPE/FTIR/IS/LDPE_IS_S_220831_R5.dpt
7497.03,0.48530
7473.89,0.49116
7450.74,0.48683
7427.6,0.48018
7404.45,0.48540
7381.31,0.47676
7358.16,0.46527
7335.02,0.45186
7311.87,0.42890
7288.73,0.40336
7265.58,0.36917
7242.44,0.33149
7219.29,0.28762
7196.15,0.22714
7173,0.17899
7149.86,0.25740
7126.71,0.26881
7103.57,0.24897
7080.42,0.22843
7057.28,0.20530
7034.13,0.22292
7010.99,0.22421
6987.84,0.24530
6964.7,0.24678
6941.55,0.25600
6918.41,0.28270
6895.26,0.29610
6872.12,0.31026
6848.97,0.32500
6825.83,0.34426
6802.68,0.36702
6779.54,0.37978
6756.39,0.40213
6733.25,0.41297
6710.1,0.42098
6686.96,0.43639
6663.82,0.43555
6640.67,0.44406
6617.53,0.45347
6594.38,0.45134
6571.24,0.44739
6548.09,0.45062
6524.95,0.44431
6501.8,0.43578
6478.66,0.43290
6455.51,0.46983
6432.37,0.48326
6409.22,0.49164
6386.08,0.50101
6362.93,0.50777
6339.79,0.51093
6316.64,0.51562
6293.5,0.51746
6270.35,0.51841
6247.21,0.51952
6224.06,0.51551
6200.92,0.51413
6177.77,0.50700
6154.63,0.50364
6131.48,0.49271
6108.34,0.48956
6085.19,0.48521
6062.05,0.47844
6038.9,0.46308
6015.76,0.44313
5992.61,0.42010
5969.47,0.38318
5946.32,0.33581
5923.18,0.26863
5900.03,0.20248
5876.89,0.14004
5853.74,0.07814
5830.6,0.06124
5807.45,0.05889
5784.31,0.05559
5761.16,0.05869
5738.02,0.06478
5714.87,0.07729
5691.73,0.06509
5668.58,0.05882
5645.44,0.06833
5622.29,0.08099
5599.15,0.09411
5576,0.09297
5552.86,0.08593
5529.71,0.08674
5506.57,0.08578
5483.42,0.08795
5460.28,0.09652
5437.13,0.10022
5413.99,0.11054
5390.84,0.12899
5367.7,0.14190
5344.55,0.15792
5321.41,0.16432
5298.26,0.16059
5275.12,0.16186
5251.97,0.16228
5228.83,0.16043
5205.68,0.15925
5182.54,0.15909
5159.39,0.16032
5136.25,0.16634
5113.1,0.16503
5089.96,0.16525
5066.81,0.16790
5043.67,0.17269
5020.52,0.16877
4997.38,0.16100
4974.23,0.14582
4951.09,0.16183
4927.94,0.17097
4904.8,0.17168
4881.65,0.16594
4858.51,0.16934
4835.36,0.19095
4812.22,0.20665
4789.07,0.21888
4765.93,0.23062
4742.78,0.24216
4719.64,0.25323
4696.49,0.25852
4673.35,0.24556
4650.2,0.25227
4627.06,0.24927
4603.92,0.24164
4580.77,0.22853
4557.63,0.20875
4534.48,0.18420
4511.34,0.15824
4488.19,0.13132
4465.05,0.10563
4441.9,0.07978
4418.76,0.06218
4395.61,0.05751
4372.47,0.05677
4349.32,0.05645
4326.18,0.05650
4303.03,0.05673
4279.89,0.05724
4256.74,0.05638
4233.6,0.05686
4210.45,0.05647
4187.31,0.05657
4164.16,0.05636
4141.02,0.05712
4117.87,0.05675
4094.73,0.05667
4071.58,0.05700
4048.44,0.05687
4025.29,0.05690
4002.15,0.05645
3979,0.05719
3955.86,0.05699
3932.71,0.05694
3909.57,0.05735
3886.42,0.05710
3863.28,0.05646
3840.13,0.05728
3816.99,0.05701
3793.84,0.05738
3770.7,0.05778
3747.55,0.05797
3724.41,0.05756
3701.26,0.05698
3678.12,0.05741
3654.97,0.05662
3631.83,0.05689
3608.68,0.05582
3585.54,0.05693
3562.39,0.05789
3539.25,0.05956
3516.1,0.06001
3492.96,0.05959
3469.81,0.05791
3446.67,0.05659
3423.52,0.05622
3400.38,0.05609
3377.23,0.05511
3354.09,0.05574
3330.94,0.05636
3307.8,0.05663
3284.65,0.05598
3261.51,0.05607
3238.36,0.05540
3215.22,0.05538
3192.07,0.05457
3168.93,0.05396
3145.78,0.05431
3122.64,0.05345
3099.49,0.05352
3076.35,0.05199
3053.2,0.05215
3030.06,0.05093
3006.91,0.04959
2983.77,0.04746
2960.62,0.04407
2937.48,0.03581
2914.33,0.08350
2891.19,0.06424
2868.04,0.05566
2844.9,0.07889
2821.75,0.06511
2798.61,0.06200
2775.46,0.06080
2752.32,0.06019
2729.17,0.05934
2706.03,0.05932
2682.88,0.05867
2659.74,0.05816
2636.59,0.05805
2613.45,0.05866
2590.3,0.05804
2567.16,0.05841
2544.02,0.05764
2520.87,0.05827
2497.73,0.05822
2474.58,0.05803
2451.44,0.05864
2428.29,0.05837
2405.15,0.05779
2382,0.05791
2358.86,0.05794
2335.71,0.05808
2312.57,0.05786
2289.42,0.05742
2266.28,0.05806
2243.13,0.05806
2219.99,0.05965
2196.84,0.06047
2173.7,0.05975
2150.55,0.05847
2127.41,0.06316
2104.26,0.06519
2081.12,0.06354
2057.97,0.05963
2034.83,0.05783
2011.68,0.05792
1988.54,0.06717
1965.39,0.06586
1942.25,0.06407
1919.1,0.06098
1895.96,0.05755
1872.81,0.07014
1849.67,0.08150
1826.52,0.07126
1803.38,0.06885
1780.23,0.07050
1757.09,0.06710
1733.94,0.05871
1710.8,0.05759
1687.65,0.05892
1664.51,0.05766
1641.36,0.05632
1618.22,0.05641
1595.07,0.05625
1571.93,0.05575
1548.78,0.05572
1525.64,0.05532
1502.49,0.05467
1479.35,0.05145
1456.2,0.05973
1433.06,0.05842
1409.91,0.05749
1386.77,0.05668
1363.62,0.05723
1340.48,0.05705
1317.33,0.05674
1294.19,0.05689
1271.04,0.05726
1247.9,0.05705
1224.75,0.05686
1201.61,0.05706
1178.46,0.05674
1155.32,0.05664
1132.17,0.05712
1109.03,0.05655
1085.88,0.05637
1062.74,0.05716
1039.59,0.05657
1016.45,0.05730
993.304,0.05779
970.159,0.05771
947.014,0.05795
923.869,0.05705
900.724,0.05704
877.579,0.05724
854.434,0.05683
831.289,0.05667
808.144,0.05704
784.999,0.05666
761.854,0.05620
738.709,0.05421
715.565,0.06194
692.42,0.05810
669.275,0.06184
646.13,0.08770
622.985,0.10971
599.84,0.09318