File: 01_Data/LDPE/FTIR/IS/LDPE_IS_S_220831_R2.dpt
7497.03,0.48285
7473.89,0.48670
7450.74,0.48528
7427.6,0.48348
7404.45,0.48366
7381.31,0.47173
7358.16,0.47460
7335.02,0.45218
7311.87,0.43033
7288.73,0.39490
7265.58,0.36870
7242.44,0.33577
7219.29,0.28382
7196.15,0.23101
7173,0.17943
7149.86,0.25481
7126.71,0.27242
7103.57,0.25157
7080.42,0.23289
7057.28,0.20717
7034.13,0.22378
7010.99,0.23358
6987.84,0.23703
6964.7,0.24352
6941.55,0.25439
6918.41,0.27832
6895.26,0.29298
6872.12,0.30965
6848.97,0.32669
6825.83,0.34184
6802.68,0.36788
6779.54,0.38228
6756.39,0.39538
6733.25,0.40683
6710.1,0.42236
6686.96,0.43213
6663.82,0.44358
6640.67,0.44663
6617.53,0.45164
6594.38,0.45201
6571.24,0.44827
6548.09,0.44865
6524.95,0.44563
6501.8,0.43703
6478.66,0.43806
6455.51,0.47079
6432.37,0.48661
6409.22,0.49500
6386.08,0.49841
6362.93,0.50873
6339.79,0.51469
6316.64,0.51467
6293.5,0.51622
6270.35,0.52042
6247.21,0.52214
6224.06,0.51745
6200.92,0.51623
6177.77,0.51142
6154.63,0.50192
6131.48,0.49468
6108.34,0.49021
6085.19,0.48313
6062.05,0.47920
6038.9,0.46520
6015.76,0.44467
5992.61,0.42281
5969.47,0.38463
5946.32,0.33816
5923.18,0.26696
5900.03,0.20529
5876.89,0.13971
5853.74,0.07915
5830.6,0.06381
5807.45,0.05574
5784.31,0.05617
5761.16,0.05471
5738.02,0.06338
5714.87,0.07683
5691.73,0.06559
5668.58,0.05671
5645.44,0.06824
5622.29,0.08316
5599.15,0.09298
5576,0.09282
5552.86,0.08491
5529.71,0.08809
5506.57,0.08880
5483.42,0.08679
5460.28,0.09411
5437.13,0.09981
5413.99,0.11316
5390.84,0.12920
5367.7,0.14192
5344.55,0.15636
5321.41,0.16486
5298.26,0.16154
5275.12,0.16329
5251.97,0.16343
5228.83,0.16046
5205.68,0.15987
5182.54,0.15955
5159.39,0.16032
5136.25,0.16740
5113.1,0.16472
5089.96,0.16391
5066.81,0.16880
5043.67,0.17319
5020.52,0.16959
4997.38,0.16102
4974.23,0.14794
4951.09,0.16220
4927.94,0.17197
4904.8,0.17104
4881.65,0.16720
4858.51,0.16898
4835.36,0.19045
4812.22,0.20701
4789.07,0.21788
4765.93,0.23123
4742.78,0.24254
4719.64,0.25161
4696.49,0.25961
4673.35,0.24602
4650.2,0.25332
4627.06,0.25127
4603.92,0.24095
4580.77,0.22962
4557.63,0.20953
4534.48,0.18428
4511.34,0.16006
4488.19,0.13149
4465.05,0.10593
4441.9,0.07986
4418.76,0.06342
4395.61,0.05783
4372.47,0.05659
4349.32,0.05678
4326.18,0.05635
4303.03,0.05707
4279.89,0.05705
4256.74,0.05705
4233.6,0.05615
4210.45,0.05618
4187.31,0.05699
4164.16,0.05716
4141.02,0.05647
4117.87,0.05614
4094.73,0.05703
4071.58,0.05669
4048.44,0.05758
4025.29,0.05727
4002.15,0.05728
3979,0.05682
3955.86,0.05759
3932.71,0.05729
3909.57,0.05757
3886.42,0.05708
3863.28,0.05702
3840.13,0.05716
3816.99,0.05761
3793.84,0.05726
3770.7,0.05796
3747.55,0.05756
3724.41,0.05833
3701.26,0.05667
3678.12,0.05723
3654.97,0.05667
3631.83,0.05635
3608.68,0.05642
3585.54,0.05700
3562.39,0.05801
3539.25,0.05934
3516.1,0.06049
3492.96,0.05911
3469.81,0.05829
3446.67,0.05651
3423.52,0.05606
3400.38,0.05624
3377.23,0.05630
3354.09,0.05566
3330.94,0.05609
3307.8,0.05626
3284.65,0.05645
3261.51,0.05624
3238.36,0.05603
3215.22,0.05476
3192.07,0.05413
3168.93,0.05458
3145.78,0.05434
3122.64,0.05342
3099.49,0.05316
3076.35,0.05231
3053.2,0.05199
3030.06,0.05136
3006.91,0.04961
2983.77,0.04739
2960.62,0.04410
2937.48,0.03570
2914.33,0.08297
2891.19,0.06429
2868.04,0.05573
2844.9,0.07885
2821.75,0.06507
2798.61,0.06222
2775.46,0.06117
2752.32,0.06058
2729.17,0.05947
2706.03,0.05897
2682.88,0.05859
2659.74,0.05856
2636.59,0.05842
2613.45,0.05850
2590.3,0.05863
2567.16,0.05827
2544.02,0.05855
2520.87,0.05823
2497.73,0.05792
2474.58,0.05802
2451.44,0.05830
2428.29,0.05789
2405.15,0.05850
2382,0.05833
2358.86,0.05823
2335.71,0.05757
2312.57,0.05784
2289.42,0.05779
2266.28,0.05812
2243.13,0.05850
2219.99,0.05984
2196.84,0.06023
2173.7,0.05991
2150.55,0.05871
2127.41,0.06308
2104.26,0.06555
2081.12,0.06294
2057.97,0.05954
2034.83,0.05817
2011.68,0.05812
1988.54,0.06643
1965.39,0.06620
1942.25,0.06421
1919.1,0.06102
1895.96,0.05765
1872.81,0.07043
1849.67,0.08183
1826.52,0.07138
1803.38,0.06914
1780.23,0.07047
1757.09,0.06733
1733.94,0.05856
1710.8,0.05740
1687.65,0.05868
1664.51,0.05758
1641.36,0.05622
1618.22,0.05628
1595.07,0.05622
1571.93,0.05593
1548.78,0.05519
1525.64,0.05538
1502.49,0.05491
1479.35,0.05170
1456.2,0.05989
1433.06,0.05850
1409.91,0.05757
1386.77,0.05680
1363.62,0.05731
1340.48,0.05728
1317.33,0.05674
1294.19,0.05690
1271.04,0.05677
1247.9,0.05706
1224.75,0.05713
1201.61,0.05701
1178.46,0.05751
1155.32,0.05720
1132.17,0.05624
1109.03,0.05728
1085.88,0.05656
1062.74,0.05716
1039.59,0.05762
1016.45,0.05729
993.304,0.05729
970.159,0.05771
947.014,0.05765
923.869,0.05722
900.724,0.05720
877.579,0.05644
854.434,0.05755
831.289,0.05659
808.144,0.05718
784.999,0.05649
761.854,0.05557
738.709,0.05364
715.565,0.06274
692.42,0.05809
669.275,0.06354
646.13,0.08755
622.985,0.10772
599.84,0.08957