File: 01_Data/LDPE/FTIR/IS/LDPE_IS_S_220831_R8.dpt
7497.03,0.48972
7473.89,0.49196
7450.74,0.48627
7427.6,0.49397
7404.45,0.49068
7381.31,0.47834
7358.16,0.46478
7335.02,0.44930
7311.87,0.42554
7288.73,0.40299
7265.58,0.37269
7242.44,0.33546
7219.29,0.29898
7196.15,0.23347
7173,0.17193
7149.86,0.25425
7126.71,0.27710
7103.57,0.25456
7080.42,0.22707
7057.28,0.21745
7034.13,0.22158
7010.99,0.23237
6987.84,0.24855
6964.7,0.24286
6941.55,0.25418
6918.41,0.27932
6895.26,0.29579
6872.12,0.31253
6848.97,0.32919
6825.83,0.34117
6802.68,0.36699
6779.54,0.38823
6756.39,0.39960
6733.25,0.41099
6710.1,0.42666
6686.96,0.43322
6663.82,0.44260
6640.67,0.45160
6617.53,0.45205
6594.38,0.45853
6571.24,0.45552
6548.09,0.45147
6524.95,0.45091
6501.8,0.44289
6478.66,0.43427
6455.51,0.47337
6432.37,0.49065
6409.22,0.49866
6386.08,0.50645
6362.93,0.50969
6339.79,0.52255
6316.64,0.52281
6293.5,0.52090
6270.35,0.52255
6247.21,0.52164
6224.06,0.51950
6200.92,0.51883
6177.77,0.51781
6154.63,0.50663
6131.48,0.49632
6108.34,0.49191
6085.19,0.48794
6062.05,0.47958
6038.9,0.46968
6015.76,0.44937
5992.61,0.42191
5969.47,0.38462
5946.32,0.34339
5923.18,0.27129
5900.03,0.20321
5876.89,0.14018
5853.74,0.07800
5830.6,0.05992
5807.45,0.05912
5784.31,0.05488
5761.16,0.05660
5738.02,0.06434
5714.87,0.07872
5691.73,0.06640
5668.58,0.05708
5645.44,0.06863
5622.29,0.08196
5599.15,0.09533
5576,0.09399
5552.86,0.08581
5529.71,0.08869
5506.57,0.08678
5483.42,0.08693
5460.28,0.09636
5437.13,0.10201
5413.99,0.11039
5390.84,0.12923
5367.7,0.13940
5344.55,0.16131
5321.41,0.16546
5298.26,0.16206
5275.12,0.16261
5251.97,0.16240
5228.83,0.16262
5205.68,0.16027
5182.54,0.16032
5159.39,0.16211
5136.25,0.16864
5113.1,0.16681
5089.96,0.16482
5066.81,0.16757
5043.67,0.17457
5020.52,0.16957
4997.38,0.16279
4974.23,0.14772
4951.09,0.16313
4927.94,0.17266
4904.8,0.17220
4881.65,0.16728
4858.51,0.17023
4835.36,0.19065
4812.22,0.20826
4789.07,0.21988
4765.93,0.23343
4742.78,0.24463
4719.64,0.25407
4696.49,0.26160
4673.35,0.24670
4650.2,0.25447
4627.06,0.25191
4603.92,0.24115
4580.77,0.23129
4557.63,0.21096
4534.48,0.18545
4511.34,0.16013
4488.19,0.13180
4465.05,0.10611
4441.9,0.07998
4418.76,0.06369
4395.61,0.05817
4372.47,0.05774
4349.32,0.05594
4326.18,0.05628
4303.03,0.05730
4279.89,0.05618
4256.74,0.05653
4233.6,0.05699
4210.45,0.05701
4187.31,0.05711
4164.16,0.05718
4141.02,0.05695
4117.87,0.05683
4094.73,0.05667
4071.58,0.05768
4048.44,0.05716
4025.29,0.05649
4002.15,0.05751
3979,0.05750
3955.86,0.05741
3932.71,0.05690
3909.57,0.05737
3886.42,0.05742
3863.28,0.05733
3840.13,0.05750
3816.99,0.05732
3793.84,0.05730
3770.7,0.05779
3747.55,0.05791
3724.41,0.05791
3701.26,0.05748
3678.12,0.05782
3654.97,0.05780
3631.83,0.05735
3608.68,0.05653
3585.54,0.05714
3562.39,0.05894
3539.25,0.06044
3516.1,0.06016
3492.96,0.05917
3469.81,0.05859
3446.67,0.05717
3423.52,0.05674
3400.38,0.05634
3377.23,0.05545
3354.09,0.05576
3330.94,0.05624
3307.8,0.05651
3284.65,0.05701
3261.51,0.05597
3238.36,0.05609
3215.22,0.05564
3192.07,0.05486
3168.93,0.05476
3145.78,0.05426
3122.64,0.05372
3099.49,0.05335
3076.35,0.05241
3053.2,0.05178
3030.06,0.05143
3006.91,0.04986
2983.77,0.04778
2960.62,0.04400
2937.48,0.03558
2914.33,0.08338
2891.19,0.06457
2868.04,0.05579
2844.9,0.07969
2821.75,0.06537
2798.61,0.06275
2775.46,0.06168
2752.32,0.06031
2729.17,0.05976
2706.03,0.05970
2682.88,0.05949
2659.74,0.05911
2636.59,0.05866
2613.45,0.05863
2590.3,0.05878
2567.16,0.05817
2544.02,0.05860
2520.87,0.05824
2497.73,0.05847
2474.58,0.05844
2451.44,0.05878
2428.29,0.05860
2405.15,0.05850
2382,0.05832
2358.86,0.05797
2335.71,0.05852
2312.57,0.05809
2289.42,0.05855
2266.28,0.05841
2243.13,0.05826
2219.99,0.05992
2196.84,0.06041
2173.7,0.06035
2150.55,0.05929
2127.41,0.06343
2104.26,0.06598
2081.12,0.06315
2057.97,0.05987
2034.83,0.05847
2011.68,0.05796
1988.54,0.06695
1965.39,0.06646
1942.25,0.06482
1919.1,0.06137
1895.96,0.05831
1872.81,0.07091
1849.67,0.08201
1826.52,0.07192
1803.38,0.06930
1780.23,0.07086
1757.09,0.06771
1733.94,0.05891
1710.8,0.05809
1687.65,0.05902
1664.51,0.05799
1641.36,0.05659
1618.22,0.05682
1595.07,0.05647
1571.93,0.05610
1548.78,0.05555
1525.64,0.05559
1502.49,0.05510
1479.35,0.05154
1456.2,0.05978
1433.06,0.05865
1409.91,0.05781
1386.77,0.05676
1363.62,0.05746
1340.48,0.05741
1317.33,0.05705
1294.19,0.05765
1271.04,0.05743
1247.9,0.05731
1224.75,0.05771
1201.61,0.05737
1178.46,0.05727
1155.32,0.05772
1132.17,0.05730
1109.03,0.05696
1085.88,0.05601
1062.74,0.05689
1039.59,0.05699
1016.45,0.05817
993.304,0.05719
970.159,0.05700
947.014,0.05790
923.869,0.05740
900.724,0.05638
877.579,0.05730
854.434,0.05732
831.289,0.05724
808.144,0.05709
784.999,0.05679
761.854,0.05642
738.709,0.05466
715.565,0.06284
692.42,0.05864
669.275,0.06217
646.13,0.08766
622.985,0.10994
599.84,0.09109