File: 01_Data/LDPE/FTIR/IS/LDPE_IS_S_220831_R6.dpt
7497.03,0.48489
7473.89,0.49194
7450.74,0.48468
7427.6,0.48682
7404.45,0.48798
7381.31,0.48252
7358.16,0.45558
7335.02,0.45026
7311.87,0.42835
7288.73,0.39786
7265.58,0.36720
7242.44,0.33160
7219.29,0.29264
7196.15,0.22869
7173,0.16735
7149.86,0.25792
7126.71,0.26963
7103.57,0.25566
7080.42,0.22503
7057.28,0.20602
7034.13,0.22734
7010.99,0.23325
6987.84,0.24030
6964.7,0.24759
6941.55,0.26143
6918.41,0.28191
6895.26,0.29718
6872.12,0.30769
6848.97,0.32981
6825.83,0.34006
6802.68,0.36395
6779.54,0.39420
6756.39,0.39911
6733.25,0.41127
6710.1,0.42849
6686.96,0.43243
6663.82,0.43891
6640.67,0.44699
6617.53,0.45097
6594.38,0.45440
6571.24,0.44993
6548.09,0.45229
6524.95,0.44784
6501.8,0.43737
6478.66,0.43279
6455.51,0.47411
6432.37,0.48436
6409.22,0.49113
6386.08,0.49964
6362.93,0.50802
6339.79,0.51313
6316.64,0.51776
6293.5,0.51608
6270.35,0.52016
6247.21,0.52159
6224.06,0.51963
6200.92,0.51604
6177.77,0.51234
6154.63,0.50188
6131.48,0.49700
6108.34,0.48973
6085.19,0.48992
6062.05,0.47669
6038.9,0.46682
6015.76,0.44824
5992.61,0.42160
5969.47,0.38533
5946.32,0.33698
5923.18,0.26614
5900.03,0.20242
5876.89,0.14015
5853.74,0.07960
5830.6,0.06118
5807.45,0.05776
5784.31,0.05583
5761.16,0.05750
5738.02,0.06382
5714.87,0.07811
5691.73,0.06646
5668.58,0.05952
5645.44,0.07062
5622.29,0.08149
5599.15,0.09725
5576,0.09137
5552.86,0.08541
5529.71,0.08732
5506.57,0.08691
5483.42,0.08904
5460.28,0.09487
5437.13,0.10043
5413.99,0.11354
5390.84,0.12777
5367.7,0.14131
5344.55,0.15888
5321.41,0.16560
5298.26,0.16257
5275.12,0.16140
5251.97,0.16445
5228.83,0.15933
5205.68,0.16043
5182.54,0.15942
5159.39,0.15974
5136.25,0.16667
5113.1,0.16582
5089.96,0.16549
5066.81,0.16858
5043.67,0.17348
5020.52,0.16994
4997.38,0.16248
4974.23,0.14789
4951.09,0.16139
4927.94,0.17148
4904.8,0.17132
4881.65,0.16535
4858.51,0.17127
4835.36,0.19039
4812.22,0.20746
4789.07,0.21854
4765.93,0.23139
4742.78,0.24331
4719.64,0.25372
4696.49,0.25978
4673.35,0.24719
4650.2,0.25344
4627.06,0.25085
4603.92,0.24149
4580.77,0.22981
4557.63,0.20921
4534.48,0.18455
4511.34,0.15932
4488.19,0.13134
4465.05,0.10559
4441.9,0.08007
4418.76,0.06271
4395.61,0.05692
4372.47,0.05697
4349.32,0.05643
4326.18,0.05620
4303.03,0.05696
4279.89,0.05634
4256.74,0.05740
4233.6,0.05740
4210.45,0.05679
4187.31,0.05642
4164.16,0.05685
4141.02,0.05639
4117.87,0.05614
4094.73,0.05645
4071.58,0.05694
4048.44,0.05706
4025.29,0.05712
4002.15,0.05699
3979,0.05720
3955.86,0.05730
3932.71,0.05759
3909.57,0.05715
3886.42,0.05751
3863.28,0.05708
3840.13,0.05675
3816.99,0.05761
3793.84,0.05761
3770.7,0.05736
3747.55,0.05771
3724.41,0.05740
3701.26,0.05742
3678.12,0.05708
3654.97,0.05746
3631.83,0.05754
3608.68,0.05636
3585.54,0.05708
3562.39,0.05834
3539.25,0.05934
3516.1,0.06001
3492.96,0.05891
3469.81,0.05839
3446.67,0.05649
3423.52,0.05672
3400.38,0.05557
3377.23,0.05546
3354.09,0.05628
3330.94,0.05616
3307.8,0.05671
3284.65,0.05601
3261.51,0.05563
3238.36,0.05553
3215.22,0.05507
3192.07,0.05528
3168.93,0.05436
3145.78,0.05377
3122.64,0.05365
3099.49,0.05282
3076.35,0.05242
3053.2,0.05197
3030.06,0.05081
3006.91,0.04956
2983.77,0.04729
2960.62,0.04352
2937.48,0.03578
2914.33,0.08338
2891.19,0.06447
2868.04,0.05558
2844.9,0.07927
2821.75,0.06487
2798.61,0.06225
2775.46,0.06115
2752.32,0.05987
2729.17,0.05969
2706.03,0.05933
2682.88,0.05841
2659.74,0.05895
2636.59,0.05873
2613.45,0.05888
2590.3,0.05869
2567.16,0.05865
2544.02,0.05838
2520.87,0.05783
2497.73,0.05800
2474.58,0.05819
2451.44,0.05904
2428.29,0.05774
2405.15,0.05771
2382,0.05796
2358.86,0.05780
2335.71,0.05814
2312.57,0.05793
2289.42,0.05841
2266.28,0.05805
2243.13,0.05852
2219.99,0.05947
2196.84,0.06062
2173.7,0.05980
2150.55,0.05843
2127.41,0.06295
2104.26,0.06572
2081.12,0.06309
2057.97,0.05969
2034.83,0.05805
2011.68,0.05795
1988.54,0.06684
1965.39,0.06585
1942.25,0.06459
1919.1,0.06115
1895.96,0.05791
1872.81,0.07051
1849.67,0.08166
1826.52,0.07142
1803.38,0.06943
1780.23,0.07075
1757.09,0.06707
1733.94,0.05893
1710.8,0.05744
1687.65,0.05883
1664.51,0.05752
1641.36,0.05599
1618.22,0.05634
1595.07,0.05611
1571.93,0.05610
1548.78,0.05593
1525.64,0.05560
1502.49,0.05473
1479.35,0.05167
1456.2,0.05969
1433.06,0.05841
1409.91,0.05761
1386.77,0.05684
1363.62,0.05715
1340.48,0.05725
1317.33,0.05666
1294.19,0.05700
1271.04,0.05713
1247.9,0.05751
1224.75,0.05687
1201.61,0.05720
1178.46,0.05709
1155.32,0.05693
1132.17,0.05738
1109.03,0.05713
1085.88,0.05673
1062.74,0.05695
1039.59,0.05716
1016.45,0.05756
993.304,0.05756
970.159,0.05780
947.014,0.05757
923.869,0.05692
900.724,0.05712
877.579,0.05682
854.434,0.05787
831.289,0.05723
808.144,0.05736
784.999,0.05636
761.854,0.05672
738.709,0.05356
715.565,0.06334
692.42,0.05866
669.275,0.06334
646.13,0.08773
622.985,0.10996
599.84,0.08825