File: 01_Data/Wood_Stud/FTIR/IS/Wood_Stud_IS_S_221031_R4.dpt
7497.03,0.84533
7473.89,0.84725
7450.74,0.82587
7427.6,0.82904
7404.45,0.82588
7381.31,0.81087
7358.16,0.81208
7335.02,0.78929
7311.87,0.78539
7288.73,0.79283
7265.58,0.78584
7242.44,0.77271
7219.29,0.78307
7196.15,0.77353
7173,0.76847
7149.86,0.75332
7126.71,0.74170
7103.57,0.72161
7080.42,0.69504
7057.28,0.68976
7034.13,0.66802
7010.99,0.65239
6987.84,0.64533
6964.7,0.64140
6941.55,0.63356
6918.41,0.62952
6895.26,0.62715
6872.12,0.62541
6848.97,0.62692
6825.83,0.62333
6802.68,0.62353
6779.54,0.62118
6756.39,0.62647
6733.25,0.62489
6710.1,0.63715
6686.96,0.63749
6663.82,0.63669
6640.67,0.64011
6617.53,0.64373
6594.38,0.64805
6571.24,0.64846
6548.09,0.65256
6524.95,0.65359
6501.8,0.65360
6478.66,0.65762
6455.51,0.65727
6432.37,0.66415
6409.22,0.66102
6386.08,0.65947
6362.93,0.66314
6339.79,0.66806
6316.64,0.67169
6293.5,0.67335
6270.35,0.67809
6247.21,0.68224
6224.06,0.69029
6200.92,0.69341
6177.77,0.70054
6154.63,0.70081
6131.48,0.71089
6108.34,0.71147
6085.19,0.71856
6062.05,0.71441
6038.9,0.71244
6015.76,0.70409
5992.61,0.70040
5969.47,0.70053
5946.32,0.70077
5923.18,0.69725
5900.03,0.69692
5876.89,0.69142
5853.74,0.69178
5830.6,0.68926
5807.45,0.68700
5784.31,0.68354
5761.16,0.68956
5738.02,0.68898
5714.87,0.68666
5691.73,0.68633
5668.58,0.68210
5645.44,0.68401
5622.29,0.68623
5599.15,0.68374
5576,0.68369
5552.86,0.68822
5529.71,0.69030
5506.57,0.69054
5483.42,0.69223
5460.28,0.69328
5437.13,0.69827
5413.99,0.70070
5390.84,0.70565
5367.7,0.70331
5344.55,0.69946
5321.41,0.69030
5298.26,0.66510
5275.12,0.62861
5251.97,0.58467
5228.83,0.55529
5205.68,0.54137
5182.54,0.54003
5159.39,0.54626
5136.25,0.55762
5113.1,0.57150
5089.96,0.58252
5066.81,0.59353
5043.67,0.60522
5020.52,0.61250
4997.38,0.61477
4974.23,0.61152
4951.09,0.60059
4927.94,0.58318
4904.8,0.56381
4881.65,0.54488
4858.51,0.52711
4835.36,0.51198
4812.22,0.50219
4789.07,0.49572
4765.93,0.49311
4742.78,0.49338
4719.64,0.49600
4696.49,0.50068
4673.35,0.50633
4650.2,0.51531
4627.06,0.52467
4603.92,0.53848
4580.77,0.54702
4557.63,0.55510
4534.48,0.55945
4511.34,0.56002
4488.19,0.55223
4465.05,0.53114
4441.9,0.50317
4418.76,0.47354
4395.61,0.45825
4372.47,0.46569
4349.32,0.47084
4326.18,0.46409
4303.03,0.45376
4279.89,0.44738
4256.74,0.45121
4233.6,0.45357
4210.45,0.45328
4187.31,0.45577
4164.16,0.45988
4141.02,0.45503
4117.87,0.44001
4094.73,0.41966
4071.58,0.39738
4048.44,0.37378
4025.29,0.36025
4002.15,0.35773
3979,0.36322
3955.86,0.37265
3932.71,0.38459
3909.57,0.39483
3886.42,0.40467
3863.28,0.41385
3840.13,0.42412
3816.99,0.42592
3793.84,0.42514
3770.7,0.42170
3747.55,0.41222
3724.41,0.39469
3701.26,0.36288
3678.12,0.29972
3654.97,0.21765
3631.83,0.15941
3608.68,0.12122
3585.54,0.09148
3562.39,0.07537
3539.25,0.06478
3516.1,0.05731
3492.96,0.05185
3469.81,0.04948
3446.67,0.04870
3423.52,0.04848
3400.38,0.04899
3377.23,0.04996
3354.09,0.05165
3330.94,0.05502
3307.8,0.05840
3284.65,0.06240
3261.51,0.06634
3238.36,0.07359
3215.22,0.08085
3192.07,0.08882
3168.93,0.09861
3145.78,0.10883
3122.64,0.11958
3099.49,0.13059
3076.35,0.13943
3053.2,0.14938
3030.06,0.15531
3006.91,0.14759
2983.77,0.13216
2960.62,0.10292
2937.48,0.08765
2914.33,0.08552
2891.19,0.08849
2868.04,0.09504
2844.9,0.11132
2821.75,0.14132
2798.61,0.16412
2775.46,0.17428
2752.32,0.17913
2729.17,0.18262
2706.03,0.19203
2682.88,0.20296
2659.74,0.21156
2636.59,0.21939
2613.45,0.22838
2590.3,0.23549
2567.16,0.23959
2544.02,0.24073
2520.87,0.24737
2497.73,0.25703
2474.58,0.26776
2451.44,0.27707
2428.29,0.28885
2405.15,0.30188
2382,0.31277
2358.86,0.32144
2335.71,0.32761
2312.57,0.32901
2289.42,0.32656
2266.28,0.32038
2243.13,0.31489
2219.99,0.31192
2196.84,0.30630
2173.7,0.29209
2150.55,0.28196
2127.41,0.27971
2104.26,0.28410
2081.12,0.28604
2057.97,0.28158
2034.83,0.28826
2011.68,0.30218
1988.54,0.31227
1965.39,0.32069
1942.25,0.33392
1919.1,0.34132
1895.96,0.34133
1872.81,0.33939
1849.67,0.33480
1826.52,0.32490
1803.38,0.30596
1780.23,0.26115
1757.09,0.14984
1733.94,0.11456
1710.8,0.15109
1687.65,0.15490
1664.51,0.10914
1641.36,0.11042
1618.22,0.10879
1595.07,0.10095
1571.93,0.14842
1548.78,0.17373
1525.64,0.11513
1502.49,0.07604
1479.35,0.08686
1456.2,0.06562
1433.06,0.06149
1409.91,0.06949
1386.77,0.06303
1363.62,0.06105
1340.48,0.06172
1317.33,0.06017
1294.19,0.06092
1271.04,0.05164
1247.9,0.05706
1224.75,0.05746
1201.61,0.05887
1178.46,0.04869
1155.32,0.04994
1132.17,0.04191
1109.03,0.04841
1085.88,0.04919
1062.74,0.07086
1039.59,0.07557
1016.45,0.08733
993.304,0.09409
970.159,0.11320
947.014,0.12847
923.869,0.13719
900.724,0.11563
877.579,0.12636
854.434,0.13425
831.289,0.13417
808.144,0.11806
784.999,0.12138
761.854,0.11279
738.709,0.10587
715.565,0.09585
692.42,0.08991
669.275,0.08000
646.13,0.08008
622.985,0.07499
599.84,0.08099