File: 01_Data/Wood_Stud/FTIR/IS/Wood_Stud_IS_S_221031_R1.dpt
7497.03,0.84849
7473.89,0.84411
7450.74,0.83097
7427.6,0.82761
7404.45,0.80828
7381.31,0.80802
7358.16,0.79719
7335.02,0.79748
7311.87,0.78404
7288.73,0.78117
7265.58,0.77020
7242.44,0.77778
7219.29,0.77957
7196.15,0.75849
7173,0.75959
7149.86,0.73549
7126.71,0.73375
7103.57,0.70961
7080.42,0.69549
7057.28,0.67565
7034.13,0.65879
7010.99,0.64150
6987.84,0.63292
6964.7,0.62908
6941.55,0.62205
6918.41,0.61834
6895.26,0.61830
6872.12,0.61677
6848.97,0.61868
6825.83,0.62039
6802.68,0.62088
6779.54,0.61681
6756.39,0.61527
6733.25,0.61654
6710.1,0.62988
6686.96,0.62861
6663.82,0.63256
6640.67,0.63563
6617.53,0.63629
6594.38,0.64304
6571.24,0.64133
6548.09,0.64935
6524.95,0.64637
6501.8,0.64670
6478.66,0.64932
6455.51,0.65176
6432.37,0.65809
6409.22,0.65463
6386.08,0.65910
6362.93,0.65898
6339.79,0.66585
6316.64,0.66636
6293.5,0.66285
6270.35,0.67178
6247.21,0.67495
6224.06,0.68281
6200.92,0.69375
6177.77,0.69307
6154.63,0.70127
6131.48,0.70381
6108.34,0.70963
6085.19,0.70783
6062.05,0.70782
6038.9,0.70660
6015.76,0.69999
5992.61,0.69756
5969.47,0.69259
5946.32,0.69876
5923.18,0.69530
5900.03,0.68958
5876.89,0.69062
5853.74,0.69013
5830.6,0.68493
5807.45,0.68011
5784.31,0.68489
5761.16,0.68544
5738.02,0.68511
5714.87,0.68450
5691.73,0.68244
5668.58,0.68049
5645.44,0.67875
5622.29,0.67920
5599.15,0.67866
5576,0.68152
5552.86,0.68376
5529.71,0.68359
5506.57,0.68652
5483.42,0.68612
5460.28,0.69052
5437.13,0.69443
5413.99,0.69538
5390.84,0.69868
5367.7,0.69787
5344.55,0.69177
5321.41,0.67897
5298.26,0.65271
5275.12,0.60862
5251.97,0.56267
5228.83,0.52938
5205.68,0.51324
5182.54,0.50939
5159.39,0.51706
5136.25,0.53014
5113.1,0.54449
5089.96,0.55799
5066.81,0.57004
5043.67,0.58235
5020.52,0.59052
4997.38,0.59797
4974.23,0.59632
4951.09,0.58875
4927.94,0.57529
4904.8,0.55910
4881.65,0.53982
4858.51,0.52325
4835.36,0.50990
4812.22,0.50024
4789.07,0.49196
4765.93,0.48920
4742.78,0.49025
4719.64,0.49229
4696.49,0.49685
4673.35,0.50250
4650.2,0.51104
4627.06,0.52082
4603.92,0.53330
4580.77,0.54266
4557.63,0.55012
4534.48,0.55468
4511.34,0.55501
4488.19,0.54715
4465.05,0.52686
4441.9,0.50062
4418.76,0.47097
4395.61,0.45698
4372.47,0.46333
4349.32,0.46861
4326.18,0.46145
4303.03,0.45085
4279.89,0.44455
4256.74,0.44776
4233.6,0.44892
4210.45,0.44859
4187.31,0.45019
4164.16,0.45457
4141.02,0.44847
4117.87,0.43266
4094.73,0.41340
4071.58,0.39079
4048.44,0.36917
4025.29,0.35510
4002.15,0.35292
3979,0.35790
3955.86,0.36689
3932.71,0.37695
3909.57,0.38805
3886.42,0.39788
3863.28,0.40613
3840.13,0.41522
3816.99,0.41690
3793.84,0.41385
3770.7,0.40808
3747.55,0.39770
3724.41,0.37763
3701.26,0.34120
3678.12,0.27481
3654.97,0.19146
3631.83,0.13924
3608.68,0.10578
3585.54,0.08380
3562.39,0.07038
3539.25,0.06112
3516.1,0.05546
3492.96,0.05041
3469.81,0.04716
3446.67,0.04726
3423.52,0.04776
3400.38,0.04837
3377.23,0.04949
3354.09,0.05105
3330.94,0.05430
3307.8,0.05679
3284.65,0.05982
3261.51,0.06475
3238.36,0.06981
3215.22,0.07626
3192.07,0.08327
3168.93,0.09220
3145.78,0.10054
3122.64,0.11108
3099.49,0.12084
3076.35,0.12972
3053.2,0.13950
3030.06,0.14572
3006.91,0.14088
2983.77,0.12832
2960.62,0.10126
2937.48,0.08734
2914.33,0.08536
2891.19,0.08765
2868.04,0.09479
2844.9,0.11019
2821.75,0.13895
2798.61,0.16054
2775.46,0.17055
2752.32,0.17514
2729.17,0.17877
2706.03,0.18823
2682.88,0.19912
2659.74,0.20765
2636.59,0.21633
2613.45,0.22483
2590.3,0.23155
2567.16,0.23571
2544.02,0.23678
2520.87,0.24344
2497.73,0.25377
2474.58,0.26426
2451.44,0.27335
2428.29,0.28432
2405.15,0.29630
2382,0.30679
2358.86,0.31454
2335.71,0.31944
2312.57,0.32066
2289.42,0.31650
2266.28,0.31030
2243.13,0.30425
2219.99,0.29983
2196.84,0.29400
2173.7,0.27995
2150.55,0.27036
2127.41,0.26771
2104.26,0.27218
2081.12,0.27367
2057.97,0.27009
2034.83,0.27639
2011.68,0.29127
1988.54,0.30025
1965.39,0.30856
1942.25,0.32173
1919.1,0.32924
1895.96,0.32965
1872.81,0.32825
1849.67,0.32386
1826.52,0.31445
1803.38,0.29620
1780.23,0.25612
1757.09,0.15090
1733.94,0.11287
1710.8,0.14462
1687.65,0.14438
1664.51,0.10130
1641.36,0.10055
1618.22,0.10226
1595.07,0.09783
1571.93,0.14381
1548.78,0.16665
1525.64,0.11282
1502.49,0.07634
1479.35,0.08630
1456.2,0.06516
1433.06,0.06143
1409.91,0.06936
1386.77,0.06309
1363.62,0.06096
1340.48,0.06220
1317.33,0.06051
1294.19,0.06158
1271.04,0.05181
1247.9,0.05690
1224.75,0.05678
1201.61,0.05909
1178.46,0.04857
1155.32,0.05005
1132.17,0.04260
1109.03,0.04744
1085.88,0.04919
1062.74,0.06947
1039.59,0.07457
1016.45,0.08687
993.304,0.09337
970.159,0.11266
947.014,0.12737
923.869,0.13476
900.724,0.11250
877.579,0.12259
854.434,0.12844
831.289,0.12636
808.144,0.11081
784.999,0.11247
761.854,0.10474
738.709,0.09789
715.565,0.08933
692.42,0.08432
669.275,0.07879
646.13,0.07960
622.985,0.07419
599.84,0.07799