File: 01_Data/Wood_Stud/FTIR/IS/Wood_Stud_IS_S_221031_R6.dpt
7497.03,0.83232
7473.89,0.85839
7450.74,0.83120
7427.6,0.81715
7404.45,0.80957
7381.31,0.80553
7358.16,0.80009
7335.02,0.80394
7311.87,0.78564
7288.73,0.78262
7265.58,0.78459
7242.44,0.79097
7219.29,0.78140
7196.15,0.78623
7173,0.76586
7149.86,0.75326
7126.71,0.74397
7103.57,0.72182
7080.42,0.70822
7057.28,0.68812
7034.13,0.66441
7010.99,0.64961
6987.84,0.64412
6964.7,0.63012
6941.55,0.63411
6918.41,0.62970
6895.26,0.62802
6872.12,0.62707
6848.97,0.63350
6825.83,0.62564
6802.68,0.62629
6779.54,0.63153
6756.39,0.63082
6733.25,0.63013
6710.1,0.63178
6686.96,0.63268
6663.82,0.63850
6640.67,0.64203
6617.53,0.64745
6594.38,0.65583
6571.24,0.65066
6548.09,0.65683
6524.95,0.65520
6501.8,0.65807
6478.66,0.65625
6455.51,0.65882
6432.37,0.66148
6409.22,0.66648
6386.08,0.66645
6362.93,0.66673
6339.79,0.67075
6316.64,0.67048
6293.5,0.67688
6270.35,0.67491
6247.21,0.68307
6224.06,0.69074
6200.92,0.69592
6177.77,0.70609
6154.63,0.70916
6131.48,0.71513
6108.34,0.71530
6085.19,0.71621
6062.05,0.71698
6038.9,0.71190
6015.76,0.70653
5992.61,0.70303
5969.47,0.69982
5946.32,0.70127
5923.18,0.70266
5900.03,0.69796
5876.89,0.69107
5853.74,0.69678
5830.6,0.68841
5807.45,0.68786
5784.31,0.68994
5761.16,0.69146
5738.02,0.69210
5714.87,0.68991
5691.73,0.68952
5668.58,0.68731
5645.44,0.68575
5622.29,0.68697
5599.15,0.68514
5576,0.68771
5552.86,0.68936
5529.71,0.69072
5506.57,0.69176
5483.42,0.69251
5460.28,0.69735
5437.13,0.70036
5413.99,0.70549
5390.84,0.70659
5367.7,0.70772
5344.55,0.70401
5321.41,0.69141
5298.26,0.67037
5275.12,0.63437
5251.97,0.59234
5228.83,0.56264
5205.68,0.54753
5182.54,0.54594
5159.39,0.55219
5136.25,0.56479
5113.1,0.57675
5089.96,0.58841
5066.81,0.59865
5043.67,0.61037
5020.52,0.61599
4997.38,0.61989
4974.23,0.61448
4951.09,0.60381
4927.94,0.58567
4904.8,0.56455
4881.65,0.54573
4858.51,0.52850
4835.36,0.51424
4812.22,0.50231
4789.07,0.49748
4765.93,0.49449
4742.78,0.49514
4719.64,0.49952
4696.49,0.50125
4673.35,0.50840
4650.2,0.51798
4627.06,0.52667
4603.92,0.53969
4580.77,0.54939
4557.63,0.55703
4534.48,0.56068
4511.34,0.56228
4488.19,0.55384
4465.05,0.53240
4441.9,0.50500
4418.76,0.47518
4395.61,0.46135
4372.47,0.46739
4349.32,0.47228
4326.18,0.46530
4303.03,0.45457
4279.89,0.44871
4256.74,0.45308
4233.6,0.45467
4210.45,0.45513
4187.31,0.45667
4164.16,0.46155
4141.02,0.45646
4117.87,0.44204
4094.73,0.42162
4071.58,0.39793
4048.44,0.37593
4025.29,0.36083
4002.15,0.35931
3979,0.36468
3955.86,0.37486
3932.71,0.38599
3909.57,0.39694
3886.42,0.40727
3863.28,0.41590
3840.13,0.42641
3816.99,0.42959
3793.84,0.42831
3770.7,0.42443
3747.55,0.41571
3724.41,0.39852
3701.26,0.36644
3678.12,0.30346
3654.97,0.22126
3631.83,0.16328
3608.68,0.12319
3585.54,0.09395
3562.39,0.07639
3539.25,0.06490
3516.1,0.05742
3492.96,0.05271
3469.81,0.04917
3446.67,0.04896
3423.52,0.04867
3400.38,0.05035
3377.23,0.05003
3354.09,0.05171
3330.94,0.05478
3307.8,0.05801
3284.65,0.06140
3261.51,0.06676
3238.36,0.07316
3215.22,0.08113
3192.07,0.08951
3168.93,0.09944
3145.78,0.10986
3122.64,0.12073
3099.49,0.13221
3076.35,0.14127
3053.2,0.15109
3030.06,0.15619
3006.91,0.14909
2983.77,0.13281
2960.62,0.10317
2937.48,0.08760
2914.33,0.08581
2891.19,0.08831
2868.04,0.09554
2844.9,0.11147
2821.75,0.14223
2798.61,0.16451
2775.46,0.17519
2752.32,0.17997
2729.17,0.18317
2706.03,0.19241
2682.88,0.20415
2659.74,0.21227
2636.59,0.22026
2613.45,0.22949
2590.3,0.23655
2567.16,0.24043
2544.02,0.24216
2520.87,0.24789
2497.73,0.25826
2474.58,0.26914
2451.44,0.27798
2428.29,0.29000
2405.15,0.30286
2382,0.31409
2358.86,0.32295
2335.71,0.32927
2312.57,0.33123
2289.42,0.32832
2266.28,0.32254
2243.13,0.31669
2219.99,0.31394
2196.84,0.30854
2173.7,0.29427
2150.55,0.28422
2127.41,0.28189
2104.26,0.28645
2081.12,0.28844
2057.97,0.28377
2034.83,0.29016
2011.68,0.30468
1988.54,0.31445
1965.39,0.32290
1942.25,0.33577
1919.1,0.34342
1895.96,0.34335
1872.81,0.34192
1849.67,0.33741
1826.52,0.32733
1803.38,0.30785
1780.23,0.26223
1757.09,0.15026
1733.94,0.11461
1710.8,0.15172
1687.65,0.15604
1664.51,0.10984
1641.36,0.11158
1618.22,0.10948
1595.07,0.10127
1571.93,0.14906
1548.78,0.17463
1525.64,0.11615
1502.49,0.07569
1479.35,0.08670
1456.2,0.06587
1433.06,0.06137
1409.91,0.06926
1386.77,0.06294
1363.62,0.06073
1340.48,0.06196
1317.33,0.06004
1294.19,0.06154
1271.04,0.05145
1247.9,0.05746
1224.75,0.05664
1201.61,0.05850
1178.46,0.04797
1155.32,0.04948
1132.17,0.04239
1109.03,0.04811
1085.88,0.04945
1062.74,0.07067
1039.59,0.07530
1016.45,0.08752
993.304,0.09440
970.159,0.11337
947.014,0.12890
923.869,0.13770
900.724,0.11560
877.579,0.12672
854.434,0.13483
831.289,0.13496
808.144,0.11851
784.999,0.12139
761.854,0.11356
738.709,0.10548
715.565,0.09546
692.42,0.08896
669.275,0.08089
646.13,0.08179
622.985,0.07675
599.84,0.08271