File: 01_Data/Wood_Stud/FTIR/IS/Wood_Stud_IS_S_221031_R8.dpt
7497.03,0.84121
7473.89,0.83144
7450.74,0.83587
7427.6,0.82576
7404.45,0.82043
7381.31,0.81320
7358.16,0.80313
7335.02,0.80323
7311.87,0.79439
7288.73,0.78969
7265.58,0.77928
7242.44,0.78784
7219.29,0.78253
7196.15,0.76753
7173,0.76620
7149.86,0.75145
7126.71,0.74094
7103.57,0.72555
7080.42,0.71064
7057.28,0.69050
7034.13,0.66460
7010.99,0.65368
6987.84,0.64218
6964.7,0.63409
6941.55,0.63577
6918.41,0.63102
6895.26,0.62811
6872.12,0.62665
6848.97,0.63071
6825.83,0.62488
6802.68,0.63107
6779.54,0.62325
6756.39,0.62530
6733.25,0.63215
6710.1,0.63130
6686.96,0.63777
6663.82,0.64067
6640.67,0.64406
6617.53,0.64784
6594.38,0.65103
6571.24,0.65189
6548.09,0.65692
6524.95,0.65603
6501.8,0.65638
6478.66,0.66043
6455.51,0.66182
6432.37,0.66127
6409.22,0.66618
6386.08,0.66437
6362.93,0.66816
6339.79,0.66726
6316.64,0.66654
6293.5,0.67083
6270.35,0.67596
6247.21,0.68328
6224.06,0.69018
6200.92,0.69861
6177.77,0.70257
6154.63,0.70920
6131.48,0.71365
6108.34,0.71598
6085.19,0.71694
6062.05,0.71944
6038.9,0.71015
6015.76,0.70514
5992.61,0.70105
5969.47,0.69860
5946.32,0.70182
5923.18,0.70223
5900.03,0.69696
5876.89,0.69551
5853.74,0.69128
5830.6,0.69244
5807.45,0.68516
5784.31,0.68901
5761.16,0.69094
5738.02,0.68974
5714.87,0.69065
5691.73,0.68742
5668.58,0.68753
5645.44,0.68711
5622.29,0.68839
5599.15,0.68490
5576,0.68647
5552.86,0.68924
5529.71,0.68947
5506.57,0.69091
5483.42,0.69248
5460.28,0.69545
5437.13,0.69972
5413.99,0.70494
5390.84,0.70573
5367.7,0.70705
5344.55,0.70406
5321.41,0.69138
5298.26,0.67045
5275.12,0.63417
5251.97,0.59306
5228.83,0.56609
5205.68,0.55100
5182.54,0.54973
5159.39,0.55436
5136.25,0.56668
5113.1,0.58111
5089.96,0.59242
5066.81,0.60202
5043.67,0.61128
5020.52,0.61870
4997.38,0.62079
4974.23,0.61764
4951.09,0.60346
4927.94,0.58568
4904.8,0.56520
4881.65,0.54536
4858.51,0.52812
4835.36,0.51405
4812.22,0.50219
4789.07,0.49647
4765.93,0.49399
4742.78,0.49492
4719.64,0.49802
4696.49,0.50233
4673.35,0.50826
4650.2,0.51678
4627.06,0.52720
4603.92,0.53949
4580.77,0.54955
4557.63,0.55663
4534.48,0.56174
4511.34,0.56155
4488.19,0.55384
4465.05,0.53126
4441.9,0.50446
4418.76,0.47437
4395.61,0.45966
4372.47,0.46623
4349.32,0.47102
4326.18,0.46496
4303.03,0.45458
4279.89,0.44832
4256.74,0.45195
4233.6,0.45426
4210.45,0.45398
4187.31,0.45624
4164.16,0.46156
4141.02,0.45630
4117.87,0.44183
4094.73,0.42126
4071.58,0.39763
4048.44,0.37608
4025.29,0.36189
4002.15,0.35925
3979,0.36537
3955.86,0.37417
3932.71,0.38607
3909.57,0.39762
3886.42,0.40732
3863.28,0.41625
3840.13,0.42696
3816.99,0.43027
3793.84,0.42850
3770.7,0.42571
3747.55,0.41682
3724.41,0.40064
3701.26,0.36843
3678.12,0.30674
3654.97,0.22467
3631.83,0.16658
3608.68,0.12423
3585.54,0.09575
3562.39,0.07666
3539.25,0.06515
3516.1,0.05731
3492.96,0.05255
3469.81,0.04896
3446.67,0.04834
3423.52,0.04870
3400.38,0.04920
3377.23,0.05015
3354.09,0.05192
3330.94,0.05535
3307.8,0.05817
3284.65,0.06167
3261.51,0.06766
3238.36,0.07396
3215.22,0.08146
3192.07,0.08958
3168.93,0.10015
3145.78,0.11098
3122.64,0.12238
3099.49,0.13323
3076.35,0.14226
3053.2,0.15152
3030.06,0.15748
3006.91,0.14987
2983.77,0.13309
2960.62,0.10290
2937.48,0.08768
2914.33,0.08612
2891.19,0.08860
2868.04,0.09520
2844.9,0.11152
2821.75,0.14137
2798.61,0.16478
2775.46,0.17533
2752.32,0.18015
2729.17,0.18352
2706.03,0.19276
2682.88,0.20431
2659.74,0.21229
2636.59,0.22036
2613.45,0.22935
2590.3,0.23650
2567.16,0.24032
2544.02,0.24157
2520.87,0.24811
2497.73,0.25834
2474.58,0.26881
2451.44,0.27849
2428.29,0.28989
2405.15,0.30325
2382,0.31441
2358.86,0.32325
2335.71,0.32973
2312.57,0.33187
2289.42,0.32846
2266.28,0.32327
2243.13,0.31758
2219.99,0.31451
2196.84,0.30930
2173.7,0.29491
2150.55,0.28497
2127.41,0.28269
2104.26,0.28761
2081.12,0.28913
2057.97,0.28445
2034.83,0.29103
2011.68,0.30558
1988.54,0.31595
1965.39,0.32354
1942.25,0.33686
1919.1,0.34463
1895.96,0.34441
1872.81,0.34283
1849.67,0.33818
1826.52,0.32802
1803.38,0.30850
1780.23,0.26237
1757.09,0.14969
1733.94,0.11489
1710.8,0.15241
1687.65,0.15744
1664.51,0.11105
1641.36,0.11274
1618.22,0.11019
1595.07,0.10176
1571.93,0.14932
1548.78,0.17481
1525.64,0.11592
1502.49,0.07588
1479.35,0.08715
1456.2,0.06515
1433.06,0.06127
1409.91,0.06931
1386.77,0.06332
1363.62,0.06083
1340.48,0.06192
1317.33,0.05996
1294.19,0.06088
1271.04,0.05157
1247.9,0.05692
1224.75,0.05659
1201.61,0.05897
1178.46,0.04846
1155.32,0.04995
1132.17,0.04284
1109.03,0.04788
1085.88,0.04952
1062.74,0.07126
1039.59,0.07547
1016.45,0.08797
993.304,0.09464
970.159,0.11335
947.014,0.12893
923.869,0.13744
900.724,0.11668
877.579,0.12685
854.434,0.13570
831.289,0.13528
808.144,0.11942
784.999,0.12319
761.854,0.11461
738.709,0.10572
715.565,0.09723
692.42,0.09119
669.275,0.08165
646.13,0.08219
622.985,0.07544
599.84,0.08189