File: 01_Data/Wood_Stud/FTIR/IS/Wood_Stud_IS_S_221031_R3.dpt
7497.03,0.83880
7473.89,0.83762
7450.74,0.83677
7427.6,0.81552
7404.45,0.80695
7381.31,0.81208
7358.16,0.79636
7335.02,0.80277
7311.87,0.79901
7288.73,0.77829
7265.58,0.78532
7242.44,0.77499
7219.29,0.77805
7196.15,0.78076
7173,0.75775
7149.86,0.74734
7126.71,0.73774
7103.57,0.71840
7080.42,0.70161
7057.28,0.67943
7034.13,0.66538
7010.99,0.65309
6987.84,0.64112
6964.7,0.63005
6941.55,0.63638
6918.41,0.62752
6895.26,0.62624
6872.12,0.62814
6848.97,0.62203
6825.83,0.62546
6802.68,0.62458
6779.54,0.62632
6756.39,0.63022
6733.25,0.62670
6710.1,0.62979
6686.96,0.62806
6663.82,0.63622
6640.67,0.64191
6617.53,0.64595
6594.38,0.65395
6571.24,0.65033
6548.09,0.65929
6524.95,0.65637
6501.8,0.65729
6478.66,0.65707
6455.51,0.65937
6432.37,0.66603
6409.22,0.66326
6386.08,0.66509
6362.93,0.66469
6339.79,0.66740
6316.64,0.66704
6293.5,0.67364
6270.35,0.67356
6247.21,0.68407
6224.06,0.68945
6200.92,0.69472
6177.77,0.70258
6154.63,0.70303
6131.48,0.71140
6108.34,0.71355
6085.19,0.71452
6062.05,0.71546
6038.9,0.70904
6015.76,0.70951
5992.61,0.70009
5969.47,0.69707
5946.32,0.70173
5923.18,0.69769
5900.03,0.69565
5876.89,0.69270
5853.74,0.69268
5830.6,0.68944
5807.45,0.68659
5784.31,0.68517
5761.16,0.68762
5738.02,0.68779
5714.87,0.68916
5691.73,0.68747
5668.58,0.68547
5645.44,0.68609
5622.29,0.68358
5599.15,0.68186
5576,0.68406
5552.86,0.68641
5529.71,0.68911
5506.57,0.69034
5483.42,0.69222
5460.28,0.69242
5437.13,0.69769
5413.99,0.69943
5390.84,0.70424
5367.7,0.70216
5344.55,0.69959
5321.41,0.68632
5298.26,0.66405
5275.12,0.62484
5251.97,0.58220
5228.83,0.55289
5205.68,0.53852
5182.54,0.53399
5159.39,0.54210
5136.25,0.55434
5113.1,0.56795
5089.96,0.57822
5066.81,0.59036
5043.67,0.60025
5020.52,0.60900
4997.38,0.61296
4974.23,0.60931
4951.09,0.59910
4927.94,0.58396
4904.8,0.56388
4881.65,0.54393
4858.51,0.52688
4835.36,0.51215
4812.22,0.50106
4789.07,0.49576
4765.93,0.49329
4742.78,0.49404
4719.64,0.49698
4696.49,0.50090
4673.35,0.50572
4650.2,0.51534
4627.06,0.52452
4603.92,0.53658
4580.77,0.54811
4557.63,0.55385
4534.48,0.55853
4511.34,0.55975
4488.19,0.55174
4465.05,0.52996
4441.9,0.50279
4418.76,0.47318
4395.61,0.45827
4372.47,0.46540
4349.32,0.47022
4326.18,0.46393
4303.03,0.45406
4279.89,0.44689
4256.74,0.45065
4233.6,0.45260
4210.45,0.45202
4187.31,0.45485
4164.16,0.45994
4141.02,0.45416
4117.87,0.43917
4094.73,0.41901
4071.58,0.39677
4048.44,0.37420
4025.29,0.35920
4002.15,0.35716
3979,0.36289
3955.86,0.37187
3932.71,0.38355
3909.57,0.39461
3886.42,0.40328
3863.28,0.41281
3840.13,0.42258
3816.99,0.42566
3793.84,0.42443
3770.7,0.41973
3747.55,0.41071
3724.41,0.39277
3701.26,0.35974
3678.12,0.29636
3654.97,0.21309
3631.83,0.15684
3608.68,0.11812
3585.54,0.09102
3562.39,0.07460
3539.25,0.06389
3516.1,0.05672
3492.96,0.05216
3469.81,0.04951
3446.67,0.04761
3423.52,0.04865
3400.38,0.04898
3377.23,0.04987
3354.09,0.05110
3330.94,0.05530
3307.8,0.05801
3284.65,0.06101
3261.51,0.06619
3238.36,0.07180
3215.22,0.08000
3192.07,0.08736
3168.93,0.09744
3145.78,0.10726
3122.64,0.11823
3099.49,0.12898
3076.35,0.13819
3053.2,0.14789
3030.06,0.15379
3006.91,0.14654
2983.77,0.13124
2960.62,0.10232
2937.48,0.08673
2914.33,0.08517
2891.19,0.08720
2868.04,0.09464
2844.9,0.11113
2821.75,0.14105
2798.61,0.16377
2775.46,0.17387
2752.32,0.17842
2729.17,0.18186
2706.03,0.19127
2682.88,0.20200
2659.74,0.21106
2636.59,0.21902
2613.45,0.22767
2590.3,0.23476
2567.16,0.23875
2544.02,0.24046
2520.87,0.24652
2497.73,0.25706
2474.58,0.26727
2451.44,0.27652
2428.29,0.28829
2405.15,0.30155
2382,0.31204
2358.86,0.32084
2335.71,0.32593
2312.57,0.32835
2289.42,0.32485
2266.28,0.31889
2243.13,0.31282
2219.99,0.31021
2196.84,0.30421
2173.7,0.29027
2150.55,0.28046
2127.41,0.27793
2104.26,0.28262
2081.12,0.28416
2057.97,0.27999
2034.83,0.28665
2011.68,0.30040
1988.54,0.31037
1965.39,0.31857
1942.25,0.33190
1919.1,0.33952
1895.96,0.33985
1872.81,0.33797
1849.67,0.33363
1826.52,0.32353
1803.38,0.30422
1780.23,0.26044
1757.09,0.14983
1733.94,0.11440
1710.8,0.15001
1687.65,0.15265
1664.51,0.10763
1641.36,0.10877
1618.22,0.10767
1595.07,0.10053
1571.93,0.14767
1548.78,0.17274
1525.64,0.11504
1502.49,0.07611
1479.35,0.08664
1456.2,0.06557
1433.06,0.06147
1409.91,0.06906
1386.77,0.06302
1363.62,0.06092
1340.48,0.06221
1317.33,0.05990
1294.19,0.06100
1271.04,0.05162
1247.9,0.05692
1224.75,0.05679
1201.61,0.05861
1178.46,0.04848
1155.32,0.04959
1132.17,0.04220
1109.03,0.04802
1085.88,0.04915
1062.74,0.07111
1039.59,0.07547
1016.45,0.08787
993.304,0.09400
970.159,0.11308
947.014,0.12816
923.869,0.13658
900.724,0.11511
877.579,0.12591
854.434,0.13348
831.289,0.13314
808.144,0.11718
784.999,0.12035
761.854,0.11188
738.709,0.10397
715.565,0.09463
692.42,0.08786
669.275,0.08087
646.13,0.08067
622.985,0.07514
599.84,0.07941