File: 01_Data/Wood_Stud/FTIR/IS/Wood_Stud_IS_T_221031_R3.dpt
7497.03,0.01384
7473.89,0.03121
7450.74,0.02523
7427.6,0.02565
7404.45,0.01740
7381.31,0.02586
7358.16,0.02634
7335.02,0.02388
7311.87,0.01645
7288.73,0.02719
7265.58,0.02238
7242.44,0.02311
7219.29,0.02505
7196.15,0.02178
7173,0.02883
7149.86,0.02599
7126.71,0.01336
7103.57,0.02411
7080.42,0.02259
7057.28,0.02492
7034.13,0.02156
7010.99,0.02804
6987.84,0.02380
6964.7,0.02367
6941.55,0.02062
6918.41,0.02103
6895.26,0.02504
6872.12,0.02053
6848.97,0.01898
6825.83,0.02606
6802.68,0.01865
6779.54,0.02091
6756.39,0.02327
6733.25,0.01454
6710.1,0.02343
6686.96,0.02464
6663.82,0.02141
6640.67,0.02065
6617.53,0.01628
6594.38,0.02049
6571.24,0.02321
6548.09,0.02013
6524.95,0.02547
6501.8,0.01939
6478.66,0.02170
6455.51,0.02135
6432.37,0.02294
6409.22,0.01897
6386.08,0.01981
6362.93,0.02175
6339.79,0.01922
6316.64,0.01888
6293.5,0.02314
6270.35,0.02189
6247.21,0.01665
6224.06,0.02240
6200.92,0.02229
6177.77,0.01774
6154.63,0.02139
6131.48,0.02039
6108.34,0.02026
6085.19,0.02195
6062.05,0.02029
6038.9,0.02294
6015.76,0.02368
5992.61,0.02184
5969.47,0.02180
5946.32,0.02024
5923.18,0.02183
5900.03,0.02113
5876.89,0.02189
5853.74,0.02069
5830.6,0.02292
5807.45,0.01947
5784.31,0.02076
5761.16,0.02175
5738.02,0.02366
5714.87,0.01993
5691.73,0.02169
5668.58,0.02149
5645.44,0.02205
5622.29,0.02333
5599.15,0.02144
5576,0.02251
5552.86,0.02260
5529.71,0.02114
5506.57,0.02035
5483.42,0.02255
5460.28,0.02168
5437.13,0.02016
5413.99,0.02254
5390.84,0.02163
5367.7,0.02176
5344.55,0.02170
5321.41,0.02216
5298.26,0.02166
5275.12,0.01970
5251.97,0.01964
5228.83,0.02238
5205.68,0.02128
5182.54,0.02227
5159.39,0.02017
5136.25,0.02064
5113.1,0.02099
5089.96,0.02074
5066.81,0.02165
5043.67,0.02156
5020.52,0.02128
4997.38,0.02119
4974.23,0.02187
4951.09,0.02097
4927.94,0.02143
4904.8,0.02174
4881.65,0.02150
4858.51,0.02251
4835.36,0.02039
4812.22,0.02204
4789.07,0.02129
4765.93,0.02121
4742.78,0.02104
4719.64,0.02093
4696.49,0.02179
4673.35,0.02235
4650.2,0.02164
4627.06,0.02139
4603.92,0.02162
4580.77,0.02217
4557.63,0.02153
4534.48,0.02163
4511.34,0.02131
4488.19,0.02226
4465.05,0.02167
4441.9,0.02202
4418.76,0.02211
4395.61,0.02118
4372.47,0.02162
4349.32,0.02097
4326.18,0.02214
4303.03,0.02141
4279.89,0.02181
4256.74,0.02104
4233.6,0.02229
4210.45,0.02115
4187.31,0.02192
4164.16,0.02202
4141.02,0.02219
4117.87,0.02233
4094.73,0.02155
4071.58,0.02199
4048.44,0.02223
4025.29,0.02212
4002.15,0.02156
3979,0.02205
3955.86,0.02127
3932.71,0.02219
3909.57,0.02232
3886.42,0.02189
3863.28,0.02245
3840.13,0.02271
3816.99,0.02118
3793.84,0.02181
3770.7,0.02215
3747.55,0.02217
3724.41,0.02228
3701.26,0.02250
3678.12,0.02237
3654.97,0.02209
3631.83,0.02125
3608.68,0.02143
3585.54,0.02044
3562.39,0.02004
3539.25,0.02080
3516.1,0.02109
3492.96,0.02049
3469.81,0.02091
3446.67,0.02048
3423.52,0.02022
3400.38,0.02001
3377.23,0.01984
3354.09,0.02000
3330.94,0.01997
3307.8,0.02015
3284.65,0.01976
3261.51,0.02072
3238.36,0.01995
3215.22,0.02008
3192.07,0.02052
3168.93,0.01989
3145.78,0.02089
3122.64,0.02005
3099.49,0.02027
3076.35,0.02000
3053.2,0.02061
3030.06,0.02061
3006.91,0.02026
2983.77,0.01967
2960.62,0.01914
2937.48,0.01915
2914.33,0.01974
2891.19,0.02014
2868.04,0.02037
2844.9,0.02064
2821.75,0.02083
2798.61,0.02126
2775.46,0.02092
2752.32,0.02126
2729.17,0.02090
2706.03,0.02064
2682.88,0.02070
2659.74,0.02088
2636.59,0.02071
2613.45,0.02100
2590.3,0.02116
2567.16,0.02100
2544.02,0.02115
2520.87,0.02084
2497.73,0.02113
2474.58,0.02081
2451.44,0.02078
2428.29,0.02092
2405.15,0.02106
2382,0.02080
2358.86,0.02116
2335.71,0.02088
2312.57,0.02119
2289.42,0.02096
2266.28,0.02083
2243.13,0.02088
2219.99,0.02052
2196.84,0.02104
2173.7,0.02068
2150.55,0.02109
2127.41,0.02094
2104.26,0.02106
2081.12,0.02090
2057.97,0.02081
2034.83,0.02077
2011.68,0.02054
1988.54,0.02074
1965.39,0.02083
1942.25,0.02075
1919.1,0.02065
1895.96,0.02040
1872.81,0.02031
1849.67,0.02010
1826.52,0.02018
1803.38,0.01960
1780.23,0.01894
1757.09,0.01790
1733.94,0.01914
1710.8,0.01990
1687.65,0.01926
1664.51,0.01792
1641.36,0.01800
1618.22,0.01831
1595.07,0.01873
1571.93,0.01818
1548.78,0.01806
1525.64,0.01839
1502.49,0.01879
1479.35,0.01854
1456.2,0.01889
1433.06,0.01858
1409.91,0.01831
1386.77,0.01814
1363.62,0.01781
1340.48,0.01757
1317.33,0.01687
1294.19,0.01787
1271.04,0.01926
1247.9,0.02012
1224.75,0.01917
1201.61,0.01883
1178.46,0.01842
1155.32,0.01756
1132.17,0.01779
1109.03,0.01801
1085.88,0.01787
1062.74,0.01982
1039.59,0.01977
1016.45,0.01944
993.304,0.02171
970.159,0.02034
947.014,0.01962
923.869,0.01895
900.724,0.01904
877.579,0.01890
854.434,0.01812
831.289,0.01840
808.144,0.01838
784.999,0.01906
761.854,0.01775
738.709,0.01800
715.565,0.01760
692.42,0.01805
669.275,0.01762
646.13,0.01747
622.985,0.01631
599.84,0.01538