File: 01_Data/Wood_Stud/FTIR/IS/Wood_Stud_IS_S_221031_R5.dpt
7497.03,0.84482
7473.89,0.84135
7450.74,0.84188
7427.6,0.81741
7404.45,0.82076
7381.31,0.81193
7358.16,0.79639
7335.02,0.80645
7311.87,0.80176
7288.73,0.79034
7265.58,0.78244
7242.44,0.78692
7219.29,0.77518
7196.15,0.77184
7173,0.76638
7149.86,0.74342
7126.71,0.73596
7103.57,0.71878
7080.42,0.70363
7057.28,0.68511
7034.13,0.66424
7010.99,0.65780
6987.84,0.64475
6964.7,0.64046
6941.55,0.62637
6918.41,0.63130
6895.26,0.62501
6872.12,0.62770
6848.97,0.62914
6825.83,0.62774
6802.68,0.62650
6779.54,0.62273
6756.39,0.62715
6733.25,0.62565
6710.1,0.62996
6686.96,0.63494
6663.82,0.63967
6640.67,0.63784
6617.53,0.64332
6594.38,0.64379
6571.24,0.64963
6548.09,0.65277
6524.95,0.65576
6501.8,0.66109
6478.66,0.65882
6455.51,0.65903
6432.37,0.66725
6409.22,0.66063
6386.08,0.66849
6362.93,0.66473
6339.79,0.66451
6316.64,0.66796
6293.5,0.67702
6270.35,0.67976
6247.21,0.68455
6224.06,0.68994
6200.92,0.69727
6177.77,0.70447
6154.63,0.70841
6131.48,0.71275
6108.34,0.71837
6085.19,0.71579
6062.05,0.71739
6038.9,0.71344
6015.76,0.70579
5992.61,0.70166
5969.47,0.70054
5946.32,0.69924
5923.18,0.70340
5900.03,0.69837
5876.89,0.69255
5853.74,0.69363
5830.6,0.69113
5807.45,0.68612
5784.31,0.68717
5761.16,0.69054
5738.02,0.69095
5714.87,0.68948
5691.73,0.68863
5668.58,0.68549
5645.44,0.68692
5622.29,0.68430
5599.15,0.68453
5576,0.68754
5552.86,0.68667
5529.71,0.69147
5506.57,0.69177
5483.42,0.69320
5460.28,0.69675
5437.13,0.69897
5413.99,0.70312
5390.84,0.70544
5367.7,0.70354
5344.55,0.70075
5321.41,0.68983
5298.26,0.66758
5275.12,0.63122
5251.97,0.58920
5228.83,0.55809
5205.68,0.54424
5182.54,0.54105
5159.39,0.55047
5136.25,0.56160
5113.1,0.57607
5089.96,0.58628
5066.81,0.59717
5043.67,0.60679
5020.52,0.61530
4997.38,0.61815
4974.23,0.61303
4951.09,0.60376
4927.94,0.58475
4904.8,0.56505
4881.65,0.54665
4858.51,0.52871
4835.36,0.51290
4812.22,0.50263
4789.07,0.49615
4765.93,0.49378
4742.78,0.49420
4719.64,0.49839
4696.49,0.50215
4673.35,0.50705
4650.2,0.51541
4627.06,0.52611
4603.92,0.53788
4580.77,0.54883
4557.63,0.55519
4534.48,0.55969
4511.34,0.56198
4488.19,0.55228
4465.05,0.53238
4441.9,0.50381
4418.76,0.47443
4395.61,0.45962
4372.47,0.46537
4349.32,0.47066
4326.18,0.46477
4303.03,0.45437
4279.89,0.44733
4256.74,0.45113
4233.6,0.45411
4210.45,0.45427
4187.31,0.45582
4164.16,0.45994
4141.02,0.45613
4117.87,0.44092
4094.73,0.42035
4071.58,0.39734
4048.44,0.37553
4025.29,0.36053
4002.15,0.35903
3979,0.36491
3955.86,0.37315
3932.71,0.38509
3909.57,0.39579
3886.42,0.40617
3863.28,0.41521
3840.13,0.42507
3816.99,0.42801
3793.84,0.42668
3770.7,0.42276
3747.55,0.41431
3724.41,0.39693
3701.26,0.36431
3678.12,0.30201
3654.97,0.21995
3631.83,0.16172
3608.68,0.12171
3585.54,0.09312
3562.39,0.07554
3539.25,0.06467
3516.1,0.05706
3492.96,0.05195
3469.81,0.04973
3446.67,0.04841
3423.52,0.04858
3400.38,0.04933
3377.23,0.05038
3354.09,0.05197
3330.94,0.05479
3307.8,0.05872
3284.65,0.06146
3261.51,0.06670
3238.36,0.07297
3215.22,0.08045
3192.07,0.08943
3168.93,0.09920
3145.78,0.10885
3122.64,0.11987
3099.49,0.13131
3076.35,0.14042
3053.2,0.15008
3030.06,0.15591
3006.91,0.14902
2983.77,0.13257
2960.62,0.10243
2937.48,0.08763
2914.33,0.08511
2891.19,0.08770
2868.04,0.09545
2844.9,0.11138
2821.75,0.14162
2798.61,0.16459
2775.46,0.17493
2752.32,0.17938
2729.17,0.18264
2706.03,0.19251
2682.88,0.20345
2659.74,0.21198
2636.59,0.22022
2613.45,0.22854
2590.3,0.23582
2567.16,0.23964
2544.02,0.24123
2520.87,0.24788
2497.73,0.25764
2474.58,0.26844
2451.44,0.27766
2428.29,0.28925
2405.15,0.30237
2382,0.31348
2358.86,0.32269
2335.71,0.32791
2312.57,0.33035
2289.42,0.32732
2266.28,0.32143
2243.13,0.31588
2219.99,0.31270
2196.84,0.30713
2173.7,0.29304
2150.55,0.28364
2127.41,0.28059
2104.26,0.28543
2081.12,0.28710
2057.97,0.28263
2034.83,0.28919
2011.68,0.30368
1988.54,0.31310
1965.39,0.32153
1942.25,0.33488
1919.1,0.34239
1895.96,0.34253
1872.81,0.34068
1849.67,0.33616
1826.52,0.32629
1803.38,0.30688
1780.23,0.26216
1757.09,0.15028
1733.94,0.11459
1710.8,0.15144
1687.65,0.15548
1664.51,0.10968
1641.36,0.11112
1618.22,0.10937
1595.07,0.10158
1571.93,0.14902
1548.78,0.17378
1525.64,0.11582
1502.49,0.07564
1479.35,0.08695
1456.2,0.06558
1433.06,0.06141
1409.91,0.06911
1386.77,0.06296
1363.62,0.06089
1340.48,0.06219
1317.33,0.06024
1294.19,0.06114
1271.04,0.05192
1247.9,0.05671
1224.75,0.05686
1201.61,0.05902
1178.46,0.04826
1155.32,0.04959
1132.17,0.04241
1109.03,0.04850
1085.88,0.04914
1062.74,0.07108
1039.59,0.07524
1016.45,0.08748
993.304,0.09412
970.159,0.11354
947.014,0.12872
923.869,0.13726
900.724,0.11598
877.579,0.12747
854.434,0.13536
831.289,0.13429
808.144,0.11803
784.999,0.12210
761.854,0.11289
738.709,0.10497
715.565,0.09621
692.42,0.08985
669.275,0.08158
646.13,0.08176
622.985,0.07616
599.84,0.08039