File: 01_Data/Wood_Stud/FTIR/IS/Wood_Stud_IS_S_221031_R2.dpt
7497.03,0.84898
7473.89,0.83425
7450.74,0.84071
7427.6,0.81363
7404.45,0.80829
7381.31,0.81149
7358.16,0.79796
7335.02,0.79551
7311.87,0.78556
7288.73,0.77881
7265.58,0.77376
7242.44,0.77609
7219.29,0.77667
7196.15,0.77131
7173,0.74836
7149.86,0.74740
7126.71,0.73207
7103.57,0.71402
7080.42,0.69896
7057.28,0.67696
7034.13,0.66507
7010.99,0.65221
6987.84,0.64237
6964.7,0.63446
6941.55,0.62613
6918.41,0.63215
6895.26,0.62646
6872.12,0.62562
6848.97,0.62676
6825.83,0.61878
6802.68,0.61970
6779.54,0.62434
6756.39,0.62487
6733.25,0.62533
6710.1,0.62307
6686.96,0.62561
6663.82,0.63361
6640.67,0.63848
6617.53,0.64063
6594.38,0.64110
6571.24,0.64512
6548.09,0.64864
6524.95,0.65006
6501.8,0.65417
6478.66,0.64939
6455.51,0.66022
6432.37,0.66320
6409.22,0.65938
6386.08,0.65946
6362.93,0.65875
6339.79,0.66382
6316.64,0.66747
6293.5,0.66828
6270.35,0.67227
6247.21,0.67851
6224.06,0.68664
6200.92,0.69265
6177.77,0.69572
6154.63,0.70222
6131.48,0.70974
6108.34,0.71312
6085.19,0.71364
6062.05,0.70978
6038.9,0.71026
6015.76,0.70307
5992.61,0.69576
5969.47,0.69485
5946.32,0.69727
5923.18,0.69883
5900.03,0.69294
5876.89,0.68921
5853.74,0.69006
5830.6,0.68840
5807.45,0.68320
5784.31,0.68408
5761.16,0.68802
5738.02,0.68916
5714.87,0.68398
5691.73,0.68344
5668.58,0.68326
5645.44,0.68092
5622.29,0.67866
5599.15,0.68050
5576,0.68142
5552.86,0.68381
5529.71,0.68783
5506.57,0.68673
5483.42,0.68852
5460.28,0.69086
5437.13,0.69562
5413.99,0.69787
5390.84,0.70042
5367.7,0.69813
5344.55,0.69693
5321.41,0.68251
5298.26,0.65741
5275.12,0.61657
5251.97,0.57275
5228.83,0.54036
5205.68,0.52317
5182.54,0.52255
5159.39,0.53221
5136.25,0.54376
5113.1,0.55811
5089.96,0.56832
5066.81,0.58227
5043.67,0.59158
5020.52,0.60100
4997.38,0.60456
4974.23,0.60467
4951.09,0.59405
4927.94,0.57937
4904.8,0.55973
4881.65,0.54240
4858.51,0.52552
4835.36,0.51157
4812.22,0.49999
4789.07,0.49403
4765.93,0.49113
4742.78,0.49150
4719.64,0.49498
4696.49,0.49859
4673.35,0.50431
4650.2,0.51277
4627.06,0.52238
4603.92,0.53496
4580.77,0.54482
4557.63,0.55129
4534.48,0.55671
4511.34,0.55767
4488.19,0.54976
4465.05,0.52763
4441.9,0.50152
4418.76,0.47119
4395.61,0.45785
4372.47,0.46459
4349.32,0.46902
4326.18,0.46224
4303.03,0.45124
4279.89,0.44569
4256.74,0.44977
4233.6,0.45162
4210.45,0.45093
4187.31,0.45217
4164.16,0.45694
4141.02,0.45114
4117.87,0.43703
4094.73,0.41627
4071.58,0.39403
4048.44,0.37165
4025.29,0.35727
4002.15,0.35559
3979,0.36044
3955.86,0.36924
3932.71,0.38074
3909.57,0.39145
3886.42,0.40029
3863.28,0.40981
3840.13,0.41940
3816.99,0.42086
3793.84,0.41898
3770.7,0.41424
3747.55,0.40334
3724.41,0.38557
3701.26,0.35090
3678.12,0.28676
3654.97,0.20299
3631.83,0.14886
3608.68,0.11311
3585.54,0.08839
3562.39,0.07295
3539.25,0.06291
3516.1,0.05649
3492.96,0.05143
3469.81,0.04908
3446.67,0.04789
3423.52,0.04766
3400.38,0.04907
3377.23,0.04960
3354.09,0.05091
3330.94,0.05406
3307.8,0.05771
3284.65,0.06024
3261.51,0.06622
3238.36,0.07104
3215.22,0.07845
3192.07,0.08628
3168.93,0.09455
3145.78,0.10453
3122.64,0.11493
3099.49,0.12570
3076.35,0.13431
3053.2,0.14413
3030.06,0.15021
3006.91,0.14449
2983.77,0.13012
2960.62,0.10172
2937.48,0.08720
2914.33,0.08585
2891.19,0.08769
2868.04,0.09510
2844.9,0.11122
2821.75,0.13995
2798.61,0.16187
2775.46,0.17265
2752.32,0.17713
2729.17,0.18059
2706.03,0.18972
2682.88,0.20107
2659.74,0.20967
2636.59,0.21746
2613.45,0.22674
2590.3,0.23348
2567.16,0.23792
2544.02,0.23885
2520.87,0.24545
2497.73,0.25548
2474.58,0.26562
2451.44,0.27510
2428.29,0.28650
2405.15,0.29918
2382,0.30917
2358.86,0.31781
2335.71,0.32296
2312.57,0.32458
2289.42,0.32120
2266.28,0.31523
2243.13,0.30929
2219.99,0.30542
2196.84,0.29963
2173.7,0.28582
2150.55,0.27626
2127.41,0.27350
2104.26,0.27770
2081.12,0.27959
2057.97,0.27552
2034.83,0.28240
2011.68,0.29600
1988.54,0.30609
1965.39,0.31425
1942.25,0.32720
1919.1,0.33543
1895.96,0.33502
1872.81,0.33360
1849.67,0.32905
1826.52,0.31955
1803.38,0.30100
1780.23,0.25867
1757.09,0.15008
1733.94,0.11319
1710.8,0.14773
1687.65,0.14911
1664.51,0.10478
1641.36,0.10531
1618.22,0.10531
1595.07,0.09947
1571.93,0.14589
1548.78,0.16971
1525.64,0.11397
1502.49,0.07598
1479.35,0.08627
1456.2,0.06522
1433.06,0.06134
1409.91,0.06922
1386.77,0.06281
1363.62,0.06089
1340.48,0.06223
1317.33,0.05990
1294.19,0.06103
1271.04,0.05174
1247.9,0.05711
1224.75,0.05677
1201.61,0.05891
1178.46,0.04884
1155.32,0.05048
1132.17,0.04313
1109.03,0.04828
1085.88,0.04997
1062.74,0.07057
1039.59,0.07501
1016.45,0.08688
993.304,0.09383
970.159,0.11259
947.014,0.12806
923.869,0.13612
900.724,0.11423
877.579,0.12446
854.434,0.13206
831.289,0.12995
808.144,0.11391
784.999,0.11718
761.854,0.10866
738.709,0.10131
715.565,0.09286
692.42,0.08717
669.275,0.07998
646.13,0.07980
622.985,0.07367
599.84,0.07952