File: 01_Data/Wood_Stud/FTIR/IS/Wood_Stud_IS_S_221031_R7.dpt
7497.03,0.85416
7473.89,0.84345
7450.74,0.82229
7427.6,0.82975
7404.45,0.81367
7381.31,0.80344
7358.16,0.80594
7335.02,0.78498
7311.87,0.78915
7288.73,0.78865
7265.58,0.79463
7242.44,0.77970
7219.29,0.77693
7196.15,0.77215
7173,0.77200
7149.86,0.75150
7126.71,0.74990
7103.57,0.71843
7080.42,0.70564
7057.28,0.69078
7034.13,0.67531
7010.99,0.65298
6987.84,0.63651
6964.7,0.63861
6941.55,0.63358
6918.41,0.62990
6895.26,0.62653
6872.12,0.63332
6848.97,0.62268
6825.83,0.62263
6802.68,0.62843
6779.54,0.62877
6756.39,0.62318
6733.25,0.63442
6710.1,0.63238
6686.96,0.63601
6663.82,0.63930
6640.67,0.63987
6617.53,0.64122
6594.38,0.64356
6571.24,0.65462
6548.09,0.65580
6524.95,0.65573
6501.8,0.65740
6478.66,0.65422
6455.51,0.66106
6432.37,0.66314
6409.22,0.66512
6386.08,0.66664
6362.93,0.66406
6339.79,0.66805
6316.64,0.67248
6293.5,0.67681
6270.35,0.67812
6247.21,0.68745
6224.06,0.69031
6200.92,0.70012
6177.77,0.70090
6154.63,0.70542
6131.48,0.71399
6108.34,0.71611
6085.19,0.71891
6062.05,0.71810
6038.9,0.71176
6015.76,0.70833
5992.61,0.69995
5969.47,0.69908
5946.32,0.70167
5923.18,0.70393
5900.03,0.69691
5876.89,0.69455
5853.74,0.69472
5830.6,0.69246
5807.45,0.68738
5784.31,0.68693
5761.16,0.69326
5738.02,0.69038
5714.87,0.69126
5691.73,0.69055
5668.58,0.68813
5645.44,0.68631
5622.29,0.68639
5599.15,0.68495
5576,0.68568
5552.86,0.69012
5529.71,0.69130
5506.57,0.69395
5483.42,0.69379
5460.28,0.69630
5437.13,0.69818
5413.99,0.70500
5390.84,0.70766
5367.7,0.70646
5344.55,0.70265
5321.41,0.69288
5298.26,0.67017
5275.12,0.63426
5251.97,0.59216
5228.83,0.56236
5205.68,0.54862
5182.54,0.54959
5159.39,0.55581
5136.25,0.56728
5113.1,0.57970
5089.96,0.59186
5066.81,0.60258
5043.67,0.61185
5020.52,0.61880
4997.38,0.62099
4974.23,0.61580
4951.09,0.60473
4927.94,0.58557
4904.8,0.56527
4881.65,0.54618
4858.51,0.52859
4835.36,0.51410
4812.22,0.50232
4789.07,0.49814
4765.93,0.49416
4742.78,0.49593
4719.64,0.49818
4696.49,0.50172
4673.35,0.50652
4650.2,0.51649
4627.06,0.52654
4603.92,0.53913
4580.77,0.55023
4557.63,0.55722
4534.48,0.56092
4511.34,0.56328
4488.19,0.55430
4465.05,0.53194
4441.9,0.50506
4418.76,0.47488
4395.61,0.46005
4372.47,0.46729
4349.32,0.47181
4326.18,0.46498
4303.03,0.45470
4279.89,0.44796
4256.74,0.45226
4233.6,0.45495
4210.45,0.45465
4187.31,0.45632
4164.16,0.46221
4141.02,0.45711
4117.87,0.44188
4094.73,0.42113
4071.58,0.39901
4048.44,0.37630
4025.29,0.36156
4002.15,0.35912
3979,0.36517
3955.86,0.37435
3932.71,0.38645
3909.57,0.39687
3886.42,0.40755
3863.28,0.41612
3840.13,0.42713
3816.99,0.43015
3793.84,0.42817
3770.7,0.42513
3747.55,0.41648
3724.41,0.40027
3701.26,0.36821
3678.12,0.30606
3654.97,0.22366
3631.83,0.16532
3608.68,0.12414
3585.54,0.09398
3562.39,0.07597
3539.25,0.06472
3516.1,0.05757
3492.96,0.05294
3469.81,0.05003
3446.67,0.04856
3423.52,0.04896
3400.38,0.04950
3377.23,0.05063
3354.09,0.05206
3330.94,0.05538
3307.8,0.05853
3284.65,0.06215
3261.51,0.06747
3238.36,0.07418
3215.22,0.08151
3192.07,0.09001
3168.93,0.10011
3145.78,0.11045
3122.64,0.12171
3099.49,0.13288
3076.35,0.14159
3053.2,0.15146
3030.06,0.15703
3006.91,0.14929
2983.77,0.13303
2960.62,0.10307
2937.48,0.08817
2914.33,0.08557
2891.19,0.08829
2868.04,0.09510
2844.9,0.11167
2821.75,0.14198
2798.61,0.16486
2775.46,0.17576
2752.32,0.17990
2729.17,0.18306
2706.03,0.19297
2682.88,0.20418
2659.74,0.21226
2636.59,0.22078
2613.45,0.22925
2590.3,0.23625
2567.16,0.24055
2544.02,0.24180
2520.87,0.24810
2497.73,0.25836
2474.58,0.26876
2451.44,0.27832
2428.29,0.28993
2405.15,0.30360
2382,0.31417
2358.86,0.32328
2335.71,0.32947
2312.57,0.33159
2289.42,0.32905
2266.28,0.32285
2243.13,0.31750
2219.99,0.31447
2196.84,0.30921
2173.7,0.29503
2150.55,0.28511
2127.41,0.28211
2104.26,0.28749
2081.12,0.28915
2057.97,0.28428
2034.83,0.29132
2011.68,0.30559
1988.54,0.31486
1965.39,0.32348
1942.25,0.33656
1919.1,0.34459
1895.96,0.34408
1872.81,0.34281
1849.67,0.33769
1826.52,0.32805
1803.38,0.30844
1780.23,0.26259
1757.09,0.14997
1733.94,0.11502
1710.8,0.15263
1687.65,0.15698
1664.51,0.11079
1641.36,0.11219
1618.22,0.11043
1595.07,0.10145
1571.93,0.14942
1548.78,0.17502
1525.64,0.11603
1502.49,0.07601
1479.35,0.08701
1456.2,0.06533
1433.06,0.06143
1409.91,0.06929
1386.77,0.06321
1363.62,0.06120
1340.48,0.06179
1317.33,0.06054
1294.19,0.06108
1271.04,0.05163
1247.9,0.05681
1224.75,0.05674
1201.61,0.05870
1178.46,0.04805
1155.32,0.04973
1132.17,0.04240
1109.03,0.04787
1085.88,0.04974
1062.74,0.07099
1039.59,0.07544
1016.45,0.08758
993.304,0.09467
970.159,0.11306
947.014,0.12854
923.869,0.13712
900.724,0.11595
877.579,0.12713
854.434,0.13552
831.289,0.13501
808.144,0.11857
784.999,0.12358
761.854,0.11448
738.709,0.10602
715.565,0.09633
692.42,0.09137
669.275,0.08070
646.13,0.08252
622.985,0.07789
599.84,0.08088