File: 01_Data/Plywood/Cone/Plywood_Cone_HF35Scalar_190311_R3.csv
LABORATORY,FSRI
TEST IDENT,BC03-3
OPERATOR,Dow
MATERIAL,plywood from boot camp fuels
ORIENTATION,Horizontal
HEAT FLUX,35
SURF AREA,0.01
C FACTOR,0.0385201
SPEC HOLDER DIFF,386.21
SPECIMEN MASS,71.29
SCAN TIME,0.25
O2 DELAY TIME,11
CO DELAY TIME,11
CO2 DELAY TIME,8
FLOW FACTOR,1
SCAN COUNT,4529
TIME TO IGN,75.5
END OF TEST SCAN,4049
END OF TEST TIME,1012.25
TEST STATUS,1