File: 01_Data/Plywood/Cone/Plywood_Cone_HF35Scan_190308_R1.csv
Names,Time,Stack TC,Smoke TC,Exh Press,Smoke Comp,Smoke Meas,CO Meter,CO2 Meter,O2 Meter,Sample Mass,Ext Coeff,Start Test,Flame Verif
Chan Gain,,500,500,1,1,1,1,1,1,1,1,1,1
Offset,,0,0,0.120824,0,0,0,0,0,0,0,0,0
Gain,,1,1,25.011,13.3584,14.8895,1,1,1,1.00093,1.03656,1,1
Units,sec,C,C,Pa,%,%,%,%,%,g,/m,,
Baseline,,38.725,39.985,175.177,99.665,96.6491,0.002473526,0.0686577,20.9309,-0.0793234,0.27943,,
39,9.5,38.5105,40.0959,175.899,99.1771,95.8364,0.003158925,0.0830635,20.9253,1019.9,0.311557,0,0
78,19.25,38.4022,39.857,173.157,98.9334,95.6192,0.002587192,0.0898234,20.9141,1019.79,0.309809,0,0
117,29,39.066,40.067,176.51,98.8771,95.7714,0.002402274,0.0896456,20.9052,1019.67,0.290174,0,0
156,38.75,38.5951,40.752,178.708,98.9093,95.5179,0.002307262,0.0758131,20.9089,1019.56,0.317239,0,0
195,48.5,39.6251,40.2396,172.903,98.948,95.2039,0.002658074,0.0726684,20.9159,1019.44,0.350737,0,0
234,58.25,38.901,40.2458,172.315,98.9892,95.0953,0.0031193,0.0735426,20.9191,1019.28,0.364897,0,0
273,68,39.7259,40.4482,179.528,98.9978,95.3039,0.003567793,0.0729396,20.9213,1019.05,0.345763,0,0
312,77.75,42.6239,43.9691,156.979,98.9513,95.5947,0.004070831,0.100592,20.918,1018.29,0.313792,0,0
351,87.5,47.7313,50.0535,159.596,98.8955,96.2858,0.005991451,0.290335,20.8473,1017.29,0.243157,0,0
390,97.25,50.3172,53.866,165.696,98.9008,95.2248,0.006420099,0.320947,20.7692,1016.27,0.344394,0,0
429,107,51.3984,57.2622,161.712,99.3072,96.5848,0.007153513,0.329421,20.7103,1015.34,0.252743,0,0
468,116.75,52.7853,58.3753,160.066,99.5779,97.3168,0.005889239,0.29205,20.6952,1014.53,0.208842,0,0
507,126.5,53.3578,57.6391,166.384,99.723,97.2591,0.005600951,0.26435,20.7003,1013.83,0.227476,0,0
546,136.25,53.668,57.7656,162.021,99.6541,97.3445,0.004748057,0.247236,20.7127,1013.15,0.21321,0,0
585,146,52.3659,58.199,169.919,99.2554,96.4617,0.00476663,0.225851,20.7297,1012.52,0.259602,0,0
624,155.75,53.0092,56.4233,160.822,99.2485,97.216,0.005339792,0.212928,20.7482,1011.88,0.188143,0,0
663,165.5,51.8387,55.3736,169.671,99.6109,96.8811,0.006225131,0.202914,20.7644,1011.31,0.252662,0,0
702,175.25,51.5623,54.708,161.27,99.8139,98.0788,0.006975185,0.195401,20.7773,1010.76,0.159449,0,0
741,185,50.0526,55.2178,167.92,99.5294,97.3913,0.006899344,0.189278,20.7868,1010.19,0.19745,0,0
780,194.75,50.8499,53.0723,167.358,98.752,96.0909,0.00693768,0.18764,20.7958,1009.65,0.248381,0,0
819,204.5,51.0629,53.4952,165.527,97.9554,96.7706,0.006992952,0.180034,20.8004,1009.07,0.110642,0,0
858,214.25,50.6648,52.4621,166.962,97.8624,95.8064,0.008485088,0.176809,20.8071,1008.5,0.193063,0,0
897,224,49.8183,52.646,163.616,98.5277,95.9241,0.008796051,0.173245,20.8105,1007.94,0.243506,0,0
936,233.75,50.6352,52.2369,167.798,99.1421,97.5399,0.009406553,0.171679,20.8142,1007.38,0.148139,0,0
975,243.5,50.4292,51.7649,166.005,99.0479,96.4817,0.009561933,0.172042,20.815,1006.77,0.238689,0,0
1014,253.25,49.3163,53.7449,167.849,99.149,98.042,0.009600715,0.179564,20.8147,1006.2,0.102089,0,0
1053,263,51.2437,52.6521,165.055,99.6317,98.506,0.009996531,0.181164,20.8106,1005.62,0.103322,0,0
1092,272.75,49.6764,53.7626,166.59,99.4552,97.788,0.009292791,0.181301,20.8074,1005.03,0.153709,0,0
1131,282.5,51.0638,52.2529,166.102,99.7556,97.9471,0.00880888,0.181358,20.808,1004.42,0.166362,0,0
1170,292.25,51.5816,52.3972,168.824,98.5212,97.3545,0.008222229,0.182235,20.8069,1003.84,0.108317,0,0
1209,302,50.4352,53.4898,164.696,97.8706,96.104,0.007474152,0.185287,20.8048,1003.29,0.165618,0,0
1248,311.75,50.9093,53.6531,166.981,98.935,98.5964,0.007573637,0.188103,20.804,1002.69,0.0311732,0,0
1287,321.5,51.0329,54.3921,170.685,99.0263,97.7571,0.006393235,0.18759,20.8015,1002.12,0.11729,0,0
1326,331.25,51.5359,54.5078,164.672,99.5175,98.7441,0.005592227,0.189395,20.8038,1001.5,0.0709469,0,0
1365,341,52.3836,54.7665,164.316,99.1368,98.6918,0.006150884,0.194545,20.8021,1000.9,0.040905,0,0
1404,350.75,52.2604,55.4058,169.968,99.7948,99.213,0.006302453,0.196065,20.7997,1000.31,0.0531624,0,0
1443,360.5,51.4276,56.4052,163.477,98.6529,98.2442,0.00574542,0.198203,20.7989,999.694,0.0377439,0,0
1482,370.25,51.4689,56.7266,173.554,97.9052,97.6499,0.006003314,0.20209,20.7966,999.083,0.0237459,0,0
1521,380,52.2014,56.455,164.641,98.9896,99.113,0.005469551,0.207326,20.7919,998.473,-0.0113281,0,0
1560,389.75,54.119,54.9206,165.461,98.9468,98.7173,0.005080038,0.207954,20.7887,997.852,0.0211206,0,0
1599,399.5,52.0982,57.0877,164.211,99.4218,99.0185,0.004911851,0.212185,20.786,997.252,0.0369526,0,0
1638,409.25,53.1349,56.591,161.497,99.3211,99.2662,0.004940019,0.211472,20.7855,996.651,0.00502692,0,0
1677,419,54.0275,55.6558,165.388,99.39,99.2257,0.00491515,0.211326,20.7835,996.051,0.0150378,0,0
1716,428.75,54.4823,55.6511,161.929,99.7899,99.621,0.00502034,0.214734,20.7808,995.39,0.0153971,0,0
1755,438.5,55.2447,55.6632,162.49,99.5734,99.3766,0.004772418,0.21965,20.7787,994.809,0.0179915,0,0
1794,448.25,54.217,57.0348,165.592,98.7214,97.9407,0.004960247,0.220802,20.7727,994.219,0.0721901,0,0
1833,458,55.2551,56.3032,167.917,98.0092,98.0602,0.004457741,0.221978,20.7717,993.618,-0.00473092,0,0
1872,467.75,53.3037,58.6498,160.816,97.9811,98.6496,0.004854018,0.223868,20.7691,992.978,-0.0618247,0,0
1911,477.5,53.7444,59.2259,165.429,98.5192,98.1602,0.004265694,0.229409,20.7656,992.347,0.033194,0,0
1950,487.25,54.1321,59.7057,166.152,99.0235,98.0884,0.004894996,0.235599,20.7628,991.667,0.0862695,0,0
1989,497,56.0511,58.6459,166.09,99.2566,98.705,0.004759741,0.242735,20.7574,991.026,0.0506771,0,0
2028,506.75,54.9256,60.1367,163.32,99.171,98.0752,0.004471719,0.2516011,20.7495,990.315,0.101031,0,0
2067,516.5,57.734,58.6526,166.833,98.9183,98.1061,0.004465709,0.258802,20.742,989.555,0.0749641,0,0
2106,526.25,57.1075,61.9744,166.537,98.7948,98.1643,0.004668067,0.267503,20.7341,988.794,0.0582138,0,0
2145,536,56.3564,62.7206,157.773,99.2,99.517,0.004777039,0.276608,20.7248,987.963,-0.0290097,0,0
2184,545.75,59.4951,61.3436,154.937,99.5966,98.76,0.005017544,0.28312,20.7168,987.152,0.0767066,0,0
2223,555.5,60.6837,61.7565,164.548,99.7381,98.7568,0.005323125,0.293368,20.7066,986.252,0.0899043,0,0
2262,565.25,60.1592,64.0728,157.343,99.5962,98.6677,0.005031175,0.303796,20.6966,985.381,0.0851646,0,0
2301,575,61.6726,64.5118,159.4,99.1625,97.9366,0.00577351,0.313029,20.6855,984.46,0.113105,0,0
2340,584.75,61.4473,66.9137,155.739,99.3317,97.6208,0.00598609,0.325716,20.6732,983.489,0.157971,0,0
2379,594.5,61.9062,68.4433,156.756,99.553,98.1574,0.005752581,0.33852,20.66,982.488,0.128365,0,0
2418,604.25,61.3166,68.299,159.566,99.7642,97.4122,0.006370781,0.349598,20.6495,981.387,0.216926,0,0
2457,614,63.0978,69.2004,161.586,99.8845,98.7459,0.007280251,0.36032,20.6384,980.366,0.10424,0,0
2496,623.75,63.1615,70.8103,160.835,99.9309,97.9652,0.007221441,0.366643,20.627,979.285,0.180637,0,0
2535,633.5,65.7848,69.5025,160.828,99.9171,99.4679,0.007088581,0.373963,20.6138,978.234,0.0409665,0,0
2574,643.25,67.3189,70.3467,158.543,99.838,97.4686,0.00730377,0.375451,20.6041,977.153,0.218389,0,0
2613,653,64.1793,71.7245,157.64,99.714,97.9053,0.007088659,0.372179,20.6014,976.102,0.166451,0,0
2652,662.75,65.0218,72.5238,159.359,99.5869,98.8704,0.006402228,0.36124,20.6028,975.151,0.0656518,0,0
2691,672.5,65.7875,71.3003,159.005,99.5563,98.3637,0.006482049,0.349733,20.607,974.27,0.109574,0,0
2730,682.25,65.7321,68.8986,156.19,99.5351,98.6995,0.005425893,0.333516,20.6146,973.49,0.0766496,0,0
2769,692,63.7574,70.556,162.732,99.52,98.6505,0.005255965,0.314533,20.6276,972.729,0.079794,0,0
2808,701.75,64.7818,66.3962,159.448,99.5355,98.1911,0.005427596,0.298793,20.64,972.018,0.12365,0,0
2847,711.5,62.6137,67.0569,165.044,99.4548,99.3807,0.004333041,0.279217,20.6551,971.468,0.006778483,0,0
2886,721.25,64.0331,64.5465,166.373,99.3573,98.934,0.004699681,0.253932,20.6782,970.897,0.0388243,0,0
2925,731,59.0552,64.5152,162.147,99.2346,99.5742,0.005075205,0.229176,20.7053,970.447,-0.0310634,0,0
2964,740.75,58.8042,62.4232,175.158,99.0838,99.078,0.005336122,0.20964,20.728,970.117,0.000527854,0,0
3003,750.5,57.6896,61.0436,167.248,98.9546,98.6845,0.006720311,0.196942,20.7463,969.726,0.0248453,0,0
3042,760.25,59.0201,58.89,164.525,98.8135,99.3666,0.00692767,0.184723,20.7627,969.466,-0.0507496,0,0
3081,770,56.4115,59.6439,165.132,98.7503,99.2284,0.007425351,0.174883,20.7769,969.186,-0.0439164,0,0
3120,779.75,56.4639,56.8056,163.409,98.7226,99.133,0.008590993,0.16348,20.7917,968.966,-0.0377222,0,0
3159,789.5,56.6325,54.9154,167.412,98.6704,98.9758,0.009275157,0.153179,20.8046,968.785,-0.0280969,0,0
3198,799.25,55.8978,53.2389,170.101,98.6085,99.7546,0.0102265,0.145454,20.8179,968.605,-0.105077,0,0
3237,809,52.0541,53.9275,168.773,98.5783,99.1471,0.0110286,0.137903,20.8262,968.495,-0.0523155,0,0
3276,818.75,50.0521,52.9912,171.317,98.5151,98.3537,0.0142673,0.129802,20.836,968.335,0.0149058,0,0
3315,828.5,49.9355,52.3093,167.956,98.4707,98.4623,0.0141006,0.124798,20.8479,968.225,0.000768468,0,0
3354,838.25,51.765,49.2707,173.885,98.4959,98.3706,0.0149799,0.122268,20.8555,968.075,0.011583,0,0
3393,848,51.7421,49.7984,174.318,98.533,97.6712,0.0162629,0.126982,20.8588,968.045,0.0798756,0,0
3432,857.75,45.9392,48.2253,170.803,98.5648,98.3228,0.0120798,0.110554,20.863,-0.13012,0.0223511,0,0
3471,867.5,46.5333,49.114,173.2,98.597,97.8235,0.006860644,0.0959189,20.8723,-0.13012,0.0716213,0,0
3510,877.25,48.5379,44.6064,175.075,98.5514,98.6168,0.002899353,0.0769906,20.8887,-0.14013,-0.006036734,0,0
3549,887,45.6007,47.0411,176.388,98.4605,98.2038,0.002487744,0.0723634,20.9043,-0.150139,0.023735,0,0
3588,896.75,42.8362,44.6651,174.938,98.4026,97.7971,0.002516689,0.0722584,20.9137,-0.14013,0.0561199,0,0
3627,906.5,44.3957,42.1488,175.234,98.361,98.1833,0.002946887,0.0724832,20.9173,-0.160148,0.01643797,0,0
3666,916.25,43.9466,42.4278,171.556,98.2762,98.1865,0.00322951,0.0720935,20.9205,-0.160148,0.008302296,0,0
3705,926,45.4541,41.0362,169.613,98.2314,98.3487,0.002415057,0.0722916,20.9224,-0.160148,-0.0108576,0,0
3744,935.75,41.1947,43.3691,172.601,98.2403,97.4586,0.002371705,0.0714745,20.9218,-0.150139,0.0726439,0,0
3783,945.5,42.9505,41.713,173.312,98.2966,98.1615,0.002723143,0.0698994,20.9247,-0.150139,0.0125009,0,0
3822,955.25,42.0172,42.7627,172.634,98.4226,97.898,,,,-0.160148,0.0485911,0,0
3851,962.5,43.2166,40.5266,174.454,98.5326,97.9162,,,,-0.160148,0.0570668,0,0