File: 01_Data/Plywood/Cone/Plywood_Cone_HF35Scan_190311_R3.csv
Names,Time,Stack TC,Smoke TC,Exh Press,Smoke Comp,Smoke Meas,CO Meter,CO2 Meter,O2 Meter,Sample Mass,Ext Coeff,Start Test,Flame Verif
Chan Gain,,500,500,1,1,1,1,1,1,1,1,1,1
Offset,,0,0,0.120824,0,0,0,0,0,0,0,0,0
Gain,,1,1,25.011,13.3584,14.8895,1,1,1,1.00093,1.03656,1,1
Units,sec,C,C,Pa,%,%,%,%,%,g,/m,,
Baseline,,36.9342,38.0627,174.382,99.7043,96.715,0.007865127,0.0582086,20.9653,-0.188924,0.276834,,
45,11,36.7917,40.2787,173.259,99.5811,96.628,0.007788126,0.0603198,20.9607,1024.57,0.273729,0,0
90,22.25,38.6721,35.8189,177.71,99.5021,96.8156,0.008111561,0.0597903,20.9607,1024.49,0.248863,0,0
135,33.5,35.5706,39.1536,173.476,99.3936,96.0759,0.007769483,0.0600992,20.9602,1024.39,0.30869,0,0
180,44.75,37.442,38.8053,173.503,99.3003,95.293,0.007750052,0.0600869,20.961,1024.31,0.374544,0,0
225,56,39.4431,36.5045,174.372,99.2416,94.6882,0.00797833,0.062847,20.9605,1024.21,0.427059,0,0
270,67.25,35.2919,39.7294,172.707,99.1922,94.4087,0.008599998,0.0612733,20.9564,1024.11,0.449413,0,0
315,78.5,36.8588,39.9777,167.604,99.136,96.2972,0.008924949,0.0604529,20.9586,1023.86,0.264171,0,1
360,89.75,39.8137,45.2403,168.216,99.1209,96.4289,0.009303637,0.174605,20.9362,1023.15,0.250354,0,0
405,101,47.7901,47.8218,163.316,99.0805,97.3614,0.0110736,0.26909,20.839,1022.19,0.159154,0,0
450,112.25,48.9867,51.626,163.763,99.0614,96.398,0.0108023,0.271094,20.7745,1021.24,0.247806,0,0
495,123.5,51.346,54.2438,157.169,99.0434,98.1215,0.0118854,0.269794,20.7523,1020.23,0.0850293,0,0
540,134.75,51.6474,57.1759,159.47,99.0703,96.8052,0.0108863,0.279032,20.734,1019.19,0.210309,0,0
585,146,51.1842,57.7125,164.714,99.1229,96.8065,0.0115599,0.254212,20.7369,1018.28,0.215006,0,0
630,157.25,51.6456,55.467,166.998,99.1466,96.6448,0.0107321,0.225018,20.7551,1017.44,0.232381,0,0
675,168.5,48.712,55.9485,161.598,99.2196,96.3944,0.0111715,0.198687,20.7814,1016.72,0.262657,0,0
720,179.75,50.0242,53.4939,162.316,99.2607,96.6743,0.0113052,0.179092,20.8047,1016.11,0.240064,0,0
765,191,50.0886,51.5606,168.729,99.2929,96.3158,0.0113644,0.164524,20.8255,1015.51,0.276797,0,0
810,202.25,46.4911,52.692,165.416,99.3427,97.5795,0.0112671,0.157284,20.8403,1014.95,0.162831,0,0
855,213.5,48.7864,49.4036,170.592,99.3557,96.1381,0.0113646,0.152242,20.8498,1014.42,0.299331,0,0
900,224.75,48.5106,48.9952,167.774,99.3496,95.9018,0.0112455,0.147534,20.8596,1013.89,0.321147,0,0
945,236,47.3156,48.8276,171.736,99.3349,97.0265,0.011302,0.144767,20.8654,1013.37,0.213797,0,0
990,247.25,45.9807,50.9485,168.358,99.3174,96.9015,0.01178116,0.144761,20.8678,1012.81,0.22391,0,0
1035,258.5,45.6572,49.5606,168.562,99.352,96.8334,0.0118583,0.145915,20.8672,1012.27,0.233479,0,0
1080,269.75,48.3785,47.9193,163.397,99.412,96.8293,0.0118312,0.147764,20.8681,1011.71,0.239346,0,0
1125,281,46.8615,49.464,167.767,99.4719,97.8821,0.01279955,0.148453,20.8666,1011.11,0.146497,0,0
1170,292.25,45.6171,50.4404,161.991,99.5816,97.225,0.012632,0.147918,20.8666,1010.6,0.217755,0,0
1215,303.5,47.0087,49.039,166.198,99.6549,96.488,0.0126453,0.148922,20.864,1010.03,0.293643,0,0
1260,314.75,46.2937,50.1467,166.679,99.7051,96.8888,0.0123519,0.151068,20.8603,1009.44,0.260528,0,0
1305,326,46.1108,50.569,169.938,99.6908,97.0083,0.0123059,0.1524,20.8618,1008.88,0.248019,0,0
1350,337.25,46.2181,51.2136,167.569,99.6447,96.5916,0.0128623,0.153204,20.8616,1008.3,0.282956,0,0
1395,348.5,46.5727,51.2579,164.209,99.5816,96.4312,0.01225865,0.156255,20.8616,1007.77,0.2923,0,0
1440,359.75,48.7727,49.4608,171.428,99.5326,96.8765,0.0120065,0.157039,20.8616,1007.15,0.24594,0,0
1485,371,49.2628,49.5314,166.061,99.4474,97.0705,0.0116482,0.160398,20.8575,1006.57,0.219961,0,0
1530,382.25,48.6817,49.8949,158.386,99.3451,97.1446,0.0114914,0.164526,20.8555,1005.93,0.203665,0,0
1575,393.5,49.7977,49.7132,164.583,99.2163,96.3599,0.0109865,0.16732,20.8495,1005.37,0.265615,0,0
1620,404.75,49.2128,50.1827,164.799,99.0357,96.3576,0.0115395,0.168398,20.8475,1004.72,0.249264,0,0
1665,416,48.1615,52.199,164.923,98.8086,95.9205,0.0113516,0.17273,20.8456,1004.11,0.269735,0,0
1710,427.25,49.362,51.1756,168.626,98.5962,97.2673,0.0112633,0.177792,20.8413,1003.43,0.123388,0,0
1755,438.5,48.6042,53.5932,165.108,98.3887,95.4147,0.0116662,0.184842,20.8348,1002.76,0.27908,0,0
1800,449.75,49.2322,53.984,168.365,98.1649,95.4238,0.0112474,0.1921,20.8305,1002.06,0.257507,0,0
1845,461,51.6019,53.1816,167.024,97.9697,95.1626,0.0101075,0.200226,20.8209,1001.29,0.264332,0,0
1890,472.25,50.6117,55.0708,164.241,97.7634,95.7033,0.0103292,0.210376,20.8142,1000.54,0.193648,0,0
1935,483.5,52.8288,54.3542,158.04,97.6663,95.6801,0.0100155,0.221986,20.8058,999.704,0.186822,0,0
1980,494.75,53.3241,55.9755,162.881,97.6109,94.7159,0.0108674,0.235608,20.791,998.853,0.273755,0,0
2025,506,52.7281,58.2052,162.9263,97.5942,95.4456,0.0112635,0.245165,20.777,997.922,0.20241,0,0
2070,517.25,53.8734,58.8439,166.117,97.661,95.1985,0.0113498,0.251639,20.7657,997.062,0.232216,0,0
2115,528.5,55.4389,58.0462,159.093,97.8127,96.0191,0.0118794,0.253956,20.7597,996.091,0.168281,0,0
2160,539.75,55.7393,58.4789,158.879,98.0475,95.1607,0.0126604,0.259688,20.7515,995.12,0.27173,0,0
2205,551,54.9891,60.4937,159.544,98.3247,95.3652,0.0132775,0.26861,20.7478,994.099,0.277884,0,0
2250,562.25,56.73,60.7234,162.893,98.5836,94.8022,0.0135508,0.28061,20.7366,993.038,0.355628,0,0
2295,573.5,58.144,61.391,156.818,98.8261,95.3529,0.0128873,0.294274,20.7247,991.977,0.325306,0,0
2340,584.75,58.4352,63.0007,157.498,98.9937,94.4224,0.0126837,0.307487,20.7096,990.826,0.429882,0,0
2385,596,59.0022,64.9318,155.076,99.1331,95.2462,0.0128254,0.320811,20.6965,989.645,0.363694,0,0
2430,607.25,60.5805,65.1166,152.852,99.1735,95.6092,0.0125806,0.334855,20.6807,988.414,0.332802,0,0
2475,618.5,61.1091,67.2581,156.731,99.1653,96.478,0.0124381,0.344161,20.6652,987.172,0.249803,0,0
2520,629.75,62.4552,66.9426,160.433,99.1254,93.8789,0.0124552,0.346449,20.6553,985.941,0.494452,0,0
2565,641,62.5273,67.7894,157.658,99.0964,95.4306,0.0126066,0.346957,20.6497,984.71,0.342733,0,0
2610,652.25,62.7535,69.0826,158.336,99.061,95.1662,0.0119417,0.345662,20.6451,983.519,0.364711,0,0
2655,663.5,63.3175,68.2172,156.372,99.0161,93.2773,0.0127846,0.341954,20.6442,982.338,0.542882,0,0
2700,674.75,63.3499,68.865,164.219,98.948,94.6264,0.0125989,0.336303,20.647,981.237,0.406063,0,0
2745,686,63.1627,68.5585,162.507,98.8926,95.1412,0.0120044,0.330657,20.6518,980.136,0.351632,0,0
2790,697.25,63.3455,67.4185,161.415,98.8571,95.592,0.0110436,0.312269,20.6599,979.175,0.305393,0,0
2835,708.5,62.4252,66.7688,160.486,98.9061,96.0273,0.0105204,0.288951,20.6757,978.284,0.26858,0,0
2880,719.75,61.7597,64.9503,155.968,99.1686,96.7556,0.0107374,0.26104,20.7012,977.523,0.223974,0,0
2925,731,60.2412,64.8384,163.155,99.341,97.5726,0.0101857,0.2434147,20.7241,976.813,0.163316,0,0
2970,742.25,59.6815,62.7454,160.248,99.4544,95.6169,0.009872301,0.228761,20.7428,976.182,0.357783,0,0
3015,753.5,58.4566,62.6542,165.36,99.5445,97.5458,0.0102133,0.213803,20.7609,975.572,0.184415,0,0
3060,764.75,57.684,60.4921,167.652,99.6456,97.7817,0.0109518,0.199896,20.7793,975.021,0.17169,0,0
3105,776,57.407,59.1966,162.787,99.6627,96.8047,0.0112632,0.188349,20.7944,974.561,0.264553,0,0
3150,787.25,55.8818,58.0377,162.916,99.5832,97.6294,0.01177965,0.183041,20.8063,974.11,0.180162,0,0
3195,798.5,54.8073,57.5705,165.46,99.3887,97.5417,0.0124602,0.170346,20.8192,973.7,0.17056,0,0
3240,809.75,53.927,56.3612,165.848,99.0915,97.0174,0.0133306,0.159521,20.8281,973.34,0.192344,0,0
3285,821,53.2683,55.182,166.797,99.0373,97.8071,0.0138855,0.14925,20.8391,972.989,0.113653,0,0
3330,832.25,52.3108,54.1751,168.681,99.1674,97.1905,0.0152435,0.14285,20.8492,972.699,0.183088,0,0
3375,843.5,52.0199,52.9708,169.942,99.3471,97.1941,0.0156789,0.137138,20.858,972.439,0.199217,0,0
3420,854.75,51.4564,52.3777,167.402,99.5008,96.9556,0.0163772,0.131852,20.8662,972.169,0.235617,0,0
3465,866,50.8047,51.6724,164.083,99.5966,97.2655,0.0171407,0.127742,20.8711,971.918,0.215352,0,0
3510,877.25,50.0736,50.9268,167.371,99.6659,96.7811,0.0178319,0.123844,20.8753,971.698,0.26707,0,0
3555,888.5,49.3715,50.9277,168.63,99.6757,96.6943,0.0195899,0.117831,20.8818,971.478,0.276121,0,0
3600,899.75,48.8939,50.312,167.555,99.6594,97.0596,0.0205357,0.114709,20.8856,971.278,0.240344,0,0
3645,911,48.7105,49.4229,173.02,99.5934,96.5007,0.0200682,0.112492,20.8892,971.117,0.286826,0,0
3690,922.25,48.3588,49.2738,170.462,99.4682,96.7856,0.0206217,0.110656,20.8919,970.927,0.248588,0,0
3735,933.5,48.3395,48.6234,168.856,99.2823,97.5013,0.0214697,0.108515,20.8954,970.767,0.164593,0,0
3780,944.75,48.0741,48.2267,167.94,99.0039,96.3744,0.0215599,0.106596,20.8998,970.587,0.244758,0,0
3825,956,47.6046,48.1667,167.24,98.7776,96.1318,0.0220217,0.105139,20.9017,970.447,0.246877,0,0
3870,967.25,47.3845,47.8621,171.509,98.553,95.5711,0.0222653,0.103008,20.9009,970.287,0.279366,0,0
3915,978.5,46.8198,47.4338,171.478,98.3769,95.1703,0.0215503,0.110634,20.9055,970.137,0.301314,0,0
3960,989.75,46.3903,47.3659,166.024,98.169,95.8823,0.02199682,0.107551,20.9056,970.016,0.214303,0,0
4005,1001,46.3731,47.1703,169.084,97.9505,95.5765,0.021934,0.109896,20.9001,969.886,0.223087,0,0
4050,1012.25,46.1837,46.9811,170.511,97.7732,94.9036,0.0217227,0.103566,20.9021,969.746,0.270858,0,0
4095,1023.5,44.4012,45.0044,170.327,97.6598,95.602,0.0173897,0.0847467,20.907,0.560518,0.193645,0,0
4140,1034.75,43.7944,44.3267,173.661,97.5869,94.9145,0.0118929,0.0749438,20.9201,-0.300278,0.252471,0,0
4185,1046,43.1217,43.3705,169.384,97.6121,95.0771,0.008438403,0.0622153,20.9404,-0.290268,0.239255,0,0
4230,1057.25,42.6056,42.8804,173.198,97.692,95.3584,0.007484585,0.0589368,20.9526,-0.310287,0.219836,0,0
4275,1068.5,42.1087,42.3062,174.532,97.8396,95.9936,0.007376004,0.0581706,20.9571,-0.310287,0.173191,0,0
4320,1079.75,41.6634,42.0356,171.457,98.0451,95.2584,0.007583691,0.0584776,20.9598,-0.310287,0.262174,0,0
4365,1091,41.2758,41.7803,175.723,98.2884,95.8291,0.007791811,0.0588456,20.9616,-0.330305,0.230403,0,0
4410,1102.25,41.0297,41.8231,168.298,98.5542,95.3961,0.007878453,0.0591853,20.9621,-0.330305,0.296138,0,0
4455,1113.5,41.1249,41.5414,169.812,98.7891,96,0.00813889,0.0582687,20.9632,-0.330305,0.260399,0,0
4500,1124.75,40.8866,41.332,174.872,98.9917,96.498,,,,-0.330305,0.231981,0,0
4529,1132,41.0403,41.2121,170.743,99.0512,96.3558,,,,-0.330305,0.250858,0,0