File: 01_Data/Plywood/Cone/Plywood_Cone_HF35Scan_190308_R2.csv
Names,Time,Stack TC,Smoke TC,Exh Press,Smoke Comp,Smoke Meas,CO Meter,CO2 Meter,O2 Meter,Sample Mass,Ext Coeff,Start Test,Flame Verif
Chan Gain,,500,500,1,1,1,1,1,1,1,1,1,1
Offset,,0,0,0.120824,0,0,0,0,0,0,0,0,0
Gain,,1,1,25.011,13.3584,14.8895,1,1,1,1.00093,1.03656,1,1
Units,sec,C,C,Pa,%,%,%,%,%,g,/m,,
Baseline,,40.1397,41.4508,173.97,98.4101,95.2384,0.002395702,0.0714058,20.9192,-0.006047257,0.29792,,
42,10.25,38.9027,41.7843,170.496,98.2424,94.6064,0.002448579,0.0747187,20.9195,1022.57,0.342906,0,0
84,20.75,40.5323,41.3018,173.802,98.2844,94.8713,0.002322092,0.0756167,20.9153,1022.48,0.321367,0,0
126,31.25,39.9581,41.312,173.348,98.3092,94.5114,0.002617077,0.0760358,20.9143,1022.38,0.358224,0,0
168,41.75,41.1194,40.6419,176.409,98.2864,94.1852,0.001982927,0.0758693,20.9113,1022.27,0.387553,0,0
210,52.25,39.3718,42.3876,172.324,98.2884,93.9675,0.00237438,0.0745855,20.9118,1022.15,0.408779,0,0
252,62.75,41.3698,41.0885,172.888,98.3019,93.9298,0.002398733,0.073585,20.9133,1022.02,0.413673,0,0
294,73.25,41.4097,41.2197,173.323,98.2831,93.0946,0.002990334,0.074044,20.9155,1021.88,0.493146,0,0
336,83.75,40.1425,44.0972,169.851,98.2884,94.6845,0.002953479,0.0771011,20.9148,1021.54,0.33966,0,1
378,94.25,45.1358,49.6062,162.558,98.2864,96.3808,0.004752664,0.201718,20.887,1020.68,0.178023,0,0
420,104.75,49.1102,53.4169,158.411,98.2526,95.7505,0.005837787,0.303709,20.7936,1019.78,0.234544,0,0
462,115.25,51.7949,54.6602,155.412,98.2053,95.2798,0.006516635,0.283451,20.74,1018.83,0.274981,0,0
504,125.75,52.5238,58.9132,156.08,98.2028,96.3867,0.007071218,0.286095,20.7189,1017.82,0.169732,0,0
546,136.25,55.6494,59.3751,161.6875,98.2126,95.7155,0.007305503,0.317095,20.6923,1016.68,0.23417,0,0
588,146.75,56.8732,60.9442,162.41,98.1951,95.0535,0.006979506,0.318163,20.6747,1015.61,0.295657,0,0
630,157.25,56.3261,60.5021,164.966,98.1645,95.8287,0.007019145,0.289033,20.6733,1014.69,0.218973,0,0
672,167.75,54.7424,61.4709,170.325,98.0862,95.5147,0.006786154,0.259209,20.686,1013.84,0.241562,0,0
714,178.25,53.9538,60.6125,160.827,98.05,94.8708,0.006269021,0.236554,20.7066,1013.11,0.299699,0,0
756,188.75,53.5705,59.568,164.278,97.9929,96.0886,0.00559421,0.222465,20.7267,1012.37,0.178434,0,0
798,199.25,53.202,59.2314,165.833,97.9766,94.789,0.005998863,0.216457,20.7426,1011.67,0.300734,0,0
840,209.75,54.569,57.1332,165.254,97.9729,96.0395,0.005106667,0.217668,20.7504,1010.92,0.181226,0,0
882,220.25,53.293,58.3928,164.481,97.979,95.646,0.005536873,0.215468,20.755,1010.23,0.219125,0,0
924,230.75,54.1497,56.6879,162.123,97.9766,95.5438,0.005092956,0.213202,20.7596,1009.54,0.228622,0,0
966,241.25,54.3001,56.5996,158.525,97.9758,96.2799,0.004939633,0.212858,20.7607,1008.84,0.158762,0,0
1008,251.75,53.5068,57.5965,162.212,97.9493,96.7261,0.004999128,0.211685,20.7621,1008.1,0.114259,0,0
1050,262.25,53.9825,57.4159,167.075,97.9374,95.7628,0.005628711,0.213898,20.7612,1007.39,0.20417,0,0
1092,272.75,54.2883,57.806,164.581,97.9366,94.784,0.0054151,0.213077,20.7616,1006.68,0.297504,0,0
1134,283.25,53.5089,57.8382,159.682,97.9325,94.9844,0.005454479,0.212614,20.7648,1005.96,0.277923,0,0
1176,293.75,54.4328,57.1576,164.764,97.9195,95.9218,0.005817343,0.215298,20.765,1005.18,0.187416,0,0
1218,304.25,53.9077,58.8789,164.448,97.9016,95.2489,0.006083297,0.219981,20.7611,1004.42,0.249766,0,0
1260,314.75,53.7504,58.7029,166.721,97.8779,95.1616,0.005990183,0.220372,20.7564,1003.7,0.255902,0,0
1302,325.25,53.7162,58.4609,167.127,97.8584,95.4302,0.006451519,0.213461,20.7572,1003,0.228461,0,0
1344,335.75,54.0721,57.6011,165.534,97.8616,95.9609,0.006715757,0.206459,20.7602,1002.34,0.178336,0,0
1386,346.25,54.0583,56.4542,160.548,97.8641,95.5247,0.00662951,0.197667,20.7665,1001.74,0.21999,0,0
1428,356.75,53.6723,56.5611,167.761,97.8706,95.6569,0.006423002,0.189609,20.7722,1001.14,0.208018,0,0
1470,367.25,53.9944,55.3943,164.915,97.8706,94.7013,0.006381921,0.183773,20.7808,1000.59,0.299308,0,0
1512,377.75,52.7082,55.3624,174.695,97.8612,95.2203,0.005908622,0.18016,20.7888,1000.03,0.24875,0,0
1554,388.25,51.8102,55.6333,163.449,97.8808,96.0772,0.006549675,0.177128,20.7942,999.544,0.169101,0,0
1596,398.75,51.5918,54.9053,171.963,97.9081,94.9749,0.006360992,0.175432,20.7988,999.003,0.276566,0,0
1638,409.25,52.2583,54.4585,170.045,97.937,95.0808,0.006603787,0.176426,20.8005,998.503,0.269124,0,0
1680,419.75,51.2458,54.7271,166.468,97.9986,96.5834,0.005695738,0.178156,20.7996,997.962,0.132259,0,0
1722,430.25,52.8477,53.702,165.966,98.063,96.4126,0.005559735,0.18027,20.7995,997.462,0.154333,0,0
1764,440.75,52.7551,53.9477,166.073,98.1242,95.8396,0.006049475,0.183452,20.7994,996.921,0.214199,0,0
1806,451.25,52.7652,53.7459,165.355,98.2685,96.2658,0.005259278,0.186932,20.7974,996.421,0.187215,0,0
1848,461.75,51.8402,55.6272,163.979,98.6093,96.0136,0.00487516,0.194807,20.7954,995.81,0.242547,0,0
1890,472.25,54.0834,55.3961,170.324,98.9815,96.3817,0.005103381,0.20372,20.7906,995.24,0.242013,0,0
1932,482.75,52.5656,56.9318,169.956,99.2293,96.7443,0.004581135,0.21224,20.7813,994.619,0.230609,0,0
1974,493.25,54.994,56.5635,163.153,99.224,96.1531,0.004705112,0.223377,20.7742,993.919,0.285855,0,0
2016,503.75,55.3107,56.9907,162.343,99.0675,97.6772,0.004766667,0.238671,20.765,993.138,0.128511,0,0
2058,514.25,55.0777,60.078,160.588,98.9228,96.403,0.004686269,0.25556,20.7486,992.307,0.234603,0,0
2100,524.75,57.1666,60.9005,159.031,99.5371,96.2022,0.005525433,0.275345,20.7328,991.416,0.309861,0,0
2142,535.25,57.1013,62.7872,159.393,99.7903,97.41,0.005562766,0.292296,20.7138,990.405,0.219514,0,0
2184,545.75,59.3616,63.3146,155.737,99.2689,95.5688,0.005842148,0.3101587,20.6942,989.384,0.34539,0,0
2226,556.25,60.11,65.098,160.505,99.5163,95.7492,0.006042611,0.324212,20.6789,988.323,0.35088,0,0
2268,566.75,61.6402,65.7535,152.757,99.8987,96.0586,0.005980984,0.341175,20.6595,987.192,0.356414,0,0
2310,577.25,62.5341,67.7509,161.004,99.617,95.3598,0.006516581,0.355677,20.6403,985.961,0.39713,0,0
2352,587.75,64.556,68.585,161.662,98.6032,95.6697,0.007353124,0.369329,20.6222,984.78,0.274615,0,0
2394,598.25,64.0096,70.24,160.408,97.9272,93.3586,0.00743873,0.382191,20.6065,983.539,0.434413,0,0
2436,608.75,66.3339,70.587,152.065,98.4405,94.4133,0.007514771,0.394137,20.5902,982.298,0.379804,0,0
2478,619.25,66.5596,72.0232,159.031,99.2473,94.072,0.008139965,0.401966,20.5756,981.037,0.486942,0,0
2520,629.75,67.2064,72.1998,157.675,99.0691,93.8616,0.007893284,0.399132,20.5662,979.796,0.490964,0,0
2562,640.25,66.522,72.9904,154.671,99.6007,95.5688,0.008069727,0.3862997,20.5635,978.674,0.375735,0,0
2604,650.75,66.9914,73.3156,153.762,99.2318,94.5323,0.006988193,0.374846,20.5684,977.604,0.441141,0,0
2646,661.25,66.9001,71.0536,157.19,99.8274,95.3457,0.00719215,0.354822,20.5805,976.603,0.417655,0,0
2688,671.75,65.8553,70.956,164.793,99.3973,96.9011,0.006650708,0.33633,20.5915,975.682,0.231265,0,0
2730,682.25,64.2939,70.7348,160.869,98.0712,94.9976,0.006520137,0.317731,20.6105,974.861,0.289522,0,0
2772,692.75,64.0577,69.6002,155.398,98.3406,97.0415,0.005466095,0.300234,20.6273,974.09,0.120921,0,0
2814,703.25,63.6555,68.5203,158.441,99.2469,98.6927,0.005619494,0.279967,20.6478,973.42,0.050911,0,0
2856,713.75,63.7987,65.8259,161.762,98.9403,97.1973,0.004864727,0.259708,20.6679,972.789,0.161607,0,0
2898,724.25,62.5984,64.8614,163.119,99.7422,99.7228,0.00515153,0.240328,20.6885,972.279,0.001764452,0,0
2940,734.75,60.5514,63.5026,166.285,99.2367,98.8145,0.005301847,0.220997,20.7087,971.788,0.03876498,0,0
2982,745.25,59.3678,62.1804,165.418,99.8453,98.2647,0.006170028,0.203057,20.731,971.378,0.145095,0,0
3024,755.75,58.1268,61.2576,167.988,99.5571,99.2189,0.006464913,0.191491,20.7496,971.037,0.0309399,0,0
3066,766.25,58.1669,58.6743,169.912,98.5449,97.8076,0.007395659,0.181633,20.766,970.687,0.0682847,0,0
3108,776.75,55.8107,59.008,161.997,97.9505,97.6394,0.008006413,0.168825,20.7805,970.417,0.0289196,0,0
3150,787.25,54.7561,57.4339,164.218,98.2705,97.6553,0.009302272,0.1585,20.795,970.157,0.05709691,0,0
3192,797.75,53.5516,56.2564,165.561,98.913,99.5165,0.0103626,0.148982,20.8063,969.936,-0.0553118,0,0
3234,808.25,53.9734,54.7938,171.468,99.2738,99.5833,0.0120877,0.140954,20.8173,969.756,-0.0283083,0,0
3276,818.75,52.1032,54.5368,170.017,99.1237,98.8481,0.0126494,0.133938,20.8281,969.576,0.0253187,0,0
3318,829.25,52.3654,52.0507,165.699,98.8359,98.7563,0.0137729,0.128399,20.8377,969.446,0.007326522,0,0
3360,839.75,51.6043,51.3979,170.191,99.37,98.5073,0.014677,0.128996,20.8427,969.316,0.0792793,0,0
3402,850.25,51.4849,51.078,172.613,99.7197,98.5905,0.0152235,0.128337,20.8452,969.166,0.103557,0,0
3444,860.75,49.6375,51.4652,169.865,99.4099,99.3102,0.0155646,0.1299458,20.8458,969.036,0.009123121,0,0
3486,871.25,50.8881,50.0088,170.389,99.2795,98.7336,0.0164166,0.126226,20.847,968.935,0.0501306,0,0
3528,881.75,49.1975,50.8557,171.107,99.5983,98.6668,0.01691829,0.119474,20.8492,968.805,0.0854342,0,0
3570,892.25,49.9958,49.5551,174.254,99.8192,99.4011,0.0170816,0.120618,20.8536,968.705,0.0381659,0,0
3612,902.75,49.9638,49.2831,165.944,99.8865,98.4914,0.0176595,0.119986,20.8562,968.575,0.127887,0,0
3654,913.25,49.5626,49.2607,170.161,99.7813,99.2516,0.01837942,0.122447,20.8543,968.475,0.048397,0,0
3696,923.75,48.8595,48.7644,168.711,99.5481,98.9235,0.0197999,0.122221,20.8541,968.375,0.0572283,0,0
3738,934.25,46.0589,48.1452,172.685,99.2359,98.267,0.0150962,0.112301,20.8566,968.015,0.0892131,0,0
3780,944.75,45.8055,46.2644,170.954,98.9179,98.0675,0.0101865,0.0994617,20.8689,0,0.0785078,0,0
3822,955.25,45.9265,44.9522,172.173,98.5881,98.0666,0.004008207,0.0803968,20.8817,0,0.0482256,0,0
3864,965.75,45.5256,44.2992,169.671,98.3602,98.1329,0.002166245,0.0729095,20.9003,-0.0300278,0.0210352,0,0
3906,976.25,44.1989,44.6493,170.759,98.2036,97.7008,0.002643415,0.0712668,20.9096,-0.0200185,0.0466793,0,0
3948,986.75,42.6799,44.1173,171.816,98.4364,98.0307,0.00282165,0.0709835,20.9157,-0.0200185,0.0375571,0,0
3990,997.25,42.4813,44.2557,168.94,98.3512,97.7212,0.002631376,0.0719051,20.9179,-0.0100093,0.0584303,0,0
4032,1007.75,43.3454,43.0266,174.936,98.2591,97.3709,0.002999447,0.0724177,20.9194,-0.0100093,0.0825646,0,0
4074,1018.25,42.0406,43.3148,171.517,98.1959,97.2455,0.002411736,0.0728735,20.9177,0,0.0884338,0,0
4116,1028.75,42.0777,43.5022,171.056,98.127,97.8853,0.003087515,0.0733988,20.9166,-0.0100093,0.0224279,0,0
4158,1039.25,42.0347,42.9522,170.504,98.0663,97.5113,,,,0,0.0516019,0,0
4176,1043.75,43.4207,42.4413,172.854,98.0463,97.0015,,,,0.0100093,0.097414,0,0