File: 01_Data/Plywood/Cone/Plywood_Cone_HF35Scalar_190308_R1.csv
LABORATORY,FSRI
TEST IDENT,BC03-1
OPERATOR,Dow
MATERIAL,plywood from boot camp fuels
ORIENTATION,Horizontal
HEAT FLUX,35
SURF AREA,0.01
C FACTOR,0.0385201
SPEC HOLDER DIFF,386.42
SPECIMEN MASS,66.78
SCAN TIME,0.25
O2 DELAY TIME,11
CO DELAY TIME,11
CO2 DELAY TIME,8
FLOW FACTOR,1
SCAN COUNT,3851
TIME TO IGN,68.75
END OF TEST SCAN,3371
END OF TEST TIME,842.75
TEST STATUS,1