File: 01_Data/Plywood/Cone/Plywood_HRRPUA_35.csv
Time after Ignition,Plywood_R1,Plywood_R2,Plywood_R3,Mean,Std. Dev.
0.0,5.0,2.1,3.5,3.6,1.5
2.75,4.8,2.1,3.5,3.5,1.3
5.5,4.8,2.8,3.4,3.7,1.0
8.25,5.8,3.8,3.3,4.3,1.3
11.0,9.9,7.3,6.0,7.7,2.0
13.75,17.7,14.0,12.9,14.9,2.5
16.5,30.0,26.0,24.5,26.8,2.8
19.25,43.5,38.6,36.6,39.6,3.6
22.0,54.0,52.8,49.1,52.0,2.6
24.75,67.1,61.6,60.1,62.9,3.7
27.5,76.5,71.4,71.6,73.2,2.9
30.25,86.0,78.7,81.3,82.0,3.7
33.0,94.4,86.8,86.7,89.3,4.4
35.75,104.9,89.7,93.3,95.9,8.0
38.5,109.3,91.3,98.0,99.6,9.1
41.25,112.4,94.5,100.3,102.4,9.1
44.0,115.6,97.1,103.3,105.4,9.4
46.75,116.3,99.8,103.5,106.5,8.7
49.5,118.3,104.4,105.3,109.3,7.7
52.25,116.7,105.7,109.8,110.7,5.5
55.0,115.3,108.0,112.1,111.8,3.6
57.75,115.0,116.4,112.8,114.7,1.8
60.5,112.7,113.7,114.4,113.6,0.8
63.25,112.4,117.8,116.8,115.7,2.9
66.0,109.9,120.2,116.5,115.5,5.3
68.75,110.2,122.6,116.8,116.6,6.2
71.5,105.9,122.0,114.1,114.0,8.1
74.25,101.8,120.8,110.6,111.1,9.5
77.0,100.7,122.3,110.1,111.0,10.8
79.75,98.2,118.8,109.1,108.7,10.3
82.5,95.6,118.9,104.7,106.4,11.7
85.25,93.5,116.1,102.6,104.1,11.4
88.0,89.5,113.2,98.0,100.2,12.0
90.75,88.3,111.2,94.2,97.9,11.9
93.5,87.5,109.6,91.8,96.3,11.7
96.25,84.7,107.7,89.9,94.1,12.1
99.0,82.1,103.6,86.2,90.6,11.4
101.75,80.4,101.0,82.7,88.0,11.3
104.5,78.2,99.1,81.0,86.1,11.4
107.25,76.1,96.8,77.2,83.4,11.6
110.0,75.8,94.5,74.9,81.7,11.0
112.75,74.4,92.1,71.9,79.5,11.0
115.5,73.3,89.6,70.7,77.8,10.2
118.25,71.3,89.0,68.6,76.3,11.1
121.0,70.4,87.7,66.4,74.9,11.3
123.75,68.8,84.3,63.9,72.4,10.6
126.5,66.8,85.2,62.5,71.5,12.1
129.25,66.6,84.2,62.5,71.1,11.5
132.0,65.7,83.6,62.2,70.5,11.5
134.75,66.2,82.2,59.6,69.4,11.6
137.5,65.2,83.3,58.4,69.0,12.9
140.25,64.7,81.5,57.0,67.7,12.5
143.0,63.1,80.5,56.9,66.8,12.2
145.75,62.8,81.5,55.0,66.5,13.6
148.5,62.0,79.4,53.6,65.0,13.1
151.25,62.1,79.5,52.9,64.8,13.5
154.0,60.6,80.0,52.3,64.3,14.2
156.75,60.4,78.3,51.7,63.5,13.6
159.5,60.0,77.9,51.4,63.1,13.5
162.25,60.2,79.9,51.1,63.7,14.7
165.0,58.8,79.2,50.2,62.8,14.9
167.75,59.0,78.1,49.0,62.0,14.8
170.5,58.8,77.8,49.4,62.0,14.4
173.25,58.1,77.6,50.9,62.2,13.8
176.0,58.9,77.4,49.5,61.9,14.2
178.75,58.3,78.2,50.1,62.2,14.5
181.5,57.6,77.3,50.1,61.7,14.1
184.25,58.5,78.1,49.8,62.2,14.5
187.0,59.1,78.5,49.6,62.4,14.7
189.75,60.3,77.0,49.8,62.4,13.7
192.5,60.7,78.2,49.4,62.8,14.6
195.25,60.5,77.5,49.6,62.5,14.0
198.0,61.1,77.7,49.9,62.9,14.0
200.75,61.7,75.3,49.9,62.3,12.7
203.5,62.6,77.1,49.7,63.2,13.7
206.25,62.9,76.8,50.1,63.3,13.4
209.0,62.4,75.9,49.7,62.7,13.1
211.75,61.4,75.9,49.7,62.3,13.1
214.5,61.9,76.4,49.9,62.8,13.3
217.25,62.7,76.9,49.7,63.1,13.6
220.0,62.5,76.6,50.9,63.3,12.8
222.75,62.5,77.0,50.5,63.3,13.2
225.5,62.3,77.4,51.7,63.8,12.9
228.25,61.8,79.8,50.8,64.1,14.6
231.0,62.5,80.9,51.5,65.0,14.9
233.75,63.1,81.0,52.3,65.5,14.5
236.5,63.3,79.8,52.6,65.3,13.7
239.25,63.8,80.9,53.1,65.9,14.0
242.0,63.6,81.4,52.3,65.8,14.6
244.75,64.5,79.4,51.7,65.2,13.8
247.5,63.4,81.0,52.0,65.4,14.6
250.25,64.1,79.0,52.1,65.1,13.5
253.0,65.2,79.6,51.9,65.6,13.8
255.75,63.4,79.1,52.3,65.0,13.5
258.5,63.7,78.8,54.4,65.6,12.3
261.25,62.6,77.7,52.1,64.1,12.9
264.0,62.9,77.1,52.5,64.2,12.3
266.75,63.5,76.0,51.8,63.8,12.1
269.5,64.0,75.8,51.9,63.9,11.9
272.25,64.1,75.6,51.7,63.8,12.0
275.0,65.2,76.1,52.1,64.5,12.0
277.75,65.0,72.4,52.1,63.2,10.3
280.5,64.9,73.6,53.0,63.9,10.4
283.25,66.3,71.7,52.4,63.4,10.0
286.0,66.4,69.3,52.3,62.7,9.1
288.75,65.8,68.6,53.0,62.5,8.3
291.5,65.8,67.7,53.5,62.3,7.7
294.25,66.2,66.1,53.8,62.1,7.1
297.0,66.7,64.9,54.7,62.1,6.4
299.75,66.2,64.6,55.2,62.0,5.9
302.5,66.6,64.6,54.6,62.0,6.5
305.25,68.0,63.3,55.6,62.3,6.3
308.0,68.5,62.6,55.7,62.3,6.4
310.75,69.9,62.2,57.0,63.1,6.5
313.5,70.6,60.9,57.1,62.9,7.0
316.25,69.9,60.8,58.2,63.0,6.2
319.0,71.1,60.0,58.4,63.1,6.9
321.75,70.0,60.7,58.4,63.1,6.1
324.5,71.5,60.1,58.7,63.5,7.0
327.25,71.4,60.1,58.4,63.3,7.1
330.0,71.7,59.5,59.8,63.7,6.9
332.75,72.4,60.3,59.5,64.1,7.2
335.5,71.5,59.5,58.9,63.3,7.1
338.25,72.6,60.4,60.1,64.4,7.1
341.0,72.3,60.5,59.8,64.2,7.0
343.75,72.2,60.4,61.2,64.6,6.6
346.5,72.8,60.5,60.7,64.6,7.0
349.25,72.2,60.6,61.6,64.8,6.4
352.0,73.8,60.1,62.4,65.4,7.3
354.75,74.7,59.7,62.4,65.6,8.0
357.5,73.9,59.5,64.5,66.0,7.3
360.25,74.5,59.2,63.7,65.8,7.8
363.0,74.0,60.8,65.5,66.8,6.7
365.75,75.2,60.9,67.5,67.8,7.2
368.5,76.0,60.1,66.3,67.5,8.0
371.25,76.8,60.7,66.8,68.1,8.1
374.0,76.2,61.5,67.7,68.4,7.4
376.75,78.4,60.4,67.5,68.7,9.1
379.5,78.7,61.2,68.8,69.6,8.8
382.25,79.3,61.9,70.1,70.4,8.7
385.0,79.0,62.5,72.4,71.3,8.3
387.75,78.4,62.8,72.0,71.1,7.8
390.5,78.8,63.7,73.2,71.9,7.6
393.25,79.9,65.1,75.3,73.5,7.6
396.0,79.2,65.7,75.2,73.4,7.0
398.75,80.9,67.3,76.3,74.8,6.9
401.5,79.2,67.2,78.1,74.8,6.6
404.25,80.7,69.4,78.8,76.3,6.0
407.0,82.1,70.1,79.2,77.2,6.2
409.75,82.5,71.1,79.8,77.8,5.9
412.5,82.5,71.6,81.6,78.6,6.1
415.25,83.2,73.1,83.4,79.9,5.9
418.0,83.9,73.1,85.6,80.9,6.8
420.75,83.9,75.7,86.2,81.9,5.5
423.5,83.4,76.5,88.4,82.8,6.0
426.25,85.0,77.5,90.0,84.2,6.3
429.0,85.3,77.9,92.5,85.2,7.3
431.75,86.5,81.8,94.9,87.7,6.6
434.5,87.0,83.2,97.6,89.3,7.4
437.25,88.8,85.5,97.4,90.6,6.1
440.0,91.1,87.5,97.0,91.9,4.8
442.75,90.4,88.1,97.8,92.1,5.0
445.5,91.8,92.8,98.8,94.5,3.8
448.25,92.8,94.3,100.2,95.7,3.9
451.0,93.6,97.2,100.6,97.1,3.5
453.75,94.6,97.6,100.8,97.7,3.1
456.5,96.2,100.6,103.7,100.2,3.8
459.25,98.2,102.1,103.3,101.2,2.7
462.0,97.3,106.5,103.3,102.4,4.7
464.75,100.1,106.3,105.9,104.1,3.5
467.5,101.3,112.2,106.7,106.7,5.5
470.25,102.4,113.2,105.6,107.1,5.6
473.0,103.0,115.2,103.9,107.4,6.8
475.75,102.9,113.4,106.1,107.5,5.4
478.5,103.8,117.5,108.1,109.8,7.0
481.25,106.8,118.8,109.6,111.8,6.3
484.0,106.3,121.8,109.1,112.4,8.3
486.75,110.0,122.5,112.4,114.9,6.6
489.5,109.0,128.0,112.7,116.6,10.1
492.25,113.8,130.6,115.7,120.0,9.2
495.0,112.3,132.8,116.3,120.5,10.8
497.75,114.9,133.6,116.5,121.7,10.4
500.5,116.2,135.2,118.8,123.4,10.3
503.25,118.0,138.7,119.9,125.5,11.4
506.0,120.6,141.0,119.6,127.1,12.0
508.75,119.5,142.8,125.7,129.3,12.1
511.5,120.3,143.6,125.0,129.6,12.3
514.25,122.1,146.9,125.0,131.3,13.5
517.0,125.9,146.1,126.9,133.0,11.4
519.75,127.8,148.6,128.5,135.0,11.8
522.5,128.7,152.7,129.2,136.9,13.7
525.25,130.4,152.7,132.4,138.5,12.3
528.0,131.8,155.1,133.6,140.2,13.0
530.75,133.4,157.9,135.8,142.4,13.6
533.5,133.8,158.6,137.3,143.2,13.4
536.25,135.2,159.5,140.8,145.2,12.7
539.0,137.6,163.1,141.8,147.5,13.6
541.75,137.9,160.5,144.0,147.5,11.7
544.5,138.4,165.2,143.2,148.9,14.3
547.25,140.9,166.7,144.1,150.6,14.1
550.0,141.6,166.7,147.8,152.0,13.1
552.75,146.9,168.2,146.9,154.0,12.3
555.5,143.4,165.7,151.8,153.6,11.2
558.25,148.4,164.0,150.3,154.2,8.5
561.0,150.4,169.4,149.7,156.5,11.2
563.75,150.7,168.1,151.8,156.9,9.7
566.5,151.1,167.1,150.4,156.2,9.5
569.25,154.2,167.3,154.0,158.5,7.6
572.0,151.5,163.9,151.1,155.5,7.3
574.75,154.2,165.0,153.7,157.7,6.3
577.5,157.9,163.7,150.4,157.3,6.7
580.25,159.6,164.0,153.7,159.1,5.2
583.0,157.4,164.8,154.3,158.8,5.4
585.75,154.8,160.6,153.0,156.1,4.0
588.5,158.1,157.6,153.9,156.5,2.3
591.25,158.0,156.4,152.7,155.7,2.7
594.0,157.1,154.3,153.6,155.0,1.8
596.75,156.7,150.8,150.5,152.6,3.5
599.5,154.0,150.7,151.1,151.9,1.8
602.25,157.7,148.6,150.4,152.2,4.8
605.0,154.5,145.7,149.2,149.8,4.4
607.75,152.7,143.2,150.4,148.8,4.9
610.5,155.9,140.8,152.1,149.6,7.8
613.25,152.9,139.7,151.3,148.0,7.2
616.0,148.9,137.5,150.8,145.7,7.2
618.75,148.4,134.2,145.8,142.8,7.6
621.5,148.3,131.4,148.4,142.7,9.8
624.25,144.9,130.8,147.9,141.2,9.1
627.0,144.4,127.8,142.9,138.4,9.2
629.75,143.2,124.5,140.6,136.1,10.1
632.5,140.3,122.6,139.4,134.1,10.0
635.25,139.2,118.3,137.3,131.6,11.6
638.0,138.2,118.8,137.3,131.5,11.0
640.75,137.0,116.2,130.7,128.0,10.7
643.5,136.1,112.6,130.9,126.5,12.3
646.25,129.0,110.0,125.0,121.3,10.0
649.0,128.6,107.5,123.1,119.8,10.9
651.75,123.2,105.7,120.0,116.3,9.3
654.5,119.4,103.1,119.0,113.8,9.3
657.25,117.4,100.8,114.8,111.0,8.9
660.0,113.2,97.6,113.8,108.2,9.2
662.75,112.4,95.6,112.1,106.7,9.6
665.5,105.4,92.5,107.9,101.9,8.3
668.25,102.9,90.0,104.8,99.2,8.0
671.0,99.7,86.8,106.8,97.8,10.2
673.75,98.7,85.3,102.1,95.4,8.9
676.5,95.6,84.4,100.6,93.5,8.3
679.25,93.7,81.6,100.1,91.8,9.4
682.0,91.4,78.1,96.9,88.8,9.7
684.75,88.7,77.4,96.0,87.4,9.3
687.5,86.3,74.4,93.7,84.8,9.8
690.25,84.4,72.6,90.1,82.4,8.9
693.0,83.0,72.0,89.2,81.4,8.7
695.75,81.7,70.0,87.3,79.7,8.8
698.5,78.8,68.0,84.8,77.2,8.5
701.25,76.3,65.6,84.5,75.5,9.5
704.0,75.7,62.7,81.7,73.4,9.8
706.75,72.4,61.5,81.1,71.6,9.8
709.5,71.7,61.3,80.8,71.2,9.8
712.25,68.7,60.2,78.3,69.1,9.0
715.0,67.4,58.3,76.3,67.3,9.0
717.75,65.1,56.3,76.7,66.0,10.2
720.5,62.9,54.2,73.9,63.7,9.9
723.25,60.8,54.3,72.0,62.3,9.0
726.0,60.1,52.1,71.9,61.4,9.9
728.75,58.0,50.5,70.6,59.7,10.2
731.5,56.1,49.4,70.9,58.8,11.0
734.25,55.9,47.9,68.4,57.4,10.3
737.0,55.1,46.5,67.7,56.4,10.6
739.75,53.2,46.2,65.4,54.9,9.7
742.5,51.2,44.2,64.3,53.3,10.2
745.25,51.3,43.0,63.3,52.5,10.2
748.0,49.3,41.3,61.7,50.8,10.3
750.75,47.4,40.1,59.9,49.1,10.0
753.5,45.4,39.5,59.3,48.0,10.2
756.25,43.7,39.3,59.0,47.4,10.3
759.0,43.0,38.5,57.4,46.3,9.9
761.75,41.1,38.5,56.7,45.4,9.8
764.5,40.5,37.6,55.2,44.4,9.4
767.25,39.2,37.7,54.4,43.8,9.2
770.0,37.9,37.9,52.7,42.8,8.5
772.75,37.6,37.5,51.8,42.3,8.2
774.0,37.9,36.9,51.8,42.2,8.3