File: 01_Data/Plywood/Cone/Plywood_Cone_HF35Scalar_190308_R2.csv
LABORATORY,FSRI
TEST IDENT,BC03-2
OPERATOR,Dow
MATERIAL,plywood from boot camp fuels
ORIENTATION,Horizontal
HEAT FLUX,35
SURF AREA,0.01
C FACTOR,0.0385201
SPEC HOLDER DIFF,386.53
SPECIMEN MASS,69.11
SCAN TIME,0.25
O2 DELAY TIME,11
CO DELAY TIME,11
CO2 DELAY TIME,8
FLOW FACTOR,1
SCAN COUNT,4176
TIME TO IGN,80
END OF TEST SCAN,3696
END OF TEST TIME,924
TEST STATUS,1