File: 01_Data/Plywood/MCC/Plywood_MCC_30K_min_211006_R1.txt
Sample ID:	C:\MCC\MCC Cal\Test\Ext_Plywood_MCC_30K_min_211006_R1.txt
Sample Weight (mg):	4.75
Heating Rate (C/s):	0.5
Combustor Temp (C):	900
N2 Flow Rate (cc/min):	80
O2 Flow Rate (cc/min):	20
Calibration File:	C:\MCC\MCC Cal\Coeff1 JN10440_30_210304.txt.txt
T Correction Coefficients:	0	1.024463	0
Time Shift (s):	14
*
Time (s)	Temperature (C)	N2 flow rate (cc/min)	O2 flow rate (cc/min)	Flow Rate (cc/min)	Oxygen (%)	HRR (W/g)	Heating rate (C/s)
0.000	110.050	79.998	19.996	100.698	20.125	-0.091	-0.020
8.000	110.020	79.998	19.995	100.698	20.125	-0.057	-0.036
16.000	109.987	79.999	19.995	100.724	20.118	0.345	-0.006
24.000	110.052	79.997	19.994	100.800	20.104	1.329	0.013
32.000	110.600	79.998	19.996	100.898	20.091	2.146	0.119
39.999	111.691	79.999	19.995	100.910	20.081	2.853	0.177
47.999	113.268	80.000	19.995	100.922	20.075	3.226	0.216
55.999	115.211	79.999	19.995	100.943	20.071	3.516	0.254
63.999	117.652	80.001	19.996	100.950	20.073	3.349	0.349
71.999	120.345	80.000	19.995	100.941	20.073	3.338	0.356
79.999	123.362	79.998	19.996	100.957	20.070	3.558	0.380
87.999	126.676	79.997	19.996	100.952	20.066	3.845	0.426
95.999	130.064	79.998	19.995	100.967	20.067	3.779	0.420
104.000	133.682	79.999	19.994	100.959	20.068	3.703	0.490
111.999	137.434	79.997	19.995	100.964	20.066	3.810	0.489
120.000	141.345	79.999	19.996	100.951	20.065	3.908	0.504
128.000	145.312	80.001	19.995	100.944	20.070	3.573	0.500
136.000	149.308	79.999	19.996	100.934	20.062	4.062	0.518
144.000	153.335	79.999	19.996	100.932	20.062	4.107	0.485
152.000	157.404	80.000	19.996	100.932	20.067	3.727	0.522
160.000	161.437	79.996	19.996	100.934	20.065	3.913	0.498
168.000	165.531	79.997	19.996	100.913	20.059	4.272	0.512
176.000	169.623	79.998	19.997	100.894	20.056	4.480	0.534
184.000	173.577	79.999	19.998	100.895	20.057	4.442	0.496
192.000	177.529	79.998	19.995	100.893	20.050	4.861	0.516
200.000	181.515	79.998	19.995	100.893	20.047	5.047	0.480
208.000	185.528	80.000	19.994	100.894	20.046	5.142	0.520
216.000	189.395	79.998	19.995	100.896	20.042	5.439	0.505
224.000	193.314	79.999	19.995	100.887	20.033	6.014	0.451
232.000	197.244	80.001	19.995	100.889	20.030	6.195	0.468
240.000	201.192	79.999	19.996	100.883	20.024	6.589	0.490
248.000	205.145	79.998	19.996	100.889	20.021	6.773	0.519
256.000	209.051	79.998	19.997	100.890	20.018	6.977	0.457
264.000	213.008	79.999	19.997	100.886	20.008	7.670	0.471
272.000	216.944	79.998	19.997	100.896	20.005	7.887	0.504
280.000	220.855	80.000	19.996	100.878	20.000	8.216	0.458
288.000	224.869	80.000	19.995	100.894	19.999	8.286	0.478
296.000	228.775	79.998	19.996	100.896	19.999	8.291	0.496
304.000	232.805	80.000	19.996	100.892	19.996	8.475	0.501
312.000	236.771	80.000	19.995	100.885	19.991	8.762	0.498
320.000	240.716	79.998	19.995	100.890	19.989	8.900	0.474
328.000	244.722	79.996	19.995	100.892	19.983	9.345	0.500
336.000	248.676	79.998	19.997	100.897	19.973	9.988	0.493
344.000	252.766	79.998	19.996	100.897	19.960	10.856	0.483
352.000	256.757	79.998	19.997	100.899	19.943	11.949	0.504
360.000	260.688	79.998	19.997	100.912	19.927	13.062	0.507
368.000	264.622	79.999	19.997	100.920	19.909	14.238	0.494
376.000	268.587	80.000	19.996	100.933	19.881	16.086	0.487
384.000	272.640	80.000	19.997	100.933	19.856	17.755	0.480
392.000	276.572	80.001	19.996	100.948	19.832	19.361	0.491
400.000	280.500	79.999	19.994	100.959	19.795	21.775	0.491
408.000	284.502	79.998	19.996	100.979	19.758	24.250	0.524
416.000	288.476	79.998	19.995	100.979	19.719	26.866	0.497
424.000	292.520	79.998	19.997	101.000	19.681	29.384	0.513
432.000	296.542	79.996	19.996	101.012	19.643	31.879	0.489
440.000	300.525	79.998	19.997	101.029	19.601	34.711	0.464
448.000	304.349	79.998	19.996	101.040	19.555	37.742	0.538
456.000	308.538	79.999	19.997	101.049	19.515	40.415	0.417
464.000	312.650	80.000	19.996	101.069	19.465	43.708	0.545
472.000	316.671	80.001	19.995	101.083	19.420	46.748	0.494
480.000	320.689	79.999	19.995	101.092	19.373	49.846	0.508
488.000	324.739	79.999	19.997	101.102	19.335	52.335	0.517
496.000	328.757	80.000	19.997	101.097	19.304	54.409	0.510
504.000	332.850	79.999	19.995	101.095	19.279	56.117	0.526
512.000	336.920	79.997	19.997	101.094	19.260	57.333	0.486
520.000	340.939	79.998	19.997	101.084	19.258	57.487	0.521
528.000	344.910	79.999	19.996	101.064	19.273	56.452	0.514
536.000	348.890	79.998	19.996	101.041	19.312	53.852	0.502
544.000	352.937	79.997	19.997	101.005	19.366	50.234	0.532
552.000	357.017	80.001	19.995	100.975	19.443	45.134	0.523
560.000	361.060	80.000	19.996	100.931	19.529	39.381	0.519
568.000	365.084	80.000	19.995	100.899	19.629	32.759	0.517
576.000	369.150	79.999	19.995	100.876	19.719	26.777	0.527
584.000	373.265	79.998	19.995	100.850	19.794	21.822	0.510
592.000	377.350	79.997	19.994	100.837	19.856	17.703	0.509
600.000	381.434	79.997	19.994	100.822	19.904	14.547	0.536
608.000	385.469	79.998	19.996	100.825	19.937	12.375	0.516
616.000	389.507	79.998	19.994	100.821	19.953	11.321	0.492
624.000	393.567	80.000	19.996	100.816	19.966	10.437	0.492
632.000	397.637	80.000	19.997	100.817	19.972	10.056	0.462
640.000	401.682	79.999	19.996	100.813	19.978	9.652	0.503
648.000	405.687	80.000	19.996	100.816	19.980	9.535	0.491
656.000	409.713	79.998	19.997	100.815	19.982	9.387	0.492
664.000	413.669	80.000	19.996	100.814	19.989	8.940	0.487
672.000	417.662	79.998	19.996	100.816	19.996	8.434	0.511
680.000	421.743	79.997	19.995	100.819	20.010	7.535	0.487
688.000	425.816	79.999	19.996	100.809	20.010	7.504	0.529
696.000	429.932	79.999	19.997	100.814	20.018	7.010	0.526
704.000	434.033	79.999	19.995	100.798	20.025	6.520	0.539
712.000	438.018	80.001	19.995	100.803	20.027	6.383	0.471
720.000	442.077	79.999	19.998	100.808	20.028	6.318	0.491
728.000	446.135	79.997	19.996	100.793	20.035	5.873	0.527
736.000	450.101	80.000	19.996	100.797	20.039	5.622	0.489
744.000	454.191	80.000	19.995	100.795	20.044	5.300	0.515
752.000	458.298	80.000	19.997	100.802	20.042	5.392	0.540
760.000	462.362	79.998	19.997	100.785	20.043	5.353	0.523
768.000	466.433	80.000	19.995	100.780	20.043	5.373	0.486
776.000	470.550	80.001	19.996	100.783	20.042	5.419	0.548
784.000	474.672	80.000	19.997	100.789	20.057	4.415	0.499
792.000	478.766	80.002	19.997	100.796	20.058	4.334	0.503
800.000	482.924	80.001	19.997	100.789	20.056	4.468	0.505
808.000	487.058	79.999	19.999	100.795	20.064	3.953	0.518
816.000	491.143	79.998	19.998	100.798	20.065	3.886	0.502
824.000	495.341	79.997	19.997	100.798	20.072	3.423	0.518
832.000	499.538	79.996	19.997	100.783	20.069	3.609	0.530
840.000	503.619	79.997	19.996	100.777	20.070	3.556	0.509
848.000	507.625	80.000	19.996	100.790	20.074	3.314	0.498
856.000	511.693	79.998	19.995	100.782	20.069	3.651	0.495
864.000	515.771	80.001	19.998	100.807	20.072	3.439	0.502
872.000	519.853	80.000	19.997	100.782	20.073	3.363	0.488
880.000	523.902	80.019	20.004	100.795	20.069	3.648	0.512
888.000	527.973	80.019	20.002	100.806	20.075	3.209	0.505
896.000	532.043	79.998	19.998	100.780	20.073	3.380	0.511
904.000	536.096	80.004	19.999	100.786	20.077	3.071	0.523
912.000	540.176	79.998	20.001	100.782	20.076	3.137	0.526
920.000	544.223	79.998	19.998	100.779	20.077	3.114	0.492
928.000	548.335	79.997	19.997	100.782	20.079	2.985	0.518
936.000	552.449	80.001	19.996	100.780	20.079	2.940	0.514
944.000	556.584	79.999	19.996	100.774	20.077	3.076	0.490
952.000	560.696	79.999	19.995	100.775	20.080	2.883	0.487
960.000	564.794	80.001	19.996	100.776	20.082	2.759	0.478
968.000	568.967	79.999	19.995	100.775	20.077	3.069	0.514
976.000	573.084	79.998	19.997	100.778	20.080	2.883	0.534
984.000	577.202	79.999	19.996	100.773	20.082	2.767	0.510
992.000	581.317	79.996	19.996	100.778	20.083	2.663	0.511
1000.000	585.432	79.997	19.996	100.781	20.082	2.736	0.521
1008.000	589.530	79.999	19.997	100.776	20.080	2.870	0.523
1016.000	593.632	80.002	19.995	100.778	20.076	3.142	0.528
1024.000	597.733	79.998	19.996	100.777	20.078	3.021	0.515
1032.000	601.844	80.000	19.997	100.783	20.076	3.151	0.539
1039.999	605.867	80.000	19.995	100.774	20.079	2.971	0.496
1047.999	609.962	79.997	19.996	100.780	20.078	3.053	0.532
1055.999	614.107	79.997	19.994	100.772	20.072	3.400	0.575
1063.999	618.227	79.999	19.996	100.777	20.080	2.877	0.527
1071.999	622.335	79.999	19.996	100.767	20.074	3.283	0.532
1079.999	626.454	79.997	19.998	100.768	20.079	2.970	0.525
1087.999	630.531	79.999	19.996	100.774	20.073	3.323	0.516
1095.999	634.595	79.999	19.998	100.771	20.069	3.611	0.484
1104.001	638.669	79.998	19.996	100.776	20.066	3.816	0.508
1111.999	642.754	79.998	19.996	100.775	20.074	3.275	0.527
1119.999	646.772	80.000	19.994	100.780	20.075	3.217	0.509
1127.999	650.886	79.997	19.995	100.778	20.070	3.536	0.519
1135.999	654.940	80.000	19.994	100.773	20.069	3.643	0.522
1144.000	658.987	79.997	19.994	100.777	20.066	3.831	0.509
1151.999	663.104	79.998	19.996	100.775	20.061	4.147	0.534
1159.999	667.109	79.999	19.997	100.767	20.064	3.981	0.495
1168.000	671.213	79.998	19.997	100.776	20.064	3.949	0.498
1175.999	675.315	80.002	19.997	100.776	20.062	4.051	0.481
1183.999	679.475	79.998	19.998	100.777	20.061	4.138	0.542
1191.999	683.535	80.002	19.996	100.778	20.061	4.135	0.516
1199.999	687.558	79.999	19.995	100.772	20.065	3.886	0.489
1207.999	691.644	79.998	19.997	100.775	20.062	4.079	0.516
1216.000	695.720	79.998	19.997	100.773	20.069	3.646	0.542
1224.000	699.771	80.001	19.996	100.778	20.059	4.292	0.536
1231.999	703.795	79.998	19.996	100.779	20.055	4.568	0.514
1239.999	707.772	79.997	19.995	100.783	20.054	4.598	0.537
1247.999	711.858	79.997	19.995	100.780	20.057	4.408	0.528
1255.999	715.940	79.999	19.997	100.780	20.051	4.803	0.530
1263.999	719.990	79.998	19.997	100.777	20.056	4.458	0.521
1271.999	724.045	79.998	19.997	100.776	20.055	4.569	0.493
1279.999	728.136	80.001	19.997	100.772	20.054	4.618	0.505
1287.999	732.230	80.001	19.995	100.773	20.056	4.475	0.530
1296.000	736.267	79.999	19.995	100.777	20.052	4.716	0.515
1304.000	740.249	79.997	19.996	100.778	20.049	4.939	0.481
1310.499	743.476	79.999	19.995	100.790	20.053	4.695	0.502