File: 01_Data/Plywood/MCC/Plywood_MCC_30K_min_211006_R2.txt
Sample ID:	C:\MCC\MCC Cal\Test\Ext_Plywood_MCC_30K_min_211006_R2.txt
Sample Weight (mg):	4.55
Heating Rate (C/s):	0.5
Combustor Temp (C):	900
N2 Flow Rate (cc/min):	80
O2 Flow Rate (cc/min):	20
Calibration File:	C:\MCC\MCC Cal\Coeff1 JN10440_30_210304.txt.txt
T Correction Coefficients:	0	1.024463	0
Time Shift (s):	14
*
Time (s)	Temperature (C)	N2 flow rate (cc/min)	O2 flow rate (cc/min)	Flow Rate (cc/min)	Oxygen (%)	HRR (W/g)	Heating rate (C/s)
0.000	108.794	79.997	19.996	100.738	20.056	0.119	-0.030
8.000	108.754	79.997	19.995	100.746	20.051	0.450	-0.003
16.000	108.784	79.999	19.996	100.788	20.042	1.056	0.015
24.000	109.010	79.999	19.996	100.881	20.027	2.125	0.063
32.000	109.818	79.998	19.996	100.949	20.016	2.841	0.128
40.000	111.182	79.998	19.995	100.974	20.007	3.477	0.192
48.000	113.021	80.001	19.996	100.954	20.011	3.182	0.261
56.000	115.073	80.001	19.996	100.972	20.008	3.433	0.212
64.000	117.505	79.997	19.994	100.957	20.008	3.395	0.333
72.000	120.096	79.999	19.995	100.971	20.006	3.558	0.306
80.000	122.936	79.999	19.996	100.972	20.006	3.565	0.403
88.000	125.905	79.999	19.995	100.973	20.000	3.949	0.363
96.001	129.047	79.999	19.995	100.977	20.000	3.955	0.388
104.001	132.333	80.000	19.995	100.979	19.999	4.020	0.418
112.000	135.779	80.000	19.996	100.984	19.999	4.024	0.429
120.000	139.366	79.999	19.996	100.982	19.993	4.458	0.466
128.000	143.049	80.002	19.995	100.984	19.995	4.344	0.486
136.000	146.787	80.000	19.996	100.971	19.994	4.409	0.441
144.000	150.704	79.998	19.996	100.975	19.996	4.241	0.459
152.000	154.599	79.998	19.996	100.973	19.991	4.592	0.458
160.000	158.561	79.998	19.995	100.974	19.989	4.710	0.491
168.000	162.457	79.998	19.995	100.974	19.988	4.796	0.502
176.000	166.550	79.998	19.995	100.976	19.988	4.807	0.486
184.000	170.525	79.999	19.996	100.969	19.983	5.160	0.494
192.000	174.626	80.000	19.996	100.941	19.979	5.432	0.531
200.000	178.653	79.999	19.996	100.944	19.976	5.613	0.539
208.000	182.584	80.001	19.995	100.937	19.973	5.846	0.458
216.000	186.614	80.001	19.996	100.933	19.968	6.163	0.460
224.000	190.654	79.999	19.995	100.938	19.965	6.382	0.518
232.000	194.661	79.997	19.998	100.937	19.961	6.646	0.515
240.000	198.613	79.998	19.995	100.936	19.957	6.956	0.493
248.000	202.597	80.000	19.995	100.939	19.952	7.293	0.485
256.000	206.506	79.999	19.995	100.933	19.951	7.392	0.475
264.000	210.502	80.000	19.996	100.934	19.942	7.995	0.473
272.000	214.433	80.001	19.995	100.932	19.939	8.170	0.516
280.000	218.370	80.000	19.996	100.932	19.936	8.435	0.538
288.000	222.292	79.999	19.995	100.935	19.930	8.835	0.496
296.000	226.264	80.001	19.994	100.934	19.929	8.863	0.471
304.000	230.224	80.000	19.994	100.934	19.929	8.886	0.488
312.000	234.158	79.998	19.994	100.937	19.924	9.217	0.486
320.000	238.107	79.997	19.995	100.935	19.917	9.740	0.473
328.000	242.053	79.999	19.997	100.935	19.911	10.131	0.469
336.000	246.096	79.998	19.996	100.942	19.907	10.401	0.540
344.000	250.113	79.998	19.995	100.936	19.901	10.824	0.560
352.000	254.090	80.001	19.995	100.952	19.897	11.094	0.502
360.000	258.132	79.998	19.994	100.963	19.876	12.533	0.522
368.000	262.003	79.999	19.994	100.970	19.863	13.482	0.494
376.000	266.063	80.002	19.995	100.976	19.850	14.378	0.449
384.000	270.155	80.000	19.993	100.978	19.824	16.137	0.520
392.000	274.223	79.999	19.997	100.986	19.801	17.725	0.480
400.000	278.245	79.999	19.996	101.006	19.777	19.411	0.525
408.000	282.256	79.999	19.995	101.010	19.740	21.982	0.506
416.000	286.237	79.997	19.997	101.015	19.712	23.900	0.504
424.000	290.291	79.997	19.998	101.041	19.671	26.792	0.524
432.000	294.353	80.000	19.996	101.055	19.633	29.400	0.461
440.000	298.363	80.000	19.995	101.056	19.598	31.849	0.499
448.000	302.349	80.000	19.996	101.060	19.558	34.590	0.491
456.000	306.412	80.000	19.996	101.082	19.521	37.159	0.497
464.000	310.442	80.001	19.995	101.089	19.477	40.235	0.501
472.000	314.512	79.999	19.995	101.093	19.439	42.875	0.515
480.000	318.521	80.000	19.996	101.107	19.399	45.676	0.498
488.000	322.550	80.001	19.997	101.125	19.374	47.370	0.531
496.000	326.574	79.996	19.996	101.132	19.330	50.425	0.504
504.000	330.656	79.998	19.996	101.139	19.292	53.075	0.506
512.000	334.812	79.998	19.997	101.137	19.275	54.259	0.522
520.000	338.861	79.999	19.996	101.129	19.247	56.195	0.466
528.000	342.843	80.000	19.995	101.128	19.240	56.647	0.513
536.001	346.914	80.001	19.995	101.119	19.255	55.622	0.478
544.000	350.950	80.002	19.996	101.088	19.287	53.353	0.516
552.000	355.009	80.000	19.996	101.053	19.336	49.976	0.468
560.000	359.045	79.998	19.996	101.016	19.408	44.932	0.532
568.000	363.050	80.000	19.997	100.978	19.491	39.185	0.491
576.000	367.084	79.999	19.996	100.959	19.579	33.069	0.491
584.000	371.088	79.999	19.996	100.921	19.661	27.421	0.496
592.000	375.141	79.998	19.998	100.895	19.740	21.969	0.525
600.000	379.172	80.002	19.997	100.892	19.809	17.178	0.525
608.000	383.253	79.996	19.997	100.885	19.849	14.409	0.472
616.000	387.351	80.001	19.996	100.887	19.879	12.327	0.521
624.000	391.441	80.005	19.996	100.889	19.894	11.314	0.532
632.000	395.540	80.000	19.997	100.884	19.898	11.020	0.502
640.000	399.614	80.000	19.995	100.875	19.912	10.035	0.520
648.000	403.636	79.999	19.996	100.870	19.915	9.882	0.512
656.000	407.648	80.001	19.997	100.871	19.917	9.715	0.524
664.000	411.652	79.998	19.996	100.876	19.917	9.676	0.495
672.000	415.652	80.001	19.996	100.868	19.927	9.036	0.497
680.000	419.729	80.000	19.997	100.875	19.924	9.215	0.507
688.000	423.779	79.999	19.995	100.878	19.936	8.424	0.508
696.000	427.834	80.000	19.998	100.862	19.945	7.774	0.526
704.000	431.842	80.001	19.996	100.878	19.953	7.228	0.471
712.000	435.978	80.002	19.996	100.858	19.954	7.158	0.518
720.000	440.013	79.999	19.994	100.859	19.963	6.510	0.498
728.000	444.044	79.999	19.996	100.856	19.965	6.392	0.532
736.000	448.080	79.999	19.996	100.856	19.968	6.168	0.502
744.000	452.070	80.000	19.997	100.859	19.969	6.114	0.470
752.000	456.173	80.001	19.994	100.858	19.970	6.024	0.508
760.000	460.172	80.000	19.996	100.860	19.980	5.320	0.464
768.000	464.270	79.999	19.994	100.857	19.981	5.316	0.521
776.000	468.356	80.001	19.996	100.856	19.978	5.510	0.514
784.000	472.429	80.002	19.997	100.854	19.990	4.656	0.497
792.000	476.528	80.001	19.996	100.853	19.989	4.725	0.497
800.000	480.670	80.000	19.996	100.853	19.992	4.509	0.513
808.000	484.757	79.999	19.995	100.855	19.995	4.311	0.524
816.000	488.926	80.000	19.995	100.860	19.994	4.396	0.535
824.000	493.012	79.998	19.995	100.852	19.995	4.322	0.542
832.000	497.121	79.998	19.995	100.860	19.997	4.167	0.509
840.000	501.231	80.001	19.995	100.858	19.995	4.309	0.535
848.000	505.298	80.001	19.994	100.858	19.995	4.337	0.524
856.000	509.369	80.000	19.997	100.856	20.001	3.886	0.501
864.000	513.458	80.002	19.996	100.853	20.002	3.823	0.528
872.000	517.627	80.003	19.995	100.853	20.004	3.720	0.536
880.000	521.730	80.000	19.995	100.857	20.002	3.825	0.540
888.000	525.745	79.999	19.997	100.857	19.999	4.017	0.487
896.000	529.898	79.999	19.997	100.858	20.011	3.188	0.519
904.000	533.948	80.000	19.996	100.855	20.003	3.784	0.490
912.000	538.070	80.000	19.996	100.854	20.005	3.630	0.524
920.000	542.127	80.000	19.996	100.855	20.003	3.763	0.487
928.000	546.209	80.002	19.995	100.855	20.001	3.890	0.481
936.000	550.317	80.001	19.996	100.856	20.002	3.855	0.487
944.000	554.383	80.000	19.996	100.856	20.007	3.503	0.510
952.000	558.545	80.001	19.997	100.856	20.004	3.666	0.545
960.000	562.625	80.001	19.995	100.857	20.005	3.627	0.521
968.000	566.682	80.000	19.996	100.858	20.004	3.698	0.514
976.000	570.752	79.999	19.996	100.854	20.009	3.320	0.525
984.000	574.843	80.001	19.997	100.853	20.007	3.496	0.524
992.000	578.866	80.000	19.996	100.857	20.008	3.406	0.483
1000.000	582.925	80.000	19.996	100.855	20.004	3.666	0.495
1008.000	586.955	80.001	19.996	100.857	20.009	3.337	0.494
1016.000	590.980	80.001	19.996	100.858	20.006	3.535	0.512
1024.000	595.096	80.000	19.995	100.859	20.006	3.558	0.547
1032.000	599.173	80.003	19.995	100.864	20.009	3.335	0.547
1040.000	603.278	80.000	19.996	100.854	20.009	3.378	0.499
1048.000	607.361	79.999	19.995	100.855	20.009	3.350	0.527
1056.000	611.358	80.001	19.996	100.856	20.010	3.305	0.463
1064.001	615.461	80.001	19.996	100.857	20.005	3.619	0.508
1072.000	619.570	79.999	19.998	100.860	20.002	3.804	0.529
1080.001	623.629	79.999	19.996	100.856	20.002	3.819	0.538
1088.000	627.701	80.000	19.996	100.859	20.005	3.621	0.508
1096.000	631.756	80.002	19.995	100.857	20.003	3.789	0.496
1104.000	635.901	79.999	19.995	100.857	20.003	3.750	0.515
1112.000	639.978	80.004	19.996	100.854	20.005	3.651	0.529
1120.000	644.065	80.003	19.995	100.853	20.001	3.915	0.499
1128.000	648.152	80.000	19.995	100.854	20.006	3.559	0.500
1136.001	652.258	80.000	19.996	100.857	20.008	3.442	0.512
1144.000	656.380	79.999	19.997	100.858	20.004	3.688	0.502
1152.001	660.495	80.001	19.995	100.857	20.004	3.694	0.524
1160.000	664.586	79.998	19.996	100.859	20.002	3.827	0.489
1168.000	668.616	80.000	19.997	100.863	20.005	3.645	0.490
1176.000	672.704	80.003	19.997	100.858	20.000	4.002	0.556
1184.000	676.824	80.002	19.996	100.856	19.997	4.200	0.498
1192.000	680.794	80.003	19.996	100.857	19.999	4.012	0.494
1200.000	684.860	80.002	19.995	100.866	20.000	3.954	0.520
1208.000	688.921	80.000	19.996	100.863	20.001	3.900	0.524
1216.001	692.940	80.001	19.996	100.859	20.001	3.918	0.495
1224.000	696.967	80.002	19.995	100.868	19.999	4.058	0.467
1232.000	701.017	80.001	19.996	100.854	20.000	3.991	0.525
1240.000	705.015	80.001	19.996	100.855	19.998	4.081	0.487
1248.000	709.029	80.003	19.996	100.856	19.997	4.142	0.478
1256.000	713.069	80.002	19.997	100.862	20.000	3.991	0.496
1264.000	717.224	80.001	19.997	100.853	20.001	3.913	0.517
1272.000	721.252	80.002	19.995	100.856	19.997	4.167	0.483
1280.000	725.285	80.002	19.995	100.861	19.998	4.115	0.499
1288.000	729.377	80.000	19.996	100.864	19.998	4.077	0.527
1296.001	733.395	80.001	19.995	100.855	20.001	3.903	0.498
1304.001	737.430	80.002	19.995	100.870	19.998	4.075	0.507
1312.000	741.511	80.002	19.995	100.861	19.998	4.103	0.538
1316.000	743.517	80.001	19.997	100.861	19.997	4.163	0.526