File: 01_Data/Cotton_Sheet/FTIR/IS/Cotton_Sheet_IS_S_220826_R5.dpt
7497.03,0.62377
7473.89,0.62077
7450.74,0.60961
7427.6,0.61438
7404.45,0.60877
7381.31,0.61500
7358.16,0.60028
7335.02,0.61116
7311.87,0.60282
7288.73,0.60984
7265.58,0.59971
7242.44,0.60585
7219.29,0.59883
7196.15,0.61066
7173,0.60617
7149.86,0.60215
7126.71,0.60202
7103.57,0.59257
7080.42,0.59218
7057.28,0.58515
7034.13,0.57799
7010.99,0.56428
6987.84,0.56222
6964.7,0.55425
6941.55,0.55864
6918.41,0.55128
6895.26,0.55672
6872.12,0.54910
6848.97,0.54623
6825.83,0.53952
6802.68,0.53386
6779.54,0.53175
6756.39,0.52305
6733.25,0.52101
6710.1,0.52607
6686.96,0.52747
6663.82,0.52601
6640.67,0.52676
6617.53,0.53133
6594.38,0.53186
6571.24,0.53485
6548.09,0.53370
6524.95,0.52958
6501.8,0.53121
6478.66,0.53075
6455.51,0.52943
6432.37,0.53464
6409.22,0.53339
6386.08,0.53674
6362.93,0.54041
6339.79,0.53576
6316.64,0.53858
6293.5,0.54121
6270.35,0.54482
6247.21,0.55016
6224.06,0.55075
6200.92,0.56032
6177.77,0.56410
6154.63,0.56952
6131.48,0.57203
6108.34,0.57469
6085.19,0.58094
6062.05,0.58115
6038.9,0.58335
6015.76,0.58743
5992.61,0.58779
5969.47,0.58949
5946.32,0.58994
5923.18,0.58776
5900.03,0.58937
5876.89,0.58031
5853.74,0.57762
5830.6,0.57763
5807.45,0.58068
5784.31,0.57510
5761.16,0.57649
5738.02,0.57665
5714.87,0.57444
5691.73,0.57482
5668.58,0.57174
5645.44,0.57175
5622.29,0.57164
5599.15,0.57192
5576,0.57275
5552.86,0.57193
5529.71,0.57220
5506.57,0.57105
5483.42,0.57183
5460.28,0.57213
5437.13,0.57412
5413.99,0.57565
5390.84,0.57976
5367.7,0.58084
5344.55,0.58001
5321.41,0.57955
5298.26,0.57673
5275.12,0.57274
5251.97,0.56120
5228.83,0.55360
5205.68,0.54884
5182.54,0.54770
5159.39,0.54877
5136.25,0.55064
5113.1,0.55486
5089.96,0.55708
5066.81,0.55734
5043.67,0.55897
5020.52,0.55830
4997.38,0.55574
4974.23,0.55109
4951.09,0.54175
4927.94,0.52787
4904.8,0.50743
4881.65,0.48646
4858.51,0.46529
4835.36,0.44800
4812.22,0.43119
4789.07,0.42281
4765.93,0.41634
4742.78,0.41587
4719.64,0.42295
4696.49,0.43161
4673.35,0.44307
4650.2,0.45195
4627.06,0.46094
4603.92,0.46890
4580.77,0.47863
4557.63,0.48670
4534.48,0.49291
4511.34,0.49735
4488.19,0.50005
4465.05,0.49752
4441.9,0.48008
4418.76,0.44706
4395.61,0.42305
4372.47,0.43470
4349.32,0.43513
4326.18,0.42208
4303.03,0.41010
4279.89,0.40009
4256.74,0.40039
4233.6,0.40499
4210.45,0.40794
4187.31,0.41542
4164.16,0.42017
4141.02,0.41689
4117.87,0.40790
4094.73,0.38442
4071.58,0.35887
4048.44,0.32761
4025.29,0.31069
4002.15,0.31797
3979,0.32970
3955.86,0.34015
3932.71,0.35248
3909.57,0.36412
3886.42,0.37305
3863.28,0.38328
3840.13,0.39834
3816.99,0.40273
3793.84,0.40624
3770.7,0.40729
3747.55,0.40498
3724.41,0.39568
3701.26,0.37552
3678.12,0.34083
3654.97,0.28518
3631.83,0.22385
3608.68,0.15949
3585.54,0.10982
3562.39,0.07777
3539.25,0.05758
3516.1,0.04405
3492.96,0.03541
3469.81,0.03186
3446.67,0.03026
3423.52,0.02982
3400.38,0.02941
3377.23,0.03073
3354.09,0.03413
3330.94,0.04026
3307.8,0.03934
3284.65,0.04106
3261.51,0.04572
3238.36,0.05028
3215.22,0.05724
3192.07,0.06631
3168.93,0.07744
3145.78,0.09025
3122.64,0.10321
3099.49,0.11767
3076.35,0.13273
3053.2,0.14587
3030.06,0.15603
3006.91,0.16139
2983.77,0.13923
2960.62,0.09056
2937.48,0.07357
2914.33,0.05856
2891.19,0.05862
2868.04,0.06626
2844.9,0.08215
2821.75,0.10978
2798.61,0.13338
2775.46,0.14033
2752.32,0.14296
2729.17,0.14330
2706.03,0.15262
2682.88,0.16995
2659.74,0.17911
2636.59,0.18963
2613.45,0.19850
2590.3,0.20621
2567.16,0.20638
2544.02,0.20164
2520.87,0.20447
2497.73,0.21899
2474.58,0.23315
2451.44,0.24090
2428.29,0.25548
2405.15,0.26872
2382,0.28122
2358.86,0.29386
2335.71,0.30512
2312.57,0.31218
2289.42,0.30809
2266.28,0.29835
2243.13,0.28547
2219.99,0.28937
2196.84,0.29428
2173.7,0.27407
2150.55,0.25490
2127.41,0.25129
2104.26,0.26564
2081.12,0.27470
2057.97,0.27296
2034.83,0.27838
2011.68,0.30312
1988.54,0.31462
1965.39,0.32269
1942.25,0.33719
1919.1,0.35014
1895.96,0.35232
1872.81,0.34855
1849.67,0.33886
1826.52,0.32647
1803.38,0.31300
1780.23,0.29929
1757.09,0.28152
1733.94,0.25887
1710.8,0.24807
1687.65,0.20247
1664.51,0.15846
1641.36,0.16351
1618.22,0.17177
1595.07,0.17647
1571.93,0.17621
1548.78,0.17344
1525.64,0.16482
1502.49,0.14039
1479.35,0.08258
1456.2,0.05198
1433.06,0.03999
1409.91,0.05590
1386.77,0.04658
1363.62,0.03795
1340.48,0.03821
1317.33,0.03933
1294.19,0.05103
1271.04,0.05212
1247.9,0.04850
1224.75,0.05043
1201.61,0.03623
1178.46,0.03418
1155.32,0.04160
1132.17,0.02485
1109.03,0.03908
1085.88,0.03583
1062.74,0.08347
1039.59,0.06535
1016.45,0.06739
993.304,0.07118
970.159,0.11009
947.014,0.15175
923.869,0.15815
900.724,0.12286
877.579,0.16213
854.434,0.18031
831.289,0.16679
808.144,0.14653
784.999,0.12497
761.854,0.10052
738.709,0.07561
715.565,0.05578
692.42,0.05439
669.275,0.04951
646.13,0.05089
622.985,0.04526
599.84,0.05082