File: 01_Data/Cotton_Sheet/FTIR/IS/Cotton_Sheet_IS_S_220826_R3.dpt
7497.03,0.62013
7473.89,0.61869
7450.74,0.61129
7427.6,0.61298
7404.45,0.61133
7381.31,0.61781
7358.16,0.60907
7335.02,0.60461
7311.87,0.60181
7288.73,0.60614
7265.58,0.60736
7242.44,0.60551
7219.29,0.60206
7196.15,0.60097
7173,0.59771
7149.86,0.60205
7126.71,0.59836
7103.57,0.60223
7080.42,0.58828
7057.28,0.58095
7034.13,0.57266
7010.99,0.56825
6987.84,0.56700
6964.7,0.55373
6941.55,0.55614
6918.41,0.55136
6895.26,0.54685
6872.12,0.54780
6848.97,0.54193
6825.83,0.54141
6802.68,0.53013
6779.54,0.53159
6756.39,0.52513
6733.25,0.52387
6710.1,0.52363
6686.96,0.52552
6663.82,0.52501
6640.67,0.52877
6617.53,0.52273
6594.38,0.52694
6571.24,0.53219
6548.09,0.52922
6524.95,0.53391
6501.8,0.53009
6478.66,0.53193
6455.51,0.53440
6432.37,0.53359
6409.22,0.53552
6386.08,0.53379
6362.93,0.53601
6339.79,0.53631
6316.64,0.53702
6293.5,0.54084
6270.35,0.54208
6247.21,0.54731
6224.06,0.55163
6200.92,0.55804
6177.77,0.56471
6154.63,0.56842
6131.48,0.57027
6108.34,0.57347
6085.19,0.57719
6062.05,0.58029
6038.9,0.58207
6015.76,0.58503
5992.61,0.58587
5969.47,0.58979
5946.32,0.58800
5923.18,0.58688
5900.03,0.58359
5876.89,0.57974
5853.74,0.57796
5830.6,0.58105
5807.45,0.57839
5784.31,0.57598
5761.16,0.57486
5738.02,0.57568
5714.87,0.57529
5691.73,0.57318
5668.58,0.57415
5645.44,0.57178
5622.29,0.57101
5599.15,0.57155
5576,0.57315
5552.86,0.57188
5529.71,0.57152
5506.57,0.57130
5483.42,0.57008
5460.28,0.57197
5437.13,0.57578
5413.99,0.57654
5390.84,0.57805
5367.7,0.57865
5344.55,0.57945
5321.41,0.57844
5298.26,0.57529
5275.12,0.56965
5251.97,0.55985
5228.83,0.54897
5205.68,0.54369
5182.54,0.53992
5159.39,0.54254
5136.25,0.54596
5113.1,0.54948
5089.96,0.55136
5066.81,0.55528
5043.67,0.55610
5020.52,0.55452
4997.38,0.55442
4974.23,0.54945
4951.09,0.54041
4927.94,0.52638
4904.8,0.50721
4881.65,0.48444
4858.51,0.46526
4835.36,0.44655
4812.22,0.43100
4789.07,0.42082
4765.93,0.41600
4742.78,0.41464
4719.64,0.42238
4696.49,0.43113
4673.35,0.44149
4650.2,0.45121
4627.06,0.45974
4603.92,0.46812
4580.77,0.47694
4557.63,0.48501
4534.48,0.49326
4511.34,0.49674
4488.19,0.49825
4465.05,0.49623
4441.9,0.47925
4418.76,0.44664
4395.61,0.42172
4372.47,0.43506
4349.32,0.43347
4326.18,0.42169
4303.03,0.40925
4279.89,0.39893
4256.74,0.39969
4233.6,0.40357
4210.45,0.40761
4187.31,0.41386
4164.16,0.41907
4141.02,0.41517
4117.87,0.40653
4094.73,0.38330
4071.58,0.35756
4048.44,0.32715
4025.29,0.30953
4002.15,0.31730
3979,0.32891
3955.86,0.33887
3932.71,0.35163
3909.57,0.36264
3886.42,0.37216
3863.28,0.38232
3840.13,0.39710
3816.99,0.40085
3793.84,0.40373
3770.7,0.40477
3747.55,0.40191
3724.41,0.39123
3701.26,0.37087
3678.12,0.33457
3654.97,0.27642
3631.83,0.21387
3608.68,0.15332
3585.54,0.10662
3562.39,0.07675
3539.25,0.05673
3516.1,0.04356
3492.96,0.03522
3469.81,0.03131
3446.67,0.03010
3423.52,0.02937
3400.38,0.03042
3377.23,0.03109
3354.09,0.03419
3330.94,0.03952
3307.8,0.03944
3284.65,0.04049
3261.51,0.04472
3238.36,0.04929
3215.22,0.05698
3192.07,0.06555
3168.93,0.07635
3145.78,0.08826
3122.64,0.10140
3099.49,0.11609
3076.35,0.13019
3053.2,0.14363
3030.06,0.15352
3006.91,0.15902
2983.77,0.13773
2960.62,0.09055
2937.48,0.07312
2914.33,0.05792
2891.19,0.05859
2868.04,0.06614
2844.9,0.08194
2821.75,0.10940
2798.61,0.13291
2775.46,0.13966
2752.32,0.14219
2729.17,0.14241
2706.03,0.15220
2682.88,0.16971
2659.74,0.17866
2636.59,0.18857
2613.45,0.19794
2590.3,0.20571
2567.16,0.20567
2544.02,0.20034
2520.87,0.20375
2497.73,0.21825
2474.58,0.23246
2451.44,0.24064
2428.29,0.25462
2405.15,0.26795
2382,0.27986
2358.86,0.29248
2335.71,0.30389
2312.57,0.31056
2289.42,0.30624
2266.28,0.29656
2243.13,0.28416
2219.99,0.28740
2196.84,0.29206
2173.7,0.27211
2150.55,0.25336
2127.41,0.24969
2104.26,0.26376
2081.12,0.27246
2057.97,0.27096
2034.83,0.27607
2011.68,0.30117
1988.54,0.31220
1965.39,0.32054
1942.25,0.33495
1919.1,0.34785
1895.96,0.34982
1872.81,0.34591
1849.67,0.33617
1826.52,0.32388
1803.38,0.31063
1780.23,0.29674
1757.09,0.27887
1733.94,0.25582
1710.8,0.24410
1687.65,0.19843
1664.51,0.15383
1641.36,0.15742
1618.22,0.16683
1595.07,0.17403
1571.93,0.17438
1548.78,0.17195
1525.64,0.16342
1502.49,0.13927
1479.35,0.08202
1456.2,0.05180
1433.06,0.03981
1409.91,0.05593
1386.77,0.04646
1363.62,0.03776
1340.48,0.03812
1317.33,0.03938
1294.19,0.05116
1271.04,0.05211
1247.9,0.04819
1224.75,0.05070
1201.61,0.03583
1178.46,0.03428
1155.32,0.04222
1132.17,0.02440
1109.03,0.03862
1085.88,0.03519
1062.74,0.08303
1039.59,0.06541
1016.45,0.06733
993.304,0.07163
970.159,0.10977
947.014,0.15206
923.869,0.15710
900.724,0.12178
877.579,0.16086
854.434,0.17747
831.289,0.16349
808.144,0.14349
784.999,0.12304
761.854,0.09890
738.709,0.07476
715.565,0.05519
692.42,0.05428
669.275,0.04965
646.13,0.04879
622.985,0.04344
599.84,0.05289