File: 01_Data/Cotton_Sheet/FTIR/IS/Cotton_Sheet_IS_S_220826_R4.dpt
7497.03,0.61958
7473.89,0.60564
7450.74,0.61738
7427.6,0.61136
7404.45,0.61010
7381.31,0.60355
7358.16,0.60713
7335.02,0.60478
7311.87,0.60201
7288.73,0.60549
7265.58,0.60997
7242.44,0.60974
7219.29,0.60594
7196.15,0.59598
7173,0.60284
7149.86,0.59810
7126.71,0.60081
7103.57,0.59908
7080.42,0.58720
7057.28,0.58771
7034.13,0.57621
7010.99,0.56564
6987.84,0.56007
6964.7,0.55702
6941.55,0.55606
6918.41,0.55006
6895.26,0.54703
6872.12,0.55260
6848.97,0.54401
6825.83,0.54066
6802.68,0.54113
6779.54,0.52878
6756.39,0.52482
6733.25,0.52450
6710.1,0.52308
6686.96,0.52300
6663.82,0.52584
6640.67,0.52775
6617.53,0.53473
6594.38,0.53262
6571.24,0.53391
6548.09,0.53055
6524.95,0.53440
6501.8,0.53263
6478.66,0.53356
6455.51,0.52939
6432.37,0.53831
6409.22,0.53539
6386.08,0.53462
6362.93,0.53740
6339.79,0.53755
6316.64,0.53495
6293.5,0.54070
6270.35,0.54225
6247.21,0.54718
6224.06,0.55425
6200.92,0.55775
6177.77,0.56278
6154.63,0.56899
6131.48,0.57397
6108.34,0.57655
6085.19,0.57942
6062.05,0.58045
6038.9,0.58665
6015.76,0.58443
5992.61,0.58784
5969.47,0.59012
5946.32,0.58985
5923.18,0.59000
5900.03,0.58579
5876.89,0.58141
5853.74,0.58022
5830.6,0.57967
5807.45,0.57918
5784.31,0.57770
5761.16,0.57655
5738.02,0.57677
5714.87,0.57523
5691.73,0.57392
5668.58,0.57180
5645.44,0.57276
5622.29,0.57304
5599.15,0.57421
5576,0.57116
5552.86,0.57418
5529.71,0.57274
5506.57,0.57369
5483.42,0.57184
5460.28,0.57270
5437.13,0.57401
5413.99,0.57802
5390.84,0.57994
5367.7,0.58119
5344.55,0.58076
5321.41,0.58000
5298.26,0.57679
5275.12,0.57137
5251.97,0.56217
5228.83,0.55310
5205.68,0.54652
5182.54,0.54646
5159.39,0.54761
5136.25,0.54869
5113.1,0.55306
5089.96,0.55521
5066.81,0.55726
5043.67,0.55824
5020.52,0.55737
4997.38,0.55574
4974.23,0.54958
4951.09,0.54060
4927.94,0.52736
4904.8,0.50780
4881.65,0.48587
4858.51,0.46482
4835.36,0.44749
4812.22,0.43191
4789.07,0.42259
4765.93,0.41571
4742.78,0.41597
4719.64,0.42344
4696.49,0.43260
4673.35,0.44246
4650.2,0.45063
4627.06,0.46023
4603.92,0.46865
4580.77,0.47777
4557.63,0.48624
4534.48,0.49354
4511.34,0.49765
4488.19,0.49944
4465.05,0.49650
4441.9,0.48074
4418.76,0.44740
4395.61,0.42329
4372.47,0.43587
4349.32,0.43419
4326.18,0.42224
4303.03,0.40972
4279.89,0.39948
4256.74,0.40012
4233.6,0.40410
4210.45,0.40781
4187.31,0.41533
4164.16,0.41985
4141.02,0.41585
4117.87,0.40683
4094.73,0.38387
4071.58,0.35798
4048.44,0.32688
4025.29,0.31070
4002.15,0.31712
3979,0.32946
3955.86,0.33912
3932.71,0.35237
3909.57,0.36403
3886.42,0.37259
3863.28,0.38350
3840.13,0.39810
3816.99,0.40225
3793.84,0.40536
3770.7,0.40666
3747.55,0.40339
3724.41,0.39454
3701.26,0.37436
3678.12,0.33895
3654.97,0.28210
3631.83,0.22067
3608.68,0.15773
3585.54,0.10879
3562.39,0.07804
3539.25,0.05729
3516.1,0.04363
3492.96,0.03562
3469.81,0.03176
3446.67,0.02996
3423.52,0.03045
3400.38,0.03067
3377.23,0.03093
3354.09,0.03396
3330.94,0.03929
3307.8,0.03918
3284.65,0.04040
3261.51,0.04473
3238.36,0.05004
3215.22,0.05765
3192.07,0.06566
3168.93,0.07724
3145.78,0.08916
3122.64,0.10319
3099.49,0.11725
3076.35,0.13211
3053.2,0.14507
3030.06,0.15571
3006.91,0.16092
2983.77,0.13930
2960.62,0.09101
2937.48,0.07362
2914.33,0.05803
2891.19,0.05883
2868.04,0.06574
2844.9,0.08185
2821.75,0.11010
2798.61,0.13278
2775.46,0.14025
2752.32,0.14242
2729.17,0.14239
2706.03,0.15273
2682.88,0.17003
2659.74,0.17929
2636.59,0.18911
2613.45,0.19833
2590.3,0.20548
2567.16,0.20605
2544.02,0.20130
2520.87,0.20412
2497.73,0.21923
2474.58,0.23243
2451.44,0.24055
2428.29,0.25498
2405.15,0.26876
2382,0.28050
2358.86,0.29355
2335.71,0.30441
2312.57,0.31186
2289.42,0.30752
2266.28,0.29741
2243.13,0.28504
2219.99,0.28848
2196.84,0.29351
2173.7,0.27361
2150.55,0.25487
2127.41,0.25087
2104.26,0.26528
2081.12,0.27385
2057.97,0.27210
2034.83,0.27789
2011.68,0.30291
1988.54,0.31416
1965.39,0.32219
1942.25,0.33646
1919.1,0.34957
1895.96,0.35154
1872.81,0.34799
1849.67,0.33782
1826.52,0.32559
1803.38,0.31240
1780.23,0.29821
1757.09,0.28076
1733.94,0.25779
1710.8,0.24704
1687.65,0.20113
1664.51,0.15758
1641.36,0.16158
1618.22,0.17033
1595.07,0.17579
1571.93,0.17572
1548.78,0.17299
1525.64,0.16465
1502.49,0.14008
1479.35,0.08272
1456.2,0.05166
1433.06,0.03971
1409.91,0.05588
1386.77,0.04637
1363.62,0.03746
1340.48,0.03861
1317.33,0.03905
1294.19,0.05115
1271.04,0.05221
1247.9,0.04868
1224.75,0.05113
1201.61,0.03515
1178.46,0.03423
1155.32,0.04237
1132.17,0.02365
1109.03,0.03910
1085.88,0.03525
1062.74,0.08293
1039.59,0.06484
1016.45,0.06613
993.304,0.07162
970.159,0.11003
947.014,0.15162
923.869,0.15730
900.724,0.12198
877.579,0.16207
854.434,0.17940
831.289,0.16561
808.144,0.14526
784.999,0.12523
761.854,0.09937
738.709,0.07500
715.565,0.05547
692.42,0.05452
669.275,0.05023
646.13,0.04926
622.985,0.04430
599.84,0.05071