File: 01_Data/Cotton_Sheet/FTIR/IS/Cotton_Sheet_IS_S_220826_R7.dpt
7497.03,0.61955
7473.89,0.61970
7450.74,0.61216
7427.6,0.62462
7404.45,0.62196
7381.31,0.61559
7358.16,0.61523
7335.02,0.60846
7311.87,0.60290
7288.73,0.59888
7265.58,0.59739
7242.44,0.60071
7219.29,0.60758
7196.15,0.60228
7173,0.60312
7149.86,0.59955
7126.71,0.60725
7103.57,0.59729
7080.42,0.59172
7057.28,0.57770
7034.13,0.57253
7010.99,0.57322
6987.84,0.56705
6964.7,0.55739
6941.55,0.55983
6918.41,0.55278
6895.26,0.55320
6872.12,0.54592
6848.97,0.54282
6825.83,0.54041
6802.68,0.53631
6779.54,0.53551
6756.39,0.52454
6733.25,0.52538
6710.1,0.52870
6686.96,0.52622
6663.82,0.52567
6640.67,0.52606
6617.53,0.53154
6594.38,0.52809
6571.24,0.53542
6548.09,0.53255
6524.95,0.53327
6501.8,0.53538
6478.66,0.52828
6455.51,0.53109
6432.37,0.53440
6409.22,0.53583
6386.08,0.54009
6362.93,0.53818
6339.79,0.53900
6316.64,0.53555
6293.5,0.54022
6270.35,0.54349
6247.21,0.54748
6224.06,0.55375
6200.92,0.55942
6177.77,0.56623
6154.63,0.56762
6131.48,0.57434
6108.34,0.57626
6085.19,0.57713
6062.05,0.58087
6038.9,0.58273
6015.76,0.58746
5992.61,0.58585
5969.47,0.58886
5946.32,0.58954
5923.18,0.58696
5900.03,0.58562
5876.89,0.58043
5853.74,0.57838
5830.6,0.57800
5807.45,0.57899
5784.31,0.57718
5761.16,0.57638
5738.02,0.57667
5714.87,0.57275
5691.73,0.57382
5668.58,0.57116
5645.44,0.57345
5622.29,0.57172
5599.15,0.57142
5576,0.57246
5552.86,0.57354
5529.71,0.57116
5506.57,0.57196
5483.42,0.57131
5460.28,0.57134
5437.13,0.57668
5413.99,0.57738
5390.84,0.57870
5367.7,0.57990
5344.55,0.58178
5321.41,0.58066
5298.26,0.57665
5275.12,0.57301
5251.97,0.56492
5228.83,0.55578
5205.68,0.55188
5182.54,0.55113
5159.39,0.55030
5136.25,0.55471
5113.1,0.55650
5089.96,0.55849
5066.81,0.55932
5043.67,0.56013
5020.52,0.55954
4997.38,0.55683
4974.23,0.55118
4951.09,0.54203
4927.94,0.52824
4904.8,0.50719
4881.65,0.48596
4858.51,0.46650
4835.36,0.44766
4812.22,0.43160
4789.07,0.42266
4765.93,0.41634
4742.78,0.41674
4719.64,0.42384
4696.49,0.43224
4673.35,0.44188
4650.2,0.45269
4627.06,0.46097
4603.92,0.46984
4580.77,0.47800
4557.63,0.48699
4534.48,0.49334
4511.34,0.49818
4488.19,0.49980
4465.05,0.49617
4441.9,0.47919
4418.76,0.44757
4395.61,0.42327
4372.47,0.43615
4349.32,0.43453
4326.18,0.42270
4303.03,0.41021
4279.89,0.39949
4256.74,0.40016
4233.6,0.40431
4210.45,0.40861
4187.31,0.41495
4164.16,0.41986
4141.02,0.41655
4117.87,0.40728
4094.73,0.38397
4071.58,0.35888
4048.44,0.32793
4025.29,0.31027
4002.15,0.31817
3979,0.32996
3955.86,0.34018
3932.71,0.35352
3909.57,0.36406
3886.42,0.37319
3863.28,0.38365
3840.13,0.39925
3816.99,0.40354
3793.84,0.40691
3770.7,0.40813
3747.55,0.40563
3724.41,0.39678
3701.26,0.37790
3678.12,0.34352
3654.97,0.28942
3631.83,0.22814
3608.68,0.16300
3585.54,0.11184
3562.39,0.07880
3539.25,0.05809
3516.1,0.04444
3492.96,0.03543
3469.81,0.03115
3446.67,0.03032
3423.52,0.02971
3400.38,0.03059
3377.23,0.03104
3354.09,0.03365
3330.94,0.03961
3307.8,0.03888
3284.65,0.04080
3261.51,0.04531
3238.36,0.05040
3215.22,0.05759
3192.07,0.06748
3168.93,0.07786
3145.78,0.09022
3122.64,0.10346
3099.49,0.11922
3076.35,0.13433
3053.2,0.14696
3030.06,0.15708
3006.91,0.16276
2983.77,0.14025
2960.62,0.09106
2937.48,0.07365
2914.33,0.05876
2891.19,0.05898
2868.04,0.06569
2844.9,0.08260
2821.75,0.10980
2798.61,0.13348
2775.46,0.14044
2752.32,0.14298
2729.17,0.14371
2706.03,0.15323
2682.88,0.17068
2659.74,0.17918
2636.59,0.18964
2613.45,0.19883
2590.3,0.20619
2567.16,0.20656
2544.02,0.20169
2520.87,0.20489
2497.73,0.21955
2474.58,0.23302
2451.44,0.24156
2428.29,0.25564
2405.15,0.26941
2382,0.28072
2358.86,0.29418
2335.71,0.30499
2312.57,0.31259
2289.42,0.30845
2266.28,0.29854
2243.13,0.28643
2219.99,0.28950
2196.84,0.29495
2173.7,0.27475
2150.55,0.25579
2127.41,0.25204
2104.26,0.26648
2081.12,0.27540
2057.97,0.27361
2034.83,0.27910
2011.68,0.30398
1988.54,0.31591
1965.39,0.32374
1942.25,0.33814
1919.1,0.35126
1895.96,0.35338
1872.81,0.34927
1849.67,0.33965
1826.52,0.32716
1803.38,0.31385
1780.23,0.29987
1757.09,0.28214
1733.94,0.25976
1710.8,0.24949
1687.65,0.20483
1664.51,0.16138
1641.36,0.16742
1618.22,0.17423
1595.07,0.17799
1571.93,0.17718
1548.78,0.17438
1525.64,0.16526
1502.49,0.14064
1479.35,0.08299
1456.2,0.05198
1433.06,0.04027
1409.91,0.05575
1386.77,0.04631
1363.62,0.03798
1340.48,0.03826
1317.33,0.03936
1294.19,0.05132
1271.04,0.05190
1247.9,0.04823
1224.75,0.05036
1201.61,0.03585
1178.46,0.03434
1155.32,0.04165
1132.17,0.02445
1109.03,0.03934
1085.88,0.03471
1062.74,0.08325
1039.59,0.06487
1016.45,0.06758
993.304,0.07105
970.159,0.10987
947.014,0.15177
923.869,0.15806
900.724,0.12226
877.579,0.16301
854.434,0.18106
831.289,0.16755
808.144,0.14780
784.999,0.12696
761.854,0.10077
738.709,0.07641
715.565,0.05519
692.42,0.05553
669.275,0.05022
646.13,0.04969
622.985,0.04446
599.84,0.05465