File: 01_Data/Cotton_Sheet/FTIR/IS/Cotton_Sheet_IS_S_220826_R2.dpt
7497.03,0.61393
7473.89,0.60649
7450.74,0.62766
7427.6,0.61389
7404.45,0.61210
7381.31,0.61200
7358.16,0.61883
7335.02,0.60379
7311.87,0.60869
7288.73,0.60476
7265.58,0.61025
7242.44,0.61178
7219.29,0.59736
7196.15,0.60319
7173,0.60076
7149.86,0.60275
7126.71,0.60726
7103.57,0.59600
7080.42,0.59261
7057.28,0.59202
7034.13,0.57714
7010.99,0.56356
6987.84,0.55846
6964.7,0.55709
6941.55,0.55074
6918.41,0.55007
6895.26,0.55221
6872.12,0.54628
6848.97,0.54034
6825.83,0.53490
6802.68,0.53772
6779.54,0.53205
6756.39,0.52501
6733.25,0.52395
6710.1,0.52244
6686.96,0.52160
6663.82,0.52758
6640.67,0.52811
6617.53,0.53060
6594.38,0.52986
6571.24,0.53013
6548.09,0.53045
6524.95,0.52896
6501.8,0.53027
6478.66,0.53482
6455.51,0.53212
6432.37,0.53252
6409.22,0.53475
6386.08,0.53587
6362.93,0.53785
6339.79,0.53737
6316.64,0.53921
6293.5,0.53768
6270.35,0.54091
6247.21,0.54681
6224.06,0.55311
6200.92,0.56059
6177.77,0.56229
6154.63,0.56607
6131.48,0.57082
6108.34,0.57571
6085.19,0.57484
6062.05,0.57894
6038.9,0.58352
6015.76,0.58654
5992.61,0.58744
5969.47,0.58954
5946.32,0.58757
5923.18,0.58700
5900.03,0.58453
5876.89,0.58023
5853.74,0.57799
5830.6,0.57870
5807.45,0.57962
5784.31,0.57787
5761.16,0.57675
5738.02,0.57501
5714.87,0.57594
5691.73,0.57406
5668.58,0.57197
5645.44,0.57434
5622.29,0.57208
5599.15,0.57242
5576,0.57250
5552.86,0.57191
5529.71,0.57143
5506.57,0.57206
5483.42,0.57000
5460.28,0.57060
5437.13,0.57382
5413.99,0.57617
5390.84,0.57933
5367.7,0.57949
5344.55,0.58045
5321.41,0.57897
5298.26,0.57430
5275.12,0.56727
5251.97,0.55568
5228.83,0.54401
5205.68,0.53752
5182.54,0.53746
5159.39,0.53752
5136.25,0.54086
5113.1,0.54485
5089.96,0.54934
5066.81,0.55181
5043.67,0.55387
5020.52,0.55272
4997.38,0.55174
4974.23,0.54729
4951.09,0.53934
4927.94,0.52600
4904.8,0.50869
4881.65,0.48570
4858.51,0.46542
4835.36,0.44718
4812.22,0.43204
4789.07,0.42091
4765.93,0.41691
4742.78,0.41583
4719.64,0.42272
4696.49,0.43096
4673.35,0.44253
4650.2,0.45049
4627.06,0.45990
4603.92,0.46897
4580.77,0.47758
4557.63,0.48662
4534.48,0.49280
4511.34,0.49739
4488.19,0.49923
4465.05,0.49670
4441.9,0.47949
4418.76,0.44628
4395.61,0.42381
4372.47,0.43610
4349.32,0.43395
4326.18,0.42190
4303.03,0.40938
4279.89,0.39938
4256.74,0.39959
4233.6,0.40348
4210.45,0.40786
4187.31,0.41527
4164.16,0.41842
4141.02,0.41510
4117.87,0.40651
4094.73,0.38260
4071.58,0.35733
4048.44,0.32687
4025.29,0.30951
4002.15,0.31677
3979,0.32900
3955.86,0.33832
3932.71,0.35185
3909.57,0.36228
3886.42,0.37146
3863.28,0.38190
3840.13,0.39652
3816.99,0.40044
3793.84,0.40303
3770.7,0.40381
3747.55,0.40020
3724.41,0.38952
3701.26,0.36820
3678.12,0.32962
3654.97,0.26827
3631.83,0.20464
3608.68,0.14745
3585.54,0.10335
3562.39,0.07495
3539.25,0.05620
3516.1,0.04326
3492.96,0.03566
3469.81,0.03166
3446.67,0.02986
3423.52,0.02964
3400.38,0.03060
3377.23,0.03068
3354.09,0.03434
3330.94,0.03992
3307.8,0.03897
3284.65,0.04079
3261.51,0.04571
3238.36,0.04976
3215.22,0.05679
3192.07,0.06528
3168.93,0.07488
3145.78,0.08650
3122.64,0.09933
3099.49,0.11339
3076.35,0.12798
3053.2,0.14137
3030.06,0.15144
3006.91,0.15647
2983.77,0.13717
2960.62,0.09036
2937.48,0.07381
2914.33,0.05819
2891.19,0.05902
2868.04,0.06570
2844.9,0.08204
2821.75,0.10985
2798.61,0.13212
2775.46,0.13867
2752.32,0.14194
2729.17,0.14210
2706.03,0.15184
2682.88,0.16891
2659.74,0.17843
2636.59,0.18847
2613.45,0.19769
2590.3,0.20516
2567.16,0.20559
2544.02,0.20042
2520.87,0.20364
2497.73,0.21826
2474.58,0.23198
2451.44,0.24053
2428.29,0.25476
2405.15,0.26778
2382,0.28000
2358.86,0.29225
2335.71,0.30313
2312.57,0.30983
2289.42,0.30570
2266.28,0.29547
2243.13,0.28349
2219.99,0.28623
2196.84,0.29094
2173.7,0.27109
2150.55,0.25231
2127.41,0.24846
2104.26,0.26243
2081.12,0.27126
2057.97,0.26931
2034.83,0.27490
2011.68,0.29968
1988.54,0.31081
1965.39,0.31903
1942.25,0.33334
1919.1,0.34654
1895.96,0.34799
1872.81,0.34436
1849.67,0.33498
1826.52,0.32241
1803.38,0.30899
1780.23,0.29542
1757.09,0.27706
1733.94,0.25459
1710.8,0.24098
1687.65,0.19453
1664.51,0.14906
1641.36,0.15106
1618.22,0.16260
1595.07,0.17156
1571.93,0.17294
1548.78,0.17040
1525.64,0.16231
1502.49,0.13880
1479.35,0.08235
1456.2,0.05174
1433.06,0.03973
1409.91,0.05597
1386.77,0.04650
1363.62,0.03803
1340.48,0.03849
1317.33,0.03962
1294.19,0.05122
1271.04,0.05265
1247.9,0.04845
1224.75,0.05145
1201.61,0.03561
1178.46,0.03387
1155.32,0.04264
1132.17,0.02417
1109.03,0.03945
1085.88,0.03512
1062.74,0.08335
1039.59,0.06496
1016.45,0.06691
993.304,0.07176
970.159,0.10974
947.014,0.15201
923.869,0.15639
900.724,0.12124
877.579,0.16011
854.434,0.17506
831.289,0.16107
808.144,0.14022
784.999,0.12104
761.854,0.09697
738.709,0.07337
715.565,0.05387
692.42,0.05481
669.275,0.04893
646.13,0.04966
622.985,0.04468
599.84,0.05120