File: 01_Data/Cotton_Sheet/FTIR/IS/Cotton_Sheet_IS_S_220826_R1.dpt
7497.03,0.62250
7473.89,0.61327
7450.74,0.63012
7427.6,0.60662
7404.45,0.61231
7381.31,0.60883
7358.16,0.60965
7335.02,0.60171
7311.87,0.60511
7288.73,0.60053
7265.58,0.60676
7242.44,0.60989
7219.29,0.60103
7196.15,0.59998
7173,0.59434
7149.86,0.60578
7126.71,0.59968
7103.57,0.59876
7080.42,0.58968
7057.28,0.58114
7034.13,0.57271
7010.99,0.56864
6987.84,0.56075
6964.7,0.55310
6941.55,0.54899
6918.41,0.54393
6895.26,0.55040
6872.12,0.54698
6848.97,0.54133
6825.83,0.53830
6802.68,0.53317
6779.54,0.52768
6756.39,0.52335
6733.25,0.51858
6710.1,0.52407
6686.96,0.52125
6663.82,0.52470
6640.67,0.51787
6617.53,0.52642
6594.38,0.52780
6571.24,0.52561
6548.09,0.52909
6524.95,0.53200
6501.8,0.52870
6478.66,0.52632
6455.51,0.53462
6432.37,0.52657
6409.22,0.53208
6386.08,0.53006
6362.93,0.53575
6339.79,0.53535
6316.64,0.53520
6293.5,0.53485
6270.35,0.54116
6247.21,0.54453
6224.06,0.54892
6200.92,0.55467
6177.77,0.56032
6154.63,0.56862
6131.48,0.56775
6108.34,0.57169
6085.19,0.57543
6062.05,0.57533
6038.9,0.58256
6015.76,0.58157
5992.61,0.58490
5969.47,0.58660
5946.32,0.58588
5923.18,0.58316
5900.03,0.58148
5876.89,0.57618
5853.74,0.57867
5830.6,0.57665
5807.45,0.57700
5784.31,0.57431
5761.16,0.57312
5738.02,0.57631
5714.87,0.57288
5691.73,0.57012
5668.58,0.56924
5645.44,0.57050
5622.29,0.56845
5599.15,0.56787
5576,0.56762
5552.86,0.56863
5529.71,0.56986
5506.57,0.56989
5483.42,0.56872
5460.28,0.57250
5437.13,0.57268
5413.99,0.57431
5390.84,0.57662
5367.7,0.57749
5344.55,0.57847
5321.41,0.57590
5298.26,0.57006
5275.12,0.55857
5251.97,0.54479
5228.83,0.52936
5205.68,0.52106
5182.54,0.51955
5159.39,0.52089
5136.25,0.52446
5113.1,0.52988
5089.96,0.53480
5066.81,0.53927
5043.67,0.54231
5020.52,0.54511
4997.38,0.54451
4974.23,0.54114
4951.09,0.53493
4927.94,0.52230
4904.8,0.50514
4881.65,0.48381
4858.51,0.46218
4835.36,0.44711
4812.22,0.43052
4789.07,0.42005
4765.93,0.41436
4742.78,0.41322
4719.64,0.42014
4696.49,0.42965
4673.35,0.44007
4650.2,0.44817
4627.06,0.45789
4603.92,0.46599
4580.77,0.47565
4557.63,0.48415
4534.48,0.49120
4511.34,0.49431
4488.19,0.49676
4465.05,0.49406
4441.9,0.47672
4418.76,0.44381
4395.61,0.41990
4372.47,0.43395
4349.32,0.43211
4326.18,0.41952
4303.03,0.40777
4279.89,0.39736
4256.74,0.39727
4233.6,0.40118
4210.45,0.40471
4187.31,0.41111
4164.16,0.41587
4141.02,0.41204
4117.87,0.40339
4094.73,0.38001
4071.58,0.35478
4048.44,0.32476
4025.29,0.30776
4002.15,0.31427
3979,0.32550
3955.86,0.33593
3932.71,0.34892
3909.57,0.35921
3886.42,0.36816
3863.28,0.37798
3840.13,0.39199
3816.99,0.39604
3793.84,0.39691
3770.7,0.39663
3747.55,0.39327
3724.41,0.37959
3701.26,0.35579
3678.12,0.31369
3654.97,0.24640
3631.83,0.18432
3608.68,0.13166
3585.54,0.09477
3562.39,0.07087
3539.25,0.05397
3516.1,0.04271
3492.96,0.03474
3469.81,0.03105
3446.67,0.02966
3423.52,0.02935
3400.38,0.02970
3377.23,0.03042
3354.09,0.03380
3330.94,0.03926
3307.8,0.03939
3284.65,0.04057
3261.51,0.04523
3238.36,0.04906
3215.22,0.05489
3192.07,0.06284
3168.93,0.07233
3145.78,0.08251
3122.64,0.09434
3099.49,0.10723
3076.35,0.12156
3053.2,0.13368
3030.06,0.14434
3006.91,0.15058
2983.77,0.13260
2960.62,0.08993
2937.48,0.07278
2914.33,0.05810
2891.19,0.05909
2868.04,0.06585
2844.9,0.08109
2821.75,0.10888
2798.61,0.13080
2775.46,0.13738
2752.32,0.14043
2729.17,0.14015
2706.03,0.15011
2682.88,0.16748
2659.74,0.17622
2636.59,0.18700
2613.45,0.19595
2590.3,0.20370
2567.16,0.20361
2544.02,0.19875
2520.87,0.20186
2497.73,0.21651
2474.58,0.23031
2451.44,0.23807
2428.29,0.25249
2405.15,0.26527
2382,0.27669
2358.86,0.28873
2335.71,0.29929
2312.57,0.30551
2289.42,0.30098
2266.28,0.29089
2243.13,0.27800
2219.99,0.28090
2196.84,0.28462
2173.7,0.26521
2150.55,0.24679
2127.41,0.24275
2104.26,0.25675
2081.12,0.26491
2057.97,0.26326
2034.83,0.26886
2011.68,0.29315
1988.54,0.30401
1965.39,0.31225
1942.25,0.32624
1919.1,0.33894
1895.96,0.34087
1872.81,0.33728
1849.67,0.32749
1826.52,0.31545
1803.38,0.30232
1780.23,0.28831
1757.09,0.26962
1733.94,0.24700
1710.8,0.23031
1687.65,0.18141
1664.51,0.13694
1641.36,0.13612
1618.22,0.15057
1595.07,0.16318
1571.93,0.16675
1548.78,0.16550
1525.64,0.15824
1502.49,0.13551
1479.35,0.08123
1456.2,0.05145
1433.06,0.04031
1409.91,0.05606
1386.77,0.04702
1363.62,0.03804
1340.48,0.03850
1317.33,0.03965
1294.19,0.05107
1271.04,0.05221
1247.9,0.04863
1224.75,0.05124
1201.61,0.03577
1178.46,0.03412
1155.32,0.04224
1132.17,0.02392
1109.03,0.03917
1085.88,0.03531
1062.74,0.08368
1039.59,0.06499
1016.45,0.06739
993.304,0.07162
970.159,0.10992
947.014,0.15133
923.869,0.15430
900.724,0.11942
877.579,0.15631
854.434,0.16636
831.289,0.15218
808.144,0.13223
784.999,0.11339
761.854,0.09164
738.709,0.07200
715.565,0.05312
692.42,0.05376
669.275,0.04827
646.13,0.04930
622.985,0.04353
599.84,0.05533