File: 01_Data/Cotton_Sheet/FTIR/IS/Cotton_Sheet_IS_S_220826_R8.dpt
7497.03,0.61854
7473.89,0.60995
7450.74,0.61669
7427.6,0.61374
7404.45,0.61472
7381.31,0.61815
7358.16,0.61109
7335.02,0.60521
7311.87,0.60722
7288.73,0.60710
7265.58,0.60505
7242.44,0.60030
7219.29,0.60431
7196.15,0.60357
7173,0.61148
7149.86,0.60481
7126.71,0.60810
7103.57,0.59885
7080.42,0.58953
7057.28,0.58401
7034.13,0.57456
7010.99,0.56313
6987.84,0.55719
6964.7,0.55190
6941.55,0.55250
6918.41,0.55143
6895.26,0.55088
6872.12,0.55161
6848.97,0.54106
6825.83,0.54032
6802.68,0.53736
6779.54,0.52936
6756.39,0.52728
6733.25,0.52192
6710.1,0.52376
6686.96,0.52567
6663.82,0.52198
6640.67,0.52873
6617.53,0.52830
6594.38,0.53065
6571.24,0.53254
6548.09,0.53586
6524.95,0.52991
6501.8,0.53232
6478.66,0.53326
6455.51,0.53379
6432.37,0.53613
6409.22,0.53820
6386.08,0.53379
6362.93,0.53827
6339.79,0.53777
6316.64,0.54085
6293.5,0.53732
6270.35,0.54344
6247.21,0.55025
6224.06,0.55280
6200.92,0.55983
6177.77,0.56129
6154.63,0.57237
6131.48,0.57204
6108.34,0.57708
6085.19,0.57867
6062.05,0.57917
6038.9,0.58587
6015.76,0.58568
5992.61,0.58581
5969.47,0.58635
5946.32,0.59068
5923.18,0.58708
5900.03,0.58303
5876.89,0.57874
5853.74,0.57820
5830.6,0.57983
5807.45,0.57784
5784.31,0.57607
5761.16,0.57607
5738.02,0.57736
5714.87,0.57725
5691.73,0.57473
5668.58,0.57226
5645.44,0.56922
5622.29,0.57094
5599.15,0.56992
5576,0.57367
5552.86,0.57223
5529.71,0.57329
5506.57,0.57030
5483.42,0.57196
5460.28,0.57171
5437.13,0.57442
5413.99,0.57613
5390.84,0.57943
5367.7,0.58012
5344.55,0.57947
5321.41,0.58091
5298.26,0.57741
5275.12,0.57294
5251.97,0.56470
5228.83,0.55664
5205.68,0.55249
5182.54,0.55049
5159.39,0.55364
5136.25,0.55421
5113.1,0.55831
5089.96,0.55954
5066.81,0.56080
5043.67,0.56098
5020.52,0.56081
4997.38,0.55715
4974.23,0.55122
4951.09,0.54204
4927.94,0.52657
4904.8,0.50771
4881.65,0.48457
4858.51,0.46505
4835.36,0.44774
4812.22,0.43019
4789.07,0.42154
4765.93,0.41578
4742.78,0.41554
4719.64,0.42266
4696.49,0.43189
4673.35,0.44206
4650.2,0.45130
4627.06,0.46005
4603.92,0.46933
4580.77,0.47825
4557.63,0.48734
4534.48,0.49315
4511.34,0.49741
4488.19,0.49900
4465.05,0.49719
4441.9,0.47919
4418.76,0.44625
4395.61,0.42303
4372.47,0.43593
4349.32,0.43490
4326.18,0.42246
4303.03,0.40966
4279.89,0.39963
4256.74,0.39994
4233.6,0.40480
4210.45,0.40773
4187.31,0.41515
4164.16,0.42001
4141.02,0.41632
4117.87,0.40663
4094.73,0.38434
4071.58,0.35879
4048.44,0.32704
4025.29,0.31058
4002.15,0.31759
3979,0.32996
3955.86,0.33978
3932.71,0.35288
3909.57,0.36416
3886.42,0.37367
3863.28,0.38349
3840.13,0.39837
3816.99,0.40375
3793.84,0.40672
3770.7,0.40840
3747.55,0.40658
3724.41,0.39669
3701.26,0.37815
3678.12,0.34503
3654.97,0.29269
3631.83,0.23004
3608.68,0.16357
3585.54,0.11218
3562.39,0.07922
3539.25,0.05830
3516.1,0.04359
3492.96,0.03681
3469.81,0.03102
3446.67,0.03022
3423.52,0.02977
3400.38,0.02996
3377.23,0.03116
3354.09,0.03433
3330.94,0.03962
3307.8,0.03919
3284.65,0.04104
3261.51,0.04517
3238.36,0.05053
3215.22,0.05781
3192.07,0.06705
3168.93,0.07796
3145.78,0.09097
3122.64,0.10434
3099.49,0.11914
3076.35,0.13451
3053.2,0.14722
3030.06,0.15749
3006.91,0.16243
2983.77,0.13958
2960.62,0.09088
2937.48,0.07344
2914.33,0.05872
2891.19,0.05853
2868.04,0.06559
2844.9,0.08192
2821.75,0.10991
2798.61,0.13317
2775.46,0.14045
2752.32,0.14246
2729.17,0.14334
2706.03,0.15326
2682.88,0.17090
2659.74,0.17905
2636.59,0.18937
2613.45,0.19874
2590.3,0.20605
2567.16,0.20638
2544.02,0.20167
2520.87,0.20429
2497.73,0.21926
2474.58,0.23318
2451.44,0.24107
2428.29,0.25533
2405.15,0.26880
2382,0.28088
2358.86,0.29396
2335.71,0.30516
2312.57,0.31222
2289.42,0.30828
2266.28,0.29867
2243.13,0.28608
2219.99,0.28933
2196.84,0.29489
2173.7,0.27509
2150.55,0.25620
2127.41,0.25192
2104.26,0.26645
2081.12,0.27544
2057.97,0.27376
2034.83,0.27919
2011.68,0.30432
1988.54,0.31571
1965.39,0.32356
1942.25,0.33824
1919.1,0.35182
1895.96,0.35343
1872.81,0.34984
1849.67,0.33955
1826.52,0.32715
1803.38,0.31389
1780.23,0.30002
1757.09,0.28247
1733.94,0.26020
1710.8,0.24998
1687.65,0.20495
1664.51,0.16198
1641.36,0.16866
1618.22,0.17543
1595.07,0.17825
1571.93,0.17746
1548.78,0.17442
1525.64,0.16564
1502.49,0.14113
1479.35,0.08280
1456.2,0.05183
1433.06,0.03953
1409.91,0.05559
1386.77,0.04680
1363.62,0.03791
1340.48,0.03835
1317.33,0.03933
1294.19,0.05084
1271.04,0.05215
1247.9,0.04811
1224.75,0.05055
1201.61,0.03530
1178.46,0.03451
1155.32,0.04214
1132.17,0.02455
1109.03,0.03947
1085.88,0.03517
1062.74,0.08316
1039.59,0.06544
1016.45,0.06706
993.304,0.07136
970.159,0.10979
947.014,0.15132
923.869,0.15791
900.724,0.12299
877.579,0.16244
854.434,0.18159
831.289,0.16752
808.144,0.14856
784.999,0.12707
761.854,0.10225
738.709,0.07657
715.565,0.05550
692.42,0.05516
669.275,0.05041
646.13,0.04981
622.985,0.04516
599.84,0.05215