File: 01_Data/Cotton_Sheet/FTIR/IS/Cotton_Sheet_IS_S_220826_R6.dpt
7497.03,0.61577
7473.89,0.62545
7450.74,0.61521
7427.6,0.61309
7404.45,0.61209
7381.31,0.61032
7358.16,0.60827
7335.02,0.60175
7311.87,0.59938
7288.73,0.60747
7265.58,0.60169
7242.44,0.59620
7219.29,0.60991
7196.15,0.60558
7173,0.60336
7149.86,0.60367
7126.71,0.59744
7103.57,0.59324
7080.42,0.59279
7057.28,0.58424
7034.13,0.57466
7010.99,0.56752
6987.84,0.55863
6964.7,0.55686
6941.55,0.55237
6918.41,0.55341
6895.26,0.55435
6872.12,0.54881
6848.97,0.54728
6825.83,0.54048
6802.68,0.53643
6779.54,0.52913
6756.39,0.52655
6733.25,0.52652
6710.1,0.52470
6686.96,0.52635
6663.82,0.52825
6640.67,0.53132
6617.53,0.52900
6594.38,0.52948
6571.24,0.53155
6548.09,0.53472
6524.95,0.53421
6501.8,0.52785
6478.66,0.53388
6455.51,0.53170
6432.37,0.53527
6409.22,0.53569
6386.08,0.53596
6362.93,0.53627
6339.79,0.54000
6316.64,0.53895
6293.5,0.53852
6270.35,0.54484
6247.21,0.54918
6224.06,0.55164
6200.92,0.55756
6177.77,0.56277
6154.63,0.56942
6131.48,0.57268
6108.34,0.57452
6085.19,0.57951
6062.05,0.57922
6038.9,0.58631
6015.76,0.58501
5992.61,0.58800
5969.47,0.58849
5946.32,0.58781
5923.18,0.58341
5900.03,0.58392
5876.89,0.58148
5853.74,0.57862
5830.6,0.57822
5807.45,0.57735
5784.31,0.57685
5761.16,0.57455
5738.02,0.57566
5714.87,0.57539
5691.73,0.57285
5668.58,0.57288
5645.44,0.57096
5622.29,0.57142
5599.15,0.57166
5576,0.57057
5552.86,0.57306
5529.71,0.57057
5506.57,0.57078
5483.42,0.56990
5460.28,0.57134
5437.13,0.57473
5413.99,0.57596
5390.84,0.57844
5367.7,0.57973
5344.55,0.57741
5321.41,0.57840
5298.26,0.57578
5275.12,0.57096
5251.97,0.56191
5228.83,0.55345
5205.68,0.54917
5182.54,0.54726
5159.39,0.54910
5136.25,0.55130
5113.1,0.55315
5089.96,0.55610
5066.81,0.55858
5043.67,0.56010
5020.52,0.55898
4997.38,0.55438
4974.23,0.55023
4951.09,0.53966
4927.94,0.52621
4904.8,0.50599
4881.65,0.48505
4858.51,0.46511
4835.36,0.44641
4812.22,0.43113
4789.07,0.42114
4765.93,0.41583
4742.78,0.41565
4719.64,0.42227
4696.49,0.43091
4673.35,0.44102
4650.2,0.45115
4627.06,0.45992
4603.92,0.46892
4580.77,0.47769
4557.63,0.48610
4534.48,0.49306
4511.34,0.49676
4488.19,0.49845
4465.05,0.49609
4441.9,0.47932
4418.76,0.44575
4395.61,0.42256
4372.47,0.43511
4349.32,0.43390
4326.18,0.42193
4303.03,0.40928
4279.89,0.39884
4256.74,0.39978
4233.6,0.40376
4210.45,0.40772
4187.31,0.41486
4164.16,0.41873
4141.02,0.41621
4117.87,0.40698
4094.73,0.38392
4071.58,0.35781
4048.44,0.32688
4025.29,0.30994
4002.15,0.31686
3979,0.32847
3955.86,0.33931
3932.71,0.35268
3909.57,0.36359
3886.42,0.37222
3863.28,0.38264
3840.13,0.39784
3816.99,0.40308
3793.84,0.40540
3770.7,0.40675
3747.55,0.40425
3724.41,0.39438
3701.26,0.37605
3678.12,0.34209
3654.97,0.28722
3631.83,0.22534
3608.68,0.16211
3585.54,0.11065
3562.39,0.07897
3539.25,0.05821
3516.1,0.04419
3492.96,0.03590
3469.81,0.03221
3446.67,0.02994
3423.52,0.02986
3400.38,0.03020
3377.23,0.03153
3354.09,0.03443
3330.94,0.03927
3307.8,0.03960
3284.65,0.04088
3261.51,0.04561
3238.36,0.04971
3215.22,0.05846
3192.07,0.06680
3168.93,0.07767
3145.78,0.09036
3122.64,0.10358
3099.49,0.11868
3076.35,0.13319
3053.2,0.14588
3030.06,0.15627
3006.91,0.16159
2983.77,0.13914
2960.62,0.09074
2937.48,0.07362
2914.33,0.05843
2891.19,0.05896
2868.04,0.06587
2844.9,0.08225
2821.75,0.11012
2798.61,0.13292
2775.46,0.14006
2752.32,0.14236
2729.17,0.14271
2706.03,0.15335
2682.88,0.17019
2659.74,0.17850
2636.59,0.18926
2613.45,0.19782
2590.3,0.20588
2567.16,0.20616
2544.02,0.20097
2520.87,0.20425
2497.73,0.21902
2474.58,0.23262
2451.44,0.24058
2428.29,0.25513
2405.15,0.26850
2382,0.28014
2358.86,0.29362
2335.71,0.30451
2312.57,0.31141
2289.42,0.30738
2266.28,0.29767
2243.13,0.28527
2219.99,0.28851
2196.84,0.29373
2173.7,0.27408
2150.55,0.25491
2127.41,0.25136
2104.26,0.26566
2081.12,0.27460
2057.97,0.27247
2034.83,0.27822
2011.68,0.30313
1988.54,0.31450
1965.39,0.32210
1942.25,0.33695
1919.1,0.35012
1895.96,0.35219
1872.81,0.34848
1849.67,0.33834
1826.52,0.32599
1803.38,0.31279
1780.23,0.29881
1757.09,0.28090
1733.94,0.25867
1710.8,0.24818
1687.65,0.20350
1664.51,0.15965
1641.36,0.16513
1618.22,0.17287
1595.07,0.17712
1571.93,0.17670
1548.78,0.17364
1525.64,0.16487
1502.49,0.14018
1479.35,0.08273
1456.2,0.05149
1433.06,0.04015
1409.91,0.05572
1386.77,0.04677
1363.62,0.03772
1340.48,0.03828
1317.33,0.03919
1294.19,0.05106
1271.04,0.05204
1247.9,0.04829
1224.75,0.05068
1201.61,0.03545
1178.46,0.03411
1155.32,0.04190
1132.17,0.02416
1109.03,0.03890
1085.88,0.03564
1062.74,0.08321
1039.59,0.06568
1016.45,0.06687
993.304,0.07127
970.159,0.10961
947.014,0.15172
923.869,0.15777
900.724,0.12252
877.579,0.16290
854.434,0.18046
831.289,0.16775
808.144,0.14756
784.999,0.12670
761.854,0.10063
738.709,0.07627
715.565,0.05507
692.42,0.05540
669.275,0.04990
646.13,0.04910
622.985,0.04514
599.84,0.05490