File: 01_Data/Cotton_Sheet/FTIR/IS/Cotton_Sheet_IS_T_220826_R4.dpt
7497.03,0.02507
7473.89,0.02374
7450.74,0.02355
7427.6,0.02331
7404.45,0.02958
7381.31,0.02284
7358.16,0.03050
7335.02,0.02767
7311.87,0.01864
7288.73,0.02211
7265.58,0.03062
7242.44,0.02686
7219.29,0.02200
7196.15,0.01890
7173,0.02124
7149.86,0.02514
7126.71,0.02366
7103.57,0.02039
7080.42,0.02712
7057.28,0.02077
7034.13,0.02182
7010.99,0.03070
6987.84,0.02398
6964.7,0.02172
6941.55,0.02090
6918.41,0.02569
6895.26,0.02070
6872.12,0.02472
6848.97,0.02155
6825.83,0.02317
6802.68,0.02267
6779.54,0.01950
6756.39,0.02306
6733.25,0.01770
6710.1,0.02249
6686.96,0.02133
6663.82,0.02404
6640.67,0.02263
6617.53,0.01907
6594.38,0.01947
6571.24,0.02322
6548.09,0.02530
6524.95,0.02537
6501.8,0.02687
6478.66,0.02347
6455.51,0.02466
6432.37,0.02066
6409.22,0.02603
6386.08,0.02179
6362.93,0.01984
6339.79,0.02189
6316.64,0.02481
6293.5,0.02412
6270.35,0.02544
6247.21,0.02209
6224.06,0.01838
6200.92,0.02359
6177.77,0.01727
6154.63,0.02004
6131.48,0.01927
6108.34,0.02397
6085.19,0.02352
6062.05,0.02142
6038.9,0.02255
6015.76,0.02203
5992.61,0.02013
5969.47,0.02303
5946.32,0.02110
5923.18,0.02228
5900.03,0.02024
5876.89,0.02221
5853.74,0.02087
5830.6,0.01995
5807.45,0.02172
5784.31,0.02209
5761.16,0.01968
5738.02,0.02149
5714.87,0.02110
5691.73,0.01909
5668.58,0.02161
5645.44,0.02306
5622.29,0.02097
5599.15,0.02229
5576,0.02140
5552.86,0.02033
5529.71,0.02247
5506.57,0.02201
5483.42,0.02180
5460.28,0.02171
5437.13,0.02214
5413.99,0.02278
5390.84,0.02228
5367.7,0.02224
5344.55,0.02337
5321.41,0.02372
5298.26,0.02076
5275.12,0.02162
5251.97,0.02219
5228.83,0.02282
5205.68,0.02252
5182.54,0.02177
5159.39,0.02231
5136.25,0.02271
5113.1,0.02237
5089.96,0.02168
5066.81,0.02190
5043.67,0.02246
5020.52,0.02207
4997.38,0.02246
4974.23,0.02260
4951.09,0.02134
4927.94,0.02160
4904.8,0.02209
4881.65,0.02180
4858.51,0.02255
4835.36,0.02130
4812.22,0.02161
4789.07,0.02197
4765.93,0.02263
4742.78,0.02174
4719.64,0.02340
4696.49,0.02180
4673.35,0.02181
4650.2,0.02208
4627.06,0.02308
4603.92,0.02230
4580.77,0.02237
4557.63,0.02242
4534.48,0.02233
4511.34,0.02181
4488.19,0.02257
4465.05,0.02273
4441.9,0.02244
4418.76,0.02191
4395.61,0.02187
4372.47,0.02286
4349.32,0.02205
4326.18,0.02255
4303.03,0.02292
4279.89,0.02125
4256.74,0.02241
4233.6,0.02168
4210.45,0.02209
4187.31,0.02232
4164.16,0.02241
4141.02,0.02198
4117.87,0.02274
4094.73,0.02218
4071.58,0.02183
4048.44,0.02269
4025.29,0.02277
4002.15,0.02318
3979,0.02154
3955.86,0.02296
3932.71,0.02214
3909.57,0.02255
3886.42,0.02313
3863.28,0.02229
3840.13,0.02252
3816.99,0.02271
3793.84,0.02192
3770.7,0.02239
3747.55,0.02307
3724.41,0.02303
3701.26,0.02210
3678.12,0.02168
3654.97,0.02227
3631.83,0.02216
3608.68,0.02137
3585.54,0.02207
3562.39,0.02124
3539.25,0.02143
3516.1,0.02044
3492.96,0.02101
3469.81,0.02053
3446.67,0.02072
3423.52,0.02024
3400.38,0.02033
3377.23,0.01990
3354.09,0.02044
3330.94,0.01985
3307.8,0.01986
3284.65,0.02089
3261.51,0.02021
3238.36,0.02065
3215.22,0.02002
3192.07,0.02098
3168.93,0.02112
3145.78,0.02056
3122.64,0.02089
3099.49,0.02023
3076.35,0.02031
3053.2,0.02002
3030.06,0.02046
3006.91,0.01996
2983.77,0.01955
2960.62,0.01899
2937.48,0.01985
2914.33,0.01963
2891.19,0.02014
2868.04,0.01969
2844.9,0.02057
2821.75,0.02113
2798.61,0.02107
2775.46,0.02102
2752.32,0.02063
2729.17,0.02099
2706.03,0.02111
2682.88,0.02132
2659.74,0.02113
2636.59,0.02079
2613.45,0.02069
2590.3,0.02106
2567.16,0.02088
2544.02,0.02095
2520.87,0.02088
2497.73,0.02106
2474.58,0.02087
2451.44,0.02037
2428.29,0.02061
2405.15,0.02100
2382,0.02064
2358.86,0.02120
2335.71,0.02070
2312.57,0.02082
2289.42,0.02093
2266.28,0.02080
2243.13,0.02095
2219.99,0.02074
2196.84,0.02076
2173.7,0.02102
2150.55,0.02074
2127.41,0.02062
2104.26,0.02058
2081.12,0.02093
2057.97,0.02062
2034.83,0.02046
2011.68,0.02077
1988.54,0.02054
1965.39,0.02068
1942.25,0.02047
1919.1,0.02022
1895.96,0.01996
1872.81,0.02009
1849.67,0.01982
1826.52,0.02025
1803.38,0.01949
1780.23,0.01874
1757.09,0.01716
1733.94,0.01906
1710.8,0.02014
1687.65,0.01866
1664.51,0.01832
1641.36,0.01844
1618.22,0.01866
1595.07,0.01846
1571.93,0.01828
1548.78,0.01778
1525.64,0.01830
1502.49,0.01851
1479.35,0.01807
1456.2,0.01815
1433.06,0.01835
1409.91,0.01825
1386.77,0.01810
1363.62,0.01769
1340.48,0.01755
1317.33,0.01668
1294.19,0.01774
1271.04,0.01901
1247.9,0.01968
1224.75,0.01880
1201.61,0.01858
1178.46,0.01784
1155.32,0.01747
1132.17,0.01788
1109.03,0.01839
1085.88,0.01780
1062.74,0.01877
1039.59,0.01881
1016.45,0.01913
993.304,0.02047
970.159,0.02022
947.014,0.01908
923.869,0.01973
900.724,0.01878
877.579,0.01930
854.434,0.01919
831.289,0.01977
808.144,0.01875
784.999,0.01922
761.854,0.01869
738.709,0.01789
715.565,0.01811
692.42,0.01819
669.275,0.01648
646.13,0.01731
622.985,0.01861
599.84,0.01676