File: 01_Data/FRP_Panel/Cone/FRP_Panel_HRRPUA_25.csv
Time after Ignition,FRP_Panel_R1,FRP_Panel_R2,FRP_Panel_R3,Mean,Std. Dev.
0.0,0.6,1.2,4.8,2.2,2.3
0.5,1.1,2.9,7.1,3.7,3.1
1.0,2.8,5.7,10.3,6.3,3.8
1.5,4.2,9.3,14.5,9.3,5.2
2.0,5.3,11.9,17.9,11.7,6.3
2.5,8.3,17.6,20.5,15.5,6.4
3.0,10.7,22.3,28.3,20.4,9.0
3.5,16.1,29.3,34.4,26.6,9.5
4.0,20.4,35.3,41.0,32.2,10.6
4.5,29.5,42.2,48.6,40.1,9.7
5.0,36.7,50.7,57.4,48.3,10.5
5.5,47.8,55.9,67.8,57.2,10.1
6.0,58.1,67.0,75.5,66.9,8.7
6.5,68.9,75.1,89.7,77.9,10.7
7.0,78.5,82.1,100.7,87.1,11.9
7.5,90.3,93.6,109.1,97.7,10.1
8.0,99.0,102.8,124.9,108.9,14.0
8.5,108.7,118.4,137.9,121.7,14.8
9.0,120.0,127.0,154.3,133.8,18.1
9.5,130.1,138.1,167.6,145.3,19.7
10.0,147.5,151.1,189.5,162.7,23.3
10.5,150.9,169.3,203.3,174.5,26.5
11.0,159.7,183.3,220.4,187.8,30.6
11.5,180.9,197.6,238.9,205.8,29.9
12.0,188.8,213.7,258.7,220.4,35.4
12.5,206.9,223.2,280.4,236.9,38.6
13.0,221.7,246.2,292.0,253.3,35.7
13.5,245.3,260.4,310.0,271.9,33.8
14.0,263.3,276.8,329.5,289.8,35.0
14.5,279.6,295.3,339.6,304.8,31.1
15.0,292.0,321.3,355.2,322.8,31.7
15.5,310.8,343.1,374.2,342.7,31.7
16.0,332.2,353.7,378.8,354.9,23.4
16.5,348.8,392.3,427.5,389.5,39.4
17.0,357.3,416.8,426.3,400.1,37.4
17.5,372.2,437.0,459.5,422.9,45.3
18.0,395.2,462.4,481.5,446.4,45.3
18.5,404.1,488.3,484.8,459.1,47.6
19.0,437.2,504.5,512.6,484.8,41.4
19.5,455.9,525.3,541.1,507.4,45.4
20.0,470.2,563.0,523.8,519.0,46.6
20.5,515.6,559.3,536.9,537.2,21.9
21.0,519.3,612.0,567.7,566.3,46.4
21.5,532.4,610.7,580.7,574.6,39.5
22.0,549.6,644.2,587.0,593.6,47.7
22.5,557.4,645.4,590.1,597.6,44.5
23.0,575.6,691.2,615.6,627.5,58.7
23.5,580.3,681.9,621.1,627.8,51.1
24.0,581.4,711.0,635.4,642.6,65.1
24.5,610.2,704.6,664.0,659.6,47.3
25.0,614.2,721.7,686.6,674.2,54.8
25.5,616.7,699.6,687.9,668.1,44.9
26.0,620.3,713.1,690.8,674.7,48.4
26.5,621.4,721.4,724.2,689.0,58.6
27.0,657.9,703.7,718.2,693.3,31.5
27.5,673.0,751.7,733.5,719.4,41.2
28.0,649.3,720.0,736.2,701.8,46.2
28.5,666.0,727.3,707.2,700.1,31.3
29.0,674.3,744.0,739.1,719.1,38.9
29.5,678.8,751.4,767.8,732.7,47.3
30.0,707.6,731.4,761.3,733.4,26.9
30.5,672.4,728.1,762.3,720.9,45.4
31.0,682.0,728.3,728.1,712.8,26.7
31.5,684.8,721.5,758.1,721.5,36.7
32.0,699.0,741.1,748.7,729.6,26.8
32.5,679.6,729.2,764.4,724.4,42.6
33.0,681.1,734.9,740.4,718.8,32.8
33.5,676.1,735.9,761.7,724.5,43.9
34.0,676.6,719.6,744.5,713.6,34.4
34.5,688.6,738.2,768.2,731.7,40.2
35.0,682.9,679.4,769.9,710.7,51.3
35.5,657.0,718.4,752.7,709.4,48.5
36.0,665.1,692.9,753.9,704.0,45.5
36.5,669.2,699.7,758.3,709.1,45.3
37.0,644.5,719.1,752.7,705.4,55.4
37.5,669.2,729.5,768.5,722.4,50.0
38.0,678.3,699.3,753.4,710.3,38.8
38.5,645.3,702.5,778.7,708.8,66.9
39.0,644.9,721.1,733.2,699.7,47.9
39.5,667.7,700.6,747.7,705.3,40.2
40.0,656.5,704.1,741.9,700.8,42.8
40.5,663.8,715.4,726.7,702.0,33.6
41.0,661.8,719.3,723.4,701.5,34.4
41.5,638.0,719.6,719.2,692.2,47.0
42.0,654.5,706.6,727.2,696.1,37.4
42.5,628.1,693.4,736.0,685.9,54.3
43.0,663.3,693.6,720.7,692.5,28.7
43.5,651.1,710.1,711.2,690.8,34.4
44.0,654.7,694.7,736.4,695.3,40.9
44.5,630.1,700.6,727.9,686.2,50.5
45.0,639.9,690.0,721.3,683.7,41.1
45.5,672.8,686.9,701.1,686.9,14.1
46.0,629.5,697.3,724.6,683.8,48.9
46.5,645.1,691.7,692.2,676.3,27.0
47.0,636.5,691.8,674.9,667.8,28.3
47.5,653.9,702.6,706.8,687.8,29.4
48.0,628.9,685.9,698.6,671.1,37.1
48.5,635.1,695.5,703.2,677.9,37.3
49.0,639.1,677.5,689.3,668.6,26.2
49.5,640.1,667.3,678.2,661.9,19.6
50.0,626.9,690.9,682.1,666.6,34.7
50.5,632.9,654.3,679.9,655.7,23.5
51.0,615.4,661.2,677.5,651.3,32.2
51.5,619.1,661.6,679.7,653.5,31.1
52.0,605.0,653.1,672.2,643.4,34.6
52.5,599.1,653.6,663.3,638.6,34.6
53.0,606.7,646.9,654.9,636.2,25.8
53.5,604.5,656.2,643.1,634.6,26.9
54.0,604.1,647.4,634.9,628.8,22.3
54.5,584.7,653.4,629.3,622.5,34.9
55.0,583.8,645.3,625.4,618.2,31.4
55.5,583.9,646.5,619.4,616.6,31.4
56.0,561.3,629.5,619.2,603.3,36.7
56.5,581.4,612.3,612.8,602.2,18.0
57.0,571.6,614.1,598.7,594.8,21.5
57.5,566.5,599.2,605.0,590.2,20.7
58.0,555.4,592.3,606.2,584.7,26.2
58.5,558.6,610.6,583.3,584.2,26.0
59.0,545.5,580.2,568.0,564.6,17.6
59.5,556.0,563.8,554.2,558.0,5.1
60.0,550.8,557.8,552.2,553.6,3.7
60.5,530.7,555.1,552.3,546.0,13.4
61.0,527.0,538.4,545.9,537.1,9.5
61.5,521.7,554.5,527.3,534.5,17.5
62.0,510.6,526.7,536.6,524.6,13.1
62.5,509.1,532.9,530.0,524.0,13.0
63.0,498.7,515.2,509.8,507.9,8.4
63.5,487.1,509.4,509.5,502.0,12.9
64.0,480.1,498.1,498.7,492.3,10.5
64.5,484.8,491.3,486.9,487.6,3.3
65.0,482.2,472.0,477.2,477.1,5.1
65.5,475.4,462.1,477.3,471.6,8.3
66.0,475.4,461.1,453.5,463.4,11.1
66.5,462.7,451.4,450.0,454.7,6.9
67.0,459.4,431.1,440.5,443.7,14.4
67.5,456.3,435.3,423.8,438.4,16.5
68.0,440.0,424.9,427.6,430.8,8.1
68.5,446.6,415.0,419.8,427.1,17.0
69.0,427.6,409.4,405.6,414.2,11.7
69.5,434.6,398.6,401.5,411.5,20.0
70.0,428.7,380.9,390.9,400.1,25.2
70.5,415.9,370.6,384.1,390.2,23.3
71.0,413.5,366.8,378.6,386.3,24.3
71.5,401.3,348.6,363.1,371.0,27.2
72.0,403.9,337.5,363.7,368.4,33.5
72.5,400.8,326.9,349.0,358.9,37.9
73.0,394.1,320.2,345.7,353.3,37.5
73.5,375.8,314.6,337.7,342.7,30.9
74.0,376.5,308.6,326.5,337.2,35.2
74.5,366.1,295.6,322.1,328.0,35.6
75.0,364.6,288.3,308.2,320.4,39.6
75.5,349.4,280.6,297.6,309.2,35.9
76.0,339.8,275.8,289.3,301.6,33.7
76.5,332.7,269.5,289.7,297.3,32.3
77.0,329.2,268.7,279.8,292.5,32.2
77.5,320.1,256.1,272.0,282.7,33.3
78.0,314.6,246.1,259.8,273.5,36.2
78.5,312.2,248.2,250.5,270.3,36.3
79.0,299.7,236.9,242.6,259.7,34.8
79.5,296.0,226.3,232.8,251.7,38.5
80.0,293.1,221.5,225.9,246.8,40.1
80.5,282.5,212.9,218.4,237.9,38.7
81.0,279.7,205.9,207.6,231.1,42.1
81.5,275.4,194.4,201.2,223.7,45.0
82.0,265.0,186.1,193.6,214.9,43.5
82.5,260.6,178.5,188.2,209.1,44.8
83.0,250.6,173.9,179.0,201.2,42.9
83.5,244.6,166.6,175.2,195.5,42.8
84.0,234.8,160.2,170.6,188.5,40.4
84.5,233.1,150.9,164.1,182.7,44.1
85.0,227.6,145.9,158.1,177.2,44.1
85.5,222.0,138.8,155.3,172.0,44.0
86.0,216.7,133.2,149.9,166.6,44.2
86.5,211.5,126.2,143.1,160.3,45.2
87.0,209.0,123.8,138.3,157.0,45.5
87.5,201.1,117.7,133.8,150.9,44.2
88.0,197.5,112.4,128.6,146.1,45.2
88.5,193.9,107.3,124.8,142.0,45.8
89.0,186.3,101.9,119.7,136.0,44.5
89.5,184.3,98.1,115.3,132.6,45.6
90.0,176.2,91.9,111.2,126.4,44.1
90.5,171.7,89.4,107.7,122.9,43.2
91.0,163.9,85.5,103.8,117.7,41.0
91.5,159.0,80.2,98.6,112.6,41.2
92.0,155.3,77.2,94.7,109.1,41.0
92.5,151.6,72.7,90.8,105.0,41.3
93.0,146.6,68.9,87.9,101.1,40.5
93.5,144.5,66.6,82.3,97.8,41.2
94.0,136.6,64.4,78.1,93.0,38.4
94.5,133.2,62.4,73.7,89.8,38.0
95.0,129.8,59.1,71.0,86.6,37.9
95.5,123.3,56.2,68.7,82.7,35.7
96.0,119.5,54.0,65.8,79.8,34.9
96.5,113.0,52.0,63.3,76.1,32.5
97.0,106.6,50.1,62.6,73.1,29.7
97.5,100.6,48.8,59.3,69.6,27.4
98.0,96.3,46.7,56.3,66.4,26.3
98.5,90.2,44.8,55.3,63.4,23.8
99.0,85.3,43.6,53.1,60.7,21.8
99.5,81.5,,51.3,66.4,21.4
100.0,75.9,,49.5,62.7,18.7
100.5,72.5,,47.9,60.2,17.4
101.0,67.1,,45.7,56.4,15.1
101.5,63.8,,44.6,54.2,13.6
102.0,60.2,,42.8,51.5,12.3
102.5,57.8,,41.8,49.8,11.3
103.0,54.5,,,54.5,
103.5,52.0,,,52.0,