File: 01_Data/Plywood/HFM/Plywood_Density_Wet_R1.csv
,Plywood_1_WET
Sample Mass [g],380.8
Sample Volume [cm3],742.7
Sample Density [kg/m3],512.7