File: 01_Data/Plywood/HFM/Plywood_Density_Dry_R2.csv
,Plywood_2_DRY
Sample Mass [g],337.2
Sample Volume [cm3],747.3
Sample Density [kg/m3],451.2