File: 01_Data/Plywood/HFM/Plywood_Density_Wet_R2.csv
,Plywood_2_WET
Sample Mass [g],362.9
Sample Volume [cm3],747.3
Sample Density [kg/m3],485.6