File: 01_Data/Plywood/HFM/Plywood_Density_Wet_R3.csv
,Exterior_Plywood_3_WET
Sample Mass [g],371.8
Sample Volume [cm3],749.0
Sample Density [kg/m3],496.4