File: 01_Data/Plywood/HFM/Plywood_Density_Dry_R3.csv
,Exterior_Plywood_3_WET
Sample Mass [g],345.1
Sample Volume [cm3],749.0
Sample Density [kg/m3],460.7