File: 01_Data/Plywood/HFM/Plywood_Density_Dry_R1.csv
,Plywood_1_DRY
Sample Mass [g],354.7
Sample Volume [cm3],742.7
Sample Density [kg/m3],477.6