File: 01_Data/HIPS/FTIR/IS/HIPS_IS_S_220901_R8.dpt
7497.03,0.83112
7473.89,0.81862
7450.74,0.81014
7427.6,0.80031
7404.45,0.80103
7381.31,0.80655
7358.16,0.80791
7335.02,0.78755
7311.87,0.77943
7288.73,0.75530
7265.58,0.73375
7242.44,0.72212
7219.29,0.72032
7196.15,0.69783
7173,0.69218
7149.86,0.69736
7126.71,0.68388
7103.57,0.68148
7080.42,0.66212
7057.28,0.66792
7034.13,0.67775
7010.99,0.68192
6987.84,0.68612
6964.7,0.68377
6941.55,0.68786
6918.41,0.69525
6895.26,0.70901
6872.12,0.71573
6848.97,0.72221
6825.83,0.72761
6802.68,0.72807
6779.54,0.72870
6756.39,0.73782
6733.25,0.73483
6710.1,0.74181
6686.96,0.74733
6663.82,0.75530
6640.67,0.76244
6617.53,0.76542
6594.38,0.76885
6571.24,0.76862
6548.09,0.77132
6524.95,0.77705
6501.8,0.78345
6478.66,0.79045
6455.51,0.79019
6432.37,0.79308
6409.22,0.79563
6386.08,0.79121
6362.93,0.77678
6339.79,0.78016
6316.64,0.77118
6293.5,0.75880
6270.35,0.75726
6247.21,0.73847
6224.06,0.71349
6200.92,0.68488
6177.77,0.64048
6154.63,0.55265
6131.48,0.48228
6108.34,0.42735
6085.19,0.42685
6062.05,0.45282
6038.9,0.44300
6015.76,0.32818
5992.61,0.24542
5969.47,0.19651
5946.32,0.18988
5923.18,0.20504
5900.03,0.22184
5876.89,0.26534
5853.74,0.29220
5830.6,0.29547
5807.45,0.29787
5784.31,0.30216
5761.16,0.35919
5738.02,0.39745
5714.87,0.36161
5691.73,0.33315
5668.58,0.31581
5645.44,0.34509
5622.29,0.37484
5599.15,0.37807
5576,0.37905
5552.86,0.38697
5529.71,0.38587
5506.57,0.39066
5483.42,0.40904
5460.28,0.41300
5437.13,0.40993
5413.99,0.40542
5390.84,0.40160
5367.7,0.40299
5344.55,0.41588
5321.41,0.42677
5298.26,0.43330
5275.12,0.43544
5251.97,0.43468
5228.83,0.43403
5205.68,0.44397
5182.54,0.44888
5159.39,0.45038
5136.25,0.44582
5113.1,0.44533
5089.96,0.44990
5066.81,0.45089
5043.67,0.44976
5020.52,0.45166
4997.38,0.44823
4974.23,0.43860
4951.09,0.44231
4927.94,0.44096
4904.8,0.43983
4881.65,0.43212
4858.51,0.42417
4835.36,0.41051
4812.22,0.41316
4789.07,0.40723
4765.93,0.37249
4742.78,0.36157
4719.64,0.31345
4696.49,0.26615
4673.35,0.14920
4650.2,0.14961
4627.06,0.13164
4603.92,0.12633
4580.77,0.16427
4557.63,0.18569
4534.48,0.23039
4511.34,0.23250
4488.19,0.24536
4465.05,0.26051
4441.9,0.23995
4418.76,0.22726
4395.61,0.19457
4372.47,0.15665
4349.32,0.12776
4326.18,0.11832
4303.03,0.13717
4279.89,0.12326
4256.74,0.10469
4233.6,0.10569
4210.45,0.10678
4187.31,0.11473
4164.16,0.12188
4141.02,0.12191
4117.87,0.11292
4094.73,0.10520
4071.58,0.08909
4048.44,0.08145
4025.29,0.08687
4002.15,0.10675
3979,0.11831
3955.86,0.12264
3932.71,0.12025
3909.57,0.12493
3886.42,0.12773
3863.28,0.12737
3840.13,0.12523
3816.99,0.11916
3793.84,0.12220
3770.7,0.12733
3747.55,0.13350
3724.41,0.12444
3701.26,0.11841
3678.12,0.11617
3654.97,0.10473
3631.83,0.11712
3608.68,0.13131
3585.54,0.13907
3562.39,0.15023
3539.25,0.14723
3516.1,0.14265
3492.96,0.13629
3469.81,0.12848
3446.67,0.12374
3423.52,0.13197
3400.38,0.13535
3377.23,0.13791
3354.09,0.14032
3330.94,0.13426
3307.8,0.11623
3284.65,0.11731
3261.51,0.12014
3238.36,0.11551
3215.22,0.10743
3192.07,0.09710
3168.93,0.08659
3145.78,0.08395
3122.64,0.07623
3099.49,0.06611
3076.35,0.06462
3053.2,0.06575
3030.06,0.06361
3006.91,0.06774
2983.77,0.06716
2960.62,0.06511
2937.48,0.06283
2914.33,0.06813
2891.19,0.06868
2868.04,0.06757
2844.9,0.06874
2821.75,0.07005
2798.61,0.07107
2775.46,0.07328
2752.32,0.07558
2729.17,0.07484
2706.03,0.07471
2682.88,0.07416
2659.74,0.07435
2636.59,0.07316
2613.45,0.07458
2590.3,0.07542
2567.16,0.07609
2544.02,0.07505
2520.87,0.07525
2497.73,0.07561
2474.58,0.07850
2451.44,0.07997
2428.29,0.08142
2405.15,0.08024
2382,0.07832
2358.86,0.07478
2335.71,0.07116
2312.57,0.07292
2289.42,0.07723
2266.28,0.07818
2243.13,0.07869
2219.99,0.08075
2196.84,0.08185
2173.7,0.08295
2150.55,0.08366
2127.41,0.08587
2104.26,0.08677
2081.12,0.08763
2057.97,0.08553
2034.83,0.08215
2011.68,0.07874
1988.54,0.07101
1965.39,0.06685
1942.25,0.06615
1919.1,0.06857
1895.96,0.06744
1872.81,0.06588
1849.67,0.06842
1826.52,0.06678
1803.38,0.06564
1780.23,0.06707
1757.09,0.06565
1733.94,0.06575
1710.8,0.06683
1687.65,0.06533
1664.51,0.06504
1641.36,0.06521
1618.22,0.06459
1595.07,0.06586
1571.93,0.06589
1548.78,0.06426
1525.64,0.06432
1502.49,0.06052
1479.35,0.06564
1456.2,0.05972
1433.06,0.06793
1409.91,0.06606
1386.77,0.06414
1363.62,0.06472
1340.48,0.06496
1317.33,0.06452
1294.19,0.06501
1271.04,0.06506
1247.9,0.06522
1224.75,0.06494
1201.61,0.06391
1178.46,0.06473
1155.32,0.06446
1132.17,0.06534
1109.03,0.06437
1085.88,0.06313
1062.74,0.06417
1039.59,0.06366
1016.45,0.06718
993.304,0.06398
970.159,0.06336
947.014,0.06272
923.869,0.06316
900.724,0.06398
877.579,0.06244
854.434,0.06194
831.289,0.06118
808.144,0.05928
784.999,0.05544
761.854,0.05696
738.709,0.06530
715.565,0.04967
692.42,0.11269
669.275,0.07460
646.13,0.07074
622.985,0.06650
599.84,0.06616