File: 01_Data/HIPS/FTIR/IS/HIPS_IS_S_220901_R3.dpt
7497.03,0.82472
7473.89,0.81853
7450.74,0.81194
7427.6,0.79676
7404.45,0.79698
7381.31,0.80803
7358.16,0.80007
7335.02,0.79379
7311.87,0.77928
7288.73,0.75559
7265.58,0.74625
7242.44,0.72647
7219.29,0.72083
7196.15,0.69657
7173,0.69084
7149.86,0.69259
7126.71,0.69412
7103.57,0.67952
7080.42,0.66998
7057.28,0.67082
7034.13,0.67806
7010.99,0.68511
6987.84,0.68845
6964.7,0.68336
6941.55,0.69251
6918.41,0.70478
6895.26,0.71061
6872.12,0.71942
6848.97,0.72032
6825.83,0.72724
6802.68,0.72962
6779.54,0.74185
6756.39,0.74025
6733.25,0.74205
6710.1,0.74352
6686.96,0.75213
6663.82,0.75864
6640.67,0.77073
6617.53,0.76417
6594.38,0.76928
6571.24,0.77342
6548.09,0.77832
6524.95,0.78213
6501.8,0.78999
6478.66,0.79752
6455.51,0.79970
6432.37,0.79970
6409.22,0.79824
6386.08,0.79248
6362.93,0.78140
6339.79,0.78199
6316.64,0.77298
6293.5,0.76090
6270.35,0.75655
6247.21,0.73983
6224.06,0.71865
6200.92,0.69109
6177.77,0.64220
6154.63,0.55668
6131.48,0.48210
6108.34,0.42684
6085.19,0.43077
6062.05,0.45543
6038.9,0.44202
6015.76,0.32907
5992.61,0.24659
5969.47,0.19628
5946.32,0.18991
5923.18,0.20523
5900.03,0.21913
5876.89,0.26397
5853.74,0.29085
5830.6,0.29612
5807.45,0.29949
5784.31,0.30505
5761.16,0.35828
5738.02,0.39925
5714.87,0.36271
5691.73,0.33453
5668.58,0.31717
5645.44,0.34791
5622.29,0.37738
5599.15,0.38070
5576,0.38152
5552.86,0.38964
5529.71,0.38743
5506.57,0.39191
5483.42,0.40704
5460.28,0.41396
5437.13,0.41130
5413.99,0.40830
5390.84,0.40370
5367.7,0.40266
5344.55,0.41557
5321.41,0.42829
5298.26,0.43331
5275.12,0.43621
5251.97,0.43518
5228.83,0.43510
5205.68,0.44606
5182.54,0.44895
5159.39,0.45130
5136.25,0.44685
5113.1,0.44594
5089.96,0.45306
5066.81,0.45289
5043.67,0.45161
5020.52,0.45407
4997.38,0.45028
4974.23,0.44261
4951.09,0.44479
4927.94,0.44219
4904.8,0.44216
4881.65,0.43275
4858.51,0.42536
4835.36,0.41237
4812.22,0.41513
4789.07,0.41062
4765.93,0.37380
4742.78,0.36372
4719.64,0.31534
4696.49,0.26756
4673.35,0.14811
4650.2,0.15130
4627.06,0.13277
4603.92,0.12761
4580.77,0.16504
4557.63,0.18602
4534.48,0.23240
4511.34,0.23442
4488.19,0.24605
4465.05,0.26136
4441.9,0.24091
4418.76,0.22914
4395.61,0.19519
4372.47,0.15729
4349.32,0.12898
4326.18,0.11986
4303.03,0.13729
4279.89,0.12402
4256.74,0.10492
4233.6,0.10649
4210.45,0.10799
4187.31,0.11598
4164.16,0.12261
4141.02,0.12177
4117.87,0.11306
4094.73,0.10581
4071.58,0.08856
4048.44,0.08197
4025.29,0.08640
4002.15,0.10741
3979,0.11821
3955.86,0.12325
3932.71,0.12075
3909.57,0.12496
3886.42,0.12790
3863.28,0.12804
3840.13,0.12538
3816.99,0.11920
3793.84,0.12242
3770.7,0.12843
3747.55,0.13348
3724.41,0.12477
3701.26,0.11794
3678.12,0.11476
3654.97,0.10410
3631.83,0.11722
3608.68,0.13073
3585.54,0.13622
3562.39,0.14995
3539.25,0.14746
3516.1,0.14278
3492.96,0.13683
3469.81,0.12890
3446.67,0.12320
3423.52,0.13265
3400.38,0.13542
3377.23,0.13720
3354.09,0.14153
3330.94,0.13536
3307.8,0.11656
3284.65,0.11777
3261.51,0.11963
3238.36,0.11608
3215.22,0.10808
3192.07,0.09761
3168.93,0.08687
3145.78,0.08390
3122.64,0.07574
3099.49,0.06631
3076.35,0.06559
3053.2,0.06595
3030.06,0.06382
3006.91,0.06748
2983.77,0.06685
2960.62,0.06530
2937.48,0.06252
2914.33,0.06906
2891.19,0.06856
2868.04,0.06758
2844.9,0.06847
2821.75,0.07014
2798.61,0.07168
2775.46,0.07385
2752.32,0.07626
2729.17,0.07554
2706.03,0.07491
2682.88,0.07413
2659.74,0.07451
2636.59,0.07319
2613.45,0.07479
2590.3,0.07557
2567.16,0.07583
2544.02,0.07548
2520.87,0.07561
2497.73,0.07616
2474.58,0.07841
2451.44,0.08010
2428.29,0.08152
2405.15,0.08030
2382,0.07877
2358.86,0.07590
2335.71,0.07151
2312.57,0.07347
2289.42,0.07778
2266.28,0.07836
2243.13,0.07909
2219.99,0.08077
2196.84,0.08210
2173.7,0.08308
2150.55,0.08407
2127.41,0.08602
2104.26,0.08714
2081.12,0.08757
2057.97,0.08545
2034.83,0.08260
2011.68,0.07914
1988.54,0.07145
1965.39,0.06726
1942.25,0.06649
1919.1,0.06950
1895.96,0.06770
1872.81,0.06610
1849.67,0.06908
1826.52,0.06679
1803.38,0.06592
1780.23,0.06685
1757.09,0.06593
1733.94,0.06628
1710.8,0.06702
1687.65,0.06555
1664.51,0.06514
1641.36,0.06566
1618.22,0.06484
1595.07,0.06637
1571.93,0.06567
1548.78,0.06439
1525.64,0.06437
1502.49,0.06037
1479.35,0.06594
1456.2,0.05957
1433.06,0.06766
1409.91,0.06611
1386.77,0.06469
1363.62,0.06545
1340.48,0.06511
1317.33,0.06486
1294.19,0.06496
1271.04,0.06509
1247.9,0.06507
1224.75,0.06444
1201.61,0.06446
1178.46,0.06481
1155.32,0.06436
1132.17,0.06563
1109.03,0.06397
1085.88,0.06254
1062.74,0.06400
1039.59,0.06323
1016.45,0.06660
993.304,0.06493
970.159,0.06356
947.014,0.06379
923.869,0.06278
900.724,0.06381
877.579,0.06228
854.434,0.06152
831.289,0.06088
808.144,0.05957
784.999,0.05486
761.854,0.05519
738.709,0.06500
715.565,0.05034
692.42,0.11137
669.275,0.07420
646.13,0.06985
622.985,0.06956
599.84,0.06772