File: 01_Data/HIPS/FTIR/IS/HIPS_IS_T_220901_R4.dpt
7497.03,0.02567
7473.89,0.02334
7450.74,0.02339
7427.6,0.02548
7404.45,0.02022
7381.31,0.02912
7358.16,0.01631
7335.02,0.02799
7311.87,0.02391
7288.73,0.01842
7265.58,0.02367
7242.44,0.01914
7219.29,0.02628
7196.15,0.02323
7173,0.03312
7149.86,0.02253
7126.71,0.02370
7103.57,0.01663
7080.42,0.02093
7057.28,0.02934
7034.13,0.02340
7010.99,0.01696
6987.84,0.02012
6964.7,0.02501
6941.55,0.02978
6918.41,0.02548
6895.26,0.02084
6872.12,0.02084
6848.97,0.02339
6825.83,0.02646
6802.68,0.02134
6779.54,0.02063
6756.39,0.02577
6733.25,0.03092
6710.1,0.01836
6686.96,0.02393
6663.82,0.02362
6640.67,0.02191
6617.53,0.02561
6594.38,0.02306
6571.24,0.01843
6548.09,0.02337
6524.95,0.02586
6501.8,0.02072
6478.66,0.02571
6455.51,0.02471
6432.37,0.02286
6409.22,0.01794
6386.08,0.02382
6362.93,0.02202
6339.79,0.02607
6316.64,0.02219
6293.5,0.02140
6270.35,0.01938
6247.21,0.02098
6224.06,0.01887
6200.92,0.02454
6177.77,0.02098
6154.63,0.02479
6131.48,0.02231
6108.34,0.02256
6085.19,0.02419
6062.05,0.02072
6038.9,0.02209
6015.76,0.01939
5992.61,0.02156
5969.47,0.02250
5946.32,0.02164
5923.18,0.02051
5900.03,0.02041
5876.89,0.02221
5853.74,0.02361
5830.6,0.02106
5807.45,0.01876
5784.31,0.02105
5761.16,0.02023
5738.02,0.02146
5714.87,0.02235
5691.73,0.02122
5668.58,0.02262
5645.44,0.02095
5622.29,0.02236
5599.15,0.02381
5576,0.02322
5552.86,0.02240
5529.71,0.02193
5506.57,0.02175
5483.42,0.02044
5460.28,0.02254
5437.13,0.02175
5413.99,0.02269
5390.84,0.02177
5367.7,0.02097
5344.55,0.02187
5321.41,0.02237
5298.26,0.02305
5275.12,0.02269
5251.97,0.02212
5228.83,0.02328
5205.68,0.02372
5182.54,0.02314
5159.39,0.02238
5136.25,0.02205
5113.1,0.02168
5089.96,0.02184
5066.81,0.02308
5043.67,0.02271
5020.52,0.02207
4997.38,0.02180
4974.23,0.02219
4951.09,0.02306
4927.94,0.02237
4904.8,0.02168
4881.65,0.02193
4858.51,0.02362
4835.36,0.02233
4812.22,0.02089
4789.07,0.02294
4765.93,0.02251
4742.78,0.02294
4719.64,0.02180
4696.49,0.02269
4673.35,0.02233
4650.2,0.02304
4627.06,0.02254
4603.92,0.02194
4580.77,0.02229
4557.63,0.02188
4534.48,0.02262
4511.34,0.02220
4488.19,0.02299
4465.05,0.02267
4441.9,0.02238
4418.76,0.02260
4395.61,0.02213
4372.47,0.02252
4349.32,0.02221
4326.18,0.02297
4303.03,0.02206
4279.89,0.02174
4256.74,0.02277
4233.6,0.02236
4210.45,0.02254
4187.31,0.02270
4164.16,0.02280
4141.02,0.02290
4117.87,0.02247
4094.73,0.02268
4071.58,0.02302
4048.44,0.02185
4025.29,0.02343
4002.15,0.02265
3979,0.02239
3955.86,0.02257
3932.71,0.02298
3909.57,0.02208
3886.42,0.02261
3863.28,0.02235
3840.13,0.02287
3816.99,0.02341
3793.84,0.02273
3770.7,0.02245
3747.55,0.02208
3724.41,0.02315
3701.26,0.02242
3678.12,0.02231
3654.97,0.02255
3631.83,0.02206
3608.68,0.02193
3585.54,0.02200
3562.39,0.02099
3539.25,0.02159
3516.1,0.02105
3492.96,0.02059
3469.81,0.02110
3446.67,0.02134
3423.52,0.02072
3400.38,0.02081
3377.23,0.02103
3354.09,0.02072
3330.94,0.02007
3307.8,0.02036
3284.65,0.02071
3261.51,0.02132
3238.36,0.02071
3215.22,0.02058
3192.07,0.02114
3168.93,0.02085
3145.78,0.02104
3122.64,0.02147
3099.49,0.02038
3076.35,0.02100
3053.2,0.02121
3030.06,0.02061
3006.91,0.02034
2983.77,0.02061
2960.62,0.01936
2937.48,0.01975
2914.33,0.02051
2891.19,0.02073
2868.04,0.02077
2844.9,0.02111
2821.75,0.02142
2798.61,0.02100
2775.46,0.02123
2752.32,0.02179
2729.17,0.02134
2706.03,0.02070
2682.88,0.02168
2659.74,0.02176
2636.59,0.02165
2613.45,0.02161
2590.3,0.02131
2567.16,0.02128
2544.02,0.02090
2520.87,0.02132
2497.73,0.02146
2474.58,0.02170
2451.44,0.02092
2428.29,0.02150
2405.15,0.02123
2382,0.02179
2358.86,0.02126
2335.71,0.02095
2312.57,0.02133
2289.42,0.02112
2266.28,0.02110
2243.13,0.02085
2219.99,0.02133
2196.84,0.02116
2173.7,0.02099
2150.55,0.02082
2127.41,0.02104
2104.26,0.02084
2081.12,0.02090
2057.97,0.02107
2034.83,0.02114
2011.68,0.02117
1988.54,0.02079
1965.39,0.02070
1942.25,0.02111
1919.1,0.02055
1895.96,0.02026
1872.81,0.02054
1849.67,0.02028
1826.52,0.02019
1803.38,0.02009
1780.23,0.01931
1757.09,0.01746
1733.94,0.01979
1710.8,0.02093
1687.65,0.01911
1664.51,0.01908
1641.36,0.01873
1618.22,0.01926
1595.07,0.01913
1571.93,0.01865
1548.78,0.01816
1525.64,0.01879
1502.49,0.01920
1479.35,0.01888
1456.2,0.01893
1433.06,0.01904
1409.91,0.01826
1386.77,0.01807
1363.62,0.01825
1340.48,0.01811
1317.33,0.01726
1294.19,0.01804
1271.04,0.01974
1247.9,0.02021
1224.75,0.02003
1201.61,0.01850
1178.46,0.01826
1155.32,0.01780
1132.17,0.01821
1109.03,0.01883
1085.88,0.01798
1062.74,0.02001
1039.59,0.02002
1016.45,0.01973
993.304,0.02067
970.159,0.02033
947.014,0.02063
923.869,0.01977
900.724,0.01945
877.579,0.01893
854.434,0.01879
831.289,0.01868
808.144,0.01948
784.999,0.01902
761.854,0.01863
738.709,0.01805
715.565,0.01837
692.42,0.01751
669.275,0.01715
646.13,0.01751
622.985,0.01451
599.84,0.01364