File: 01_Data/HIPS/FTIR/IS/HIPS_IS_S_220901_R6.dpt
7497.03,0.81930
7473.89,0.82781
7450.74,0.80577
7427.6,0.79593
7404.45,0.79277
7381.31,0.80562
7358.16,0.81875
7335.02,0.79961
7311.87,0.77704
7288.73,0.75796
7265.58,0.74352
7242.44,0.73077
7219.29,0.71959
7196.15,0.70670
7173,0.69588
7149.86,0.69570
7126.71,0.68654
7103.57,0.68447
7080.42,0.67674
7057.28,0.67432
7034.13,0.67869
7010.99,0.68529
6987.84,0.69042
6964.7,0.68881
6941.55,0.69412
6918.41,0.69666
6895.26,0.71246
6872.12,0.71308
6848.97,0.72877
6825.83,0.73366
6802.68,0.73365
6779.54,0.74058
6756.39,0.74516
6733.25,0.74284
6710.1,0.75018
6686.96,0.74972
6663.82,0.76320
6640.67,0.76509
6617.53,0.77032
6594.38,0.77294
6571.24,0.77713
6548.09,0.77571
6524.95,0.77850
6501.8,0.79202
6478.66,0.79664
6455.51,0.80501
6432.37,0.80160
6409.22,0.80138
6386.08,0.79440
6362.93,0.78355
6339.79,0.78214
6316.64,0.77693
6293.5,0.76286
6270.35,0.76051
6247.21,0.73945
6224.06,0.71994
6200.92,0.69271
6177.77,0.64321
6154.63,0.56017
6131.48,0.48405
6108.34,0.43126
6085.19,0.43081
6062.05,0.45646
6038.9,0.44350
6015.76,0.33077
5992.61,0.24478
5969.47,0.19627
5946.32,0.19024
5923.18,0.20544
5900.03,0.22105
5876.89,0.26557
5853.74,0.29324
5830.6,0.29794
5807.45,0.29691
5784.31,0.30381
5761.16,0.36057
5738.02,0.40258
5714.87,0.36295
5691.73,0.33649
5668.58,0.31742
5645.44,0.34583
5622.29,0.37902
5599.15,0.37930
5576,0.38175
5552.86,0.38896
5529.71,0.38728
5506.57,0.39203
5483.42,0.40845
5460.28,0.41450
5437.13,0.41198
5413.99,0.40939
5390.84,0.40460
5367.7,0.40464
5344.55,0.41735
5321.41,0.43028
5298.26,0.43462
5275.12,0.43615
5251.97,0.43575
5228.83,0.43584
5205.68,0.44431
5182.54,0.44994
5159.39,0.45270
5136.25,0.44839
5113.1,0.44848
5089.96,0.45292
5066.81,0.45478
5043.67,0.45154
5020.52,0.45536
4997.38,0.45063
4974.23,0.44257
4951.09,0.44471
4927.94,0.44372
4904.8,0.44244
4881.65,0.43338
4858.51,0.42771
4835.36,0.41246
4812.22,0.41474
4789.07,0.40911
4765.93,0.37454
4742.78,0.36496
4719.64,0.31619
4696.49,0.26749
4673.35,0.14881
4650.2,0.15083
4627.06,0.13324
4603.92,0.12786
4580.77,0.16558
4557.63,0.18721
4534.48,0.23238
4511.34,0.23369
4488.19,0.24660
4465.05,0.26225
4441.9,0.24126
4418.76,0.22900
4395.61,0.19504
4372.47,0.15782
4349.32,0.12778
4326.18,0.11901
4303.03,0.13722
4279.89,0.12446
4256.74,0.10460
4233.6,0.10627
4210.45,0.10703
4187.31,0.11569
4164.16,0.12297
4141.02,0.12207
4117.87,0.11355
4094.73,0.10582
4071.58,0.08904
4048.44,0.08174
4025.29,0.08692
4002.15,0.10705
3979,0.11876
3955.86,0.12277
3932.71,0.12027
3909.57,0.12522
3886.42,0.12853
3863.28,0.12853
3840.13,0.12571
3816.99,0.11981
3793.84,0.12275
3770.7,0.12876
3747.55,0.13329
3724.41,0.12526
3701.26,0.11862
3678.12,0.11654
3654.97,0.10439
3631.83,0.11774
3608.68,0.13129
3585.54,0.13795
3562.39,0.15038
3539.25,0.14800
3516.1,0.14357
3492.96,0.13691
3469.81,0.12896
3446.67,0.12390
3423.52,0.13115
3400.38,0.13585
3377.23,0.13827
3354.09,0.14159
3330.94,0.13526
3307.8,0.11640
3284.65,0.11781
3261.51,0.11934
3238.36,0.11613
3215.22,0.10758
3192.07,0.09725
3168.93,0.08691
3145.78,0.08479
3122.64,0.07577
3099.49,0.06656
3076.35,0.06547
3053.2,0.06559
3030.06,0.06402
3006.91,0.06759
2983.77,0.06713
2960.62,0.06558
2937.48,0.06337
2914.33,0.06910
2891.19,0.06867
2868.04,0.06805
2844.9,0.06913
2821.75,0.07024
2798.61,0.07174
2775.46,0.07354
2752.32,0.07607
2729.17,0.07462
2706.03,0.07529
2682.88,0.07454
2659.74,0.07454
2636.59,0.07337
2613.45,0.07530
2590.3,0.07540
2567.16,0.07589
2544.02,0.07571
2520.87,0.07558
2497.73,0.07603
2474.58,0.07856
2451.44,0.08045
2428.29,0.08199
2405.15,0.08032
2382,0.07881
2358.86,0.07582
2335.71,0.07150
2312.57,0.07341
2289.42,0.07782
2266.28,0.07891
2243.13,0.07888
2219.99,0.08129
2196.84,0.08203
2173.7,0.08306
2150.55,0.08407
2127.41,0.08620
2104.26,0.08713
2081.12,0.08826
2057.97,0.08564
2034.83,0.08263
2011.68,0.07944
1988.54,0.07174
1965.39,0.06704
1942.25,0.06614
1919.1,0.06939
1895.96,0.06742
1872.81,0.06616
1849.67,0.06898
1826.52,0.06710
1803.38,0.06541
1780.23,0.06742
1757.09,0.06595
1733.94,0.06624
1710.8,0.06700
1687.65,0.06605
1664.51,0.06541
1641.36,0.06545
1618.22,0.06476
1595.07,0.06608
1571.93,0.06595
1548.78,0.06456
1525.64,0.06424
1502.49,0.06046
1479.35,0.06581
1456.2,0.05933
1433.06,0.06813
1409.91,0.06618
1386.77,0.06473
1363.62,0.06525
1340.48,0.06533
1317.33,0.06489
1294.19,0.06530
1271.04,0.06512
1247.9,0.06538
1224.75,0.06434
1201.61,0.06449
1178.46,0.06467
1155.32,0.06468
1132.17,0.06559
1109.03,0.06436
1085.88,0.06352
1062.74,0.06420
1039.59,0.06323
1016.45,0.06693
993.304,0.06429
970.159,0.06337
947.014,0.06317
923.869,0.06278
900.724,0.06348
877.579,0.06188
854.434,0.06039
831.289,0.06164
808.144,0.05909
784.999,0.05450
761.854,0.05557
738.709,0.06596
715.565,0.04920
692.42,0.11264
669.275,0.07461
646.13,0.06887
622.985,0.06587
599.84,0.06778