File: 01_Data/HIPS/FTIR/IS/HIPS_IS_S_220901_R5.dpt
7497.03,0.83202
7473.89,0.83025
7450.74,0.80142
7427.6,0.79760
7404.45,0.79401
7381.31,0.79033
7358.16,0.80204
7335.02,0.79309
7311.87,0.77955
7288.73,0.75082
7265.58,0.74119
7242.44,0.72565
7219.29,0.71804
7196.15,0.70314
7173,0.69010
7149.86,0.69270
7126.71,0.69064
7103.57,0.68058
7080.42,0.67668
7057.28,0.67671
7034.13,0.67722
7010.99,0.68352
6987.84,0.68361
6964.7,0.68549
6941.55,0.68949
6918.41,0.69929
6895.26,0.70079
6872.12,0.71021
6848.97,0.72374
6825.83,0.72056
6802.68,0.73013
6779.54,0.73558
6756.39,0.73895
6733.25,0.74072
6710.1,0.74235
6686.96,0.75491
6663.82,0.75847
6640.67,0.76291
6617.53,0.76497
6594.38,0.76245
6571.24,0.77022
6548.09,0.77685
6524.95,0.77966
6501.8,0.78569
6478.66,0.79048
6455.51,0.79724
6432.37,0.79877
6409.22,0.79950
6386.08,0.78952
6362.93,0.77760
6339.79,0.77539
6316.64,0.77255
6293.5,0.76066
6270.35,0.75081
6247.21,0.73474
6224.06,0.71423
6200.92,0.68693
6177.77,0.64302
6154.63,0.55527
6131.48,0.48477
6108.34,0.42593
6085.19,0.42903
6062.05,0.45395
6038.9,0.44101
6015.76,0.32721
5992.61,0.24368
5969.47,0.19487
5946.32,0.18999
5923.18,0.20640
5900.03,0.22014
5876.89,0.26450
5853.74,0.29184
5830.6,0.29524
5807.45,0.29603
5784.31,0.30233
5761.16,0.35849
5738.02,0.40073
5714.87,0.36365
5691.73,0.33268
5668.58,0.31767
5645.44,0.34673
5622.29,0.37695
5599.15,0.38035
5576,0.38003
5552.86,0.38721
5529.71,0.38650
5506.57,0.38979
5483.42,0.40799
5460.28,0.41464
5437.13,0.41017
5413.99,0.40782
5390.84,0.40218
5367.7,0.40374
5344.55,0.41709
5321.41,0.42823
5298.26,0.43144
5275.12,0.43621
5251.97,0.43389
5228.83,0.43519
5205.68,0.44271
5182.54,0.44748
5159.39,0.45058
5136.25,0.44501
5113.1,0.44590
5089.96,0.45035
5066.81,0.45118
5043.67,0.44890
5020.52,0.45281
4997.38,0.44955
4974.23,0.44043
4951.09,0.44324
4927.94,0.44119
4904.8,0.44131
4881.65,0.43315
4858.51,0.42448
4835.36,0.41204
4812.22,0.41554
4789.07,0.40876
4765.93,0.37246
4742.78,0.36295
4719.64,0.31574
4696.49,0.26535
4673.35,0.14838
4650.2,0.14940
4627.06,0.13277
4603.92,0.12560
4580.77,0.16490
4557.63,0.18633
4534.48,0.23081
4511.34,0.23330
4488.19,0.24578
4465.05,0.26160
4441.9,0.24056
4418.76,0.22806
4395.61,0.19497
4372.47,0.15657
4349.32,0.12751
4326.18,0.11869
4303.03,0.13684
4279.89,0.12422
4256.74,0.10465
4233.6,0.10606
4210.45,0.10766
4187.31,0.11549
4164.16,0.12216
4141.02,0.12119
4117.87,0.11285
4094.73,0.10538
4071.58,0.08845
4048.44,0.08166
4025.29,0.08612
4002.15,0.10679
3979,0.11883
3955.86,0.12288
3932.71,0.12103
3909.57,0.12506
3886.42,0.12774
3863.28,0.12831
3840.13,0.12595
3816.99,0.11908
3793.84,0.12289
3770.7,0.12805
3747.55,0.13307
3724.41,0.12469
3701.26,0.11828
3678.12,0.11585
3654.97,0.10470
3631.83,0.11726
3608.68,0.13101
3585.54,0.13801
3562.39,0.15049
3539.25,0.14763
3516.1,0.14284
3492.96,0.13670
3469.81,0.12857
3446.67,0.12309
3423.52,0.13123
3400.38,0.13516
3377.23,0.13779
3354.09,0.14059
3330.94,0.13514
3307.8,0.11605
3284.65,0.11765
3261.51,0.11941
3238.36,0.11551
3215.22,0.10783
3192.07,0.09738
3168.93,0.08725
3145.78,0.08360
3122.64,0.07532
3099.49,0.06625
3076.35,0.06501
3053.2,0.06595
3030.06,0.06376
3006.91,0.06735
2983.77,0.06710
2960.62,0.06496
2937.48,0.06300
2914.33,0.06842
2891.19,0.06886
2868.04,0.06788
2844.9,0.06845
2821.75,0.07013
2798.61,0.07155
2775.46,0.07322
2752.32,0.07587
2729.17,0.07517
2706.03,0.07480
2682.88,0.07453
2659.74,0.07440
2636.59,0.07347
2613.45,0.07468
2590.3,0.07524
2567.16,0.07622
2544.02,0.07543
2520.87,0.07507
2497.73,0.07583
2474.58,0.07850
2451.44,0.07998
2428.29,0.08130
2405.15,0.08033
2382,0.07872
2358.86,0.07527
2335.71,0.07128
2312.57,0.07330
2289.42,0.07756
2266.28,0.07861
2243.13,0.07902
2219.99,0.08087
2196.84,0.08225
2173.7,0.08299
2150.55,0.08409
2127.41,0.08646
2104.26,0.08730
2081.12,0.08740
2057.97,0.08509
2034.83,0.08249
2011.68,0.07897
1988.54,0.07128
1965.39,0.06685
1942.25,0.06611
1919.1,0.06928
1895.96,0.06760
1872.81,0.06604
1849.67,0.06903
1826.52,0.06702
1803.38,0.06561
1780.23,0.06726
1757.09,0.06579
1733.94,0.06647
1710.8,0.06713
1687.65,0.06537
1664.51,0.06503
1641.36,0.06514
1618.22,0.06435
1595.07,0.06638
1571.93,0.06607
1548.78,0.06422
1525.64,0.06421
1502.49,0.06055
1479.35,0.06603
1456.2,0.05942
1433.06,0.06800
1409.91,0.06601
1386.77,0.06426
1363.62,0.06512
1340.48,0.06501
1317.33,0.06474
1294.19,0.06490
1271.04,0.06545
1247.9,0.06496
1224.75,0.06485
1201.61,0.06389
1178.46,0.06451
1155.32,0.06447
1132.17,0.06594
1109.03,0.06380
1085.88,0.06330
1062.74,0.06415
1039.59,0.06329
1016.45,0.06610
993.304,0.06438
970.159,0.06321
947.014,0.06345
923.869,0.06267
900.724,0.06331
877.579,0.06221
854.434,0.06143
831.289,0.06056
808.144,0.05903
784.999,0.05467
761.854,0.05507
738.709,0.06535
715.565,0.04943
692.42,0.11254
669.275,0.07412
646.13,0.07020
622.985,0.06770
599.84,0.06758