File: 01_Data/HIPS/FTIR/IS/HIPS_IS_T_220901_R5.dpt
7497.03,0.02438
7473.89,0.01465
7450.74,0.01463
7427.6,0.01843
7404.45,0.02028
7381.31,0.01993
7358.16,0.03190
7335.02,0.02480
7311.87,0.01843
7288.73,0.01853
7265.58,0.01934
7242.44,0.02279
7219.29,0.02352
7196.15,0.02809
7173,0.02454
7149.86,0.02479
7126.71,0.02144
7103.57,0.02146
7080.42,0.02008
7057.28,0.02716
7034.13,0.02293
7010.99,0.02102
6987.84,0.02143
6964.7,0.01778
6941.55,0.02387
6918.41,0.02699
6895.26,0.02665
6872.12,0.02268
6848.97,0.02704
6825.83,0.02207
6802.68,0.02136
6779.54,0.02140
6756.39,0.02135
6733.25,0.02051
6710.1,0.02480
6686.96,0.02403
6663.82,0.02243
6640.67,0.02440
6617.53,0.02641
6594.38,0.02186
6571.24,0.02284
6548.09,0.02246
6524.95,0.02151
6501.8,0.02217
6478.66,0.02149
6455.51,0.02116
6432.37,0.02111
6409.22,0.02118
6386.08,0.02233
6362.93,0.02083
6339.79,0.02254
6316.64,0.01891
6293.5,0.02183
6270.35,0.02367
6247.21,0.02108
6224.06,0.01977
6200.92,0.02022
6177.77,0.02332
6154.63,0.02673
6131.48,0.02197
6108.34,0.02112
6085.19,0.02084
6062.05,0.02186
6038.9,0.02067
6015.76,0.02085
5992.61,0.02126
5969.47,0.02356
5946.32,0.01901
5923.18,0.02152
5900.03,0.02233
5876.89,0.02162
5853.74,0.02281
5830.6,0.02238
5807.45,0.02289
5784.31,0.02073
5761.16,0.02337
5738.02,0.02175
5714.87,0.02161
5691.73,0.02021
5668.58,0.02243
5645.44,0.02257
5622.29,0.02293
5599.15,0.02258
5576,0.02115
5552.86,0.02270
5529.71,0.02202
5506.57,0.02119
5483.42,0.02078
5460.28,0.02249
5437.13,0.02113
5413.99,0.02096
5390.84,0.02306
5367.7,0.02199
5344.55,0.02379
5321.41,0.02318
5298.26,0.02054
5275.12,0.02239
5251.97,0.02144
5228.83,0.02301
5205.68,0.02414
5182.54,0.02182
5159.39,0.02260
5136.25,0.02193
5113.1,0.02189
5089.96,0.02137
5066.81,0.02291
5043.67,0.02149
5020.52,0.02224
4997.38,0.02330
4974.23,0.02138
4951.09,0.02325
4927.94,0.02215
4904.8,0.02189
4881.65,0.02211
4858.51,0.02267
4835.36,0.02225
4812.22,0.02190
4789.07,0.02179
4765.93,0.02302
4742.78,0.02303
4719.64,0.02207
4696.49,0.02146
4673.35,0.02144
4650.2,0.02218
4627.06,0.02244
4603.92,0.02196
4580.77,0.02078
4557.63,0.02255
4534.48,0.02226
4511.34,0.02262
4488.19,0.02193
4465.05,0.02177
4441.9,0.02285
4418.76,0.02267
4395.61,0.02192
4372.47,0.02226
4349.32,0.02209
4326.18,0.02151
4303.03,0.02230
4279.89,0.02228
4256.74,0.02232
4233.6,0.02231
4210.45,0.02094
4187.31,0.02240
4164.16,0.02237
4141.02,0.02247
4117.87,0.02293
4094.73,0.02247
4071.58,0.02210
4048.44,0.02239
4025.29,0.02156
4002.15,0.02235
3979,0.02237
3955.86,0.02177
3932.71,0.02283
3909.57,0.02240
3886.42,0.02227
3863.28,0.02260
3840.13,0.02154
3816.99,0.02247
3793.84,0.02173
3770.7,0.02201
3747.55,0.02187
3724.41,0.02223
3701.26,0.02144
3678.12,0.02198
3654.97,0.02115
3631.83,0.02198
3608.68,0.02168
3585.54,0.02154
3562.39,0.02131
3539.25,0.02119
3516.1,0.02136
3492.96,0.02137
3469.81,0.02071
3446.67,0.02033
3423.52,0.02072
3400.38,0.02022
3377.23,0.02023
3354.09,0.01989
3330.94,0.01989
3307.8,0.02097
3284.65,0.01950
3261.51,0.02029
3238.36,0.02077
3215.22,0.02009
3192.07,0.02035
3168.93,0.02086
3145.78,0.02031
3122.64,0.02110
3099.49,0.02076
3076.35,0.02038
3053.2,0.02056
3030.06,0.02015
3006.91,0.02049
2983.77,0.01960
2960.62,0.01924
2937.48,0.01983
2914.33,0.02038
2891.19,0.02049
2868.04,0.02009
2844.9,0.02102
2821.75,0.02162
2798.61,0.02112
2775.46,0.02131
2752.32,0.02084
2729.17,0.02096
2706.03,0.02163
2682.88,0.02110
2659.74,0.02102
2636.59,0.02076
2613.45,0.02128
2590.3,0.02163
2567.16,0.02113
2544.02,0.02093
2520.87,0.02133
2497.73,0.02094
2474.58,0.02099
2451.44,0.02139
2428.29,0.02093
2405.15,0.02082
2382,0.02094
2358.86,0.02087
2335.71,0.02073
2312.57,0.02093
2289.42,0.02104
2266.28,0.02097
2243.13,0.02098
2219.99,0.02099
2196.84,0.02071
2173.7,0.02075
2150.55,0.02104
2127.41,0.02025
2104.26,0.02075
2081.12,0.02097
2057.97,0.02096
2034.83,0.02068
2011.68,0.02096
1988.54,0.02040
1965.39,0.02057
1942.25,0.02082
1919.1,0.02071
1895.96,0.02010
1872.81,0.02057
1849.67,0.01994
1826.52,0.01972
1803.38,0.01983
1780.23,0.01889
1757.09,0.01736
1733.94,0.01939
1710.8,0.02068
1687.65,0.01935
1664.51,0.01871
1641.36,0.01836
1618.22,0.01892
1595.07,0.01855
1571.93,0.01818
1548.78,0.01810
1525.64,0.01834
1502.49,0.01848
1479.35,0.01863
1456.2,0.01876
1433.06,0.01883
1409.91,0.01810
1386.77,0.01763
1363.62,0.01811
1340.48,0.01765
1317.33,0.01696
1294.19,0.01810
1271.04,0.01935
1247.9,0.02044
1224.75,0.01953
1201.61,0.01895
1178.46,0.01836
1155.32,0.01746
1132.17,0.01786
1109.03,0.01858
1085.88,0.01803
1062.74,0.01938
1039.59,0.01979
1016.45,0.01969
993.304,0.02104
970.159,0.02031
947.014,0.01963
923.869,0.01936
900.724,0.01902
877.579,0.01972
854.434,0.01871
831.289,0.01845
808.144,0.01844
784.999,0.01850
761.854,0.01872
738.709,0.01868
715.565,0.01849
692.42,0.01825
669.275,0.01665
646.13,0.01632
622.985,0.01541
599.84,0.01328