File: 01_Data/HIPS/FTIR/IS/HIPS_IS_T_220901_R8.dpt
7497.03,0.02436
7473.89,0.02735
7450.74,0.02601
7427.6,0.01640
7404.45,0.01590
7381.31,0.02047
7358.16,0.03025
7335.02,0.02991
7311.87,0.02894
7288.73,0.02542
7265.58,0.02509
7242.44,0.03002
7219.29,0.02460
7196.15,0.01751
7173,0.03218
7149.86,0.02537
7126.71,0.02707
7103.57,0.01578
7080.42,0.02435
7057.28,0.02461
7034.13,0.02412
7010.99,0.02502
6987.84,0.01875
6964.7,0.03174
6941.55,0.02399
6918.41,0.02427
6895.26,0.02607
6872.12,0.02021
6848.97,0.02055
6825.83,0.02676
6802.68,0.02018
6779.54,0.02656
6756.39,0.02536
6733.25,0.02038
6710.1,0.02202
6686.96,0.02656
6663.82,0.02791
6640.67,0.01711
6617.53,0.02244
6594.38,0.02320
6571.24,0.02687
6548.09,0.02448
6524.95,0.02193
6501.8,0.02298
6478.66,0.01883
6455.51,0.01937
6432.37,0.02107
6409.22,0.02490
6386.08,0.02749
6362.93,0.01912
6339.79,0.02246
6316.64,0.01904
6293.5,0.02112
6270.35,0.02366
6247.21,0.02205
6224.06,0.02334
6200.92,0.02167
6177.77,0.02491
6154.63,0.02450
6131.48,0.02319
6108.34,0.02192
6085.19,0.02330
6062.05,0.02148
6038.9,0.02184
6015.76,0.02164
5992.61,0.02414
5969.47,0.02494
5946.32,0.02109
5923.18,0.01901
5900.03,0.02169
5876.89,0.02047
5853.74,0.01960
5830.6,0.01946
5807.45,0.02093
5784.31,0.02334
5761.16,0.02115
5738.02,0.02178
5714.87,0.02031
5691.73,0.02156
5668.58,0.02332
5645.44,0.02283
5622.29,0.02386
5599.15,0.02154
5576,0.02091
5552.86,0.02188
5529.71,0.02242
5506.57,0.02341
5483.42,0.02102
5460.28,0.02264
5437.13,0.02166
5413.99,0.02062
5390.84,0.02125
5367.7,0.02256
5344.55,0.02240
5321.41,0.02300
5298.26,0.02334
5275.12,0.02199
5251.97,0.02093
5228.83,0.02116
5205.68,0.02131
5182.54,0.02256
5159.39,0.02262
5136.25,0.02268
5113.1,0.02062
5089.96,0.02204
5066.81,0.02173
5043.67,0.02153
5020.52,0.02214
4997.38,0.02219
4974.23,0.02307
4951.09,0.02312
4927.94,0.02277
4904.8,0.02232
4881.65,0.02133
4858.51,0.02179
4835.36,0.02189
4812.22,0.02253
4789.07,0.02280
4765.93,0.02243
4742.78,0.02206
4719.64,0.02170
4696.49,0.02285
4673.35,0.02259
4650.2,0.02167
4627.06,0.02216
4603.92,0.02221
4580.77,0.02236
4557.63,0.02151
4534.48,0.02171
4511.34,0.02177
4488.19,0.02274
4465.05,0.02235
4441.9,0.02237
4418.76,0.02223
4395.61,0.02194
4372.47,0.02222
4349.32,0.02163
4326.18,0.02196
4303.03,0.02209
4279.89,0.02208
4256.74,0.02246
4233.6,0.02275
4210.45,0.02317
4187.31,0.02152
4164.16,0.02225
4141.02,0.02194
4117.87,0.02232
4094.73,0.02278
4071.58,0.02195
4048.44,0.02217
4025.29,0.02208
4002.15,0.02247
3979,0.02269
3955.86,0.02245
3932.71,0.02268
3909.57,0.02239
3886.42,0.02205
3863.28,0.02329
3840.13,0.02178
3816.99,0.02229
3793.84,0.02270
3770.7,0.02251
3747.55,0.02255
3724.41,0.02206
3701.26,0.02200
3678.12,0.02308
3654.97,0.02231
3631.83,0.02162
3608.68,0.02182
3585.54,0.02102
3562.39,0.02139
3539.25,0.02098
3516.1,0.02104
3492.96,0.02128
3469.81,0.02094
3446.67,0.02104
3423.52,0.02099
3400.38,0.02061
3377.23,0.02030
3354.09,0.02025
3330.94,0.02025
3307.8,0.01987
3284.65,0.02048
3261.51,0.02045
3238.36,0.02069
3215.22,0.02074
3192.07,0.02083
3168.93,0.02039
3145.78,0.02070
3122.64,0.02127
3099.49,0.02135
3076.35,0.02051
3053.2,0.02098
3030.06,0.02043
3006.91,0.01970
2983.77,0.01967
2960.62,0.01934
2937.48,0.02012
2914.33,0.02013
2891.19,0.02069
2868.04,0.02003
2844.9,0.02111
2821.75,0.02061
2798.61,0.02081
2775.46,0.02091
2752.32,0.02119
2729.17,0.02077
2706.03,0.02117
2682.88,0.02097
2659.74,0.02138
2636.59,0.02112
2613.45,0.02130
2590.3,0.02118
2567.16,0.02075
2544.02,0.02080
2520.87,0.02097
2497.73,0.02108
2474.58,0.02105
2451.44,0.02112
2428.29,0.02083
2405.15,0.02103
2382,0.02154
2358.86,0.02091
2335.71,0.02104
2312.57,0.02020
2289.42,0.02069
2266.28,0.02094
2243.13,0.02074
2219.99,0.02056
2196.84,0.02073
2173.7,0.02077
2150.55,0.02067
2127.41,0.02062
2104.26,0.02110
2081.12,0.02066
2057.97,0.02053
2034.83,0.02075
2011.68,0.02060
1988.54,0.02038
1965.39,0.02063
1942.25,0.02062
1919.1,0.02050
1895.96,0.02042
1872.81,0.01984
1849.67,0.01988
1826.52,0.01984
1803.38,0.01995
1780.23,0.01916
1757.09,0.01735
1733.94,0.01976
1710.8,0.02037
1687.65,0.01914
1664.51,0.01865
1641.36,0.01855
1618.22,0.01872
1595.07,0.01891
1571.93,0.01851
1548.78,0.01817
1525.64,0.01886
1502.49,0.01903
1479.35,0.01846
1456.2,0.01859
1433.06,0.01871
1409.91,0.01834
1386.77,0.01811
1363.62,0.01811
1340.48,0.01762
1317.33,0.01696
1294.19,0.01797
1271.04,0.01939
1247.9,0.02050
1224.75,0.01945
1201.61,0.01845
1178.46,0.01839
1155.32,0.01745
1132.17,0.01837
1109.03,0.01886
1085.88,0.01835
1062.74,0.02054
1039.59,0.02003
1016.45,0.01926
993.304,0.02097
970.159,0.02078
947.014,0.01971
923.869,0.01913
900.724,0.01912
877.579,0.01934
854.434,0.01941
831.289,0.01933
808.144,0.01949
784.999,0.01844
761.854,0.01893
738.709,0.01873
715.565,0.01862
692.42,0.01882
669.275,0.01747
646.13,0.01736
622.985,0.01456
599.84,0.01564