File: 01_Data/Excelsior/FTIR/IS/Excelsior_IS_S_221109_R1.dpt
7497.03,0.65610
7473.89,0.63835
7450.74,0.64394
7427.6,0.63374
7404.45,0.62156
7381.31,0.61845
7358.16,0.61508
7335.02,0.59619
7311.87,0.60212
7288.73,0.59820
7265.58,0.59276
7242.44,0.59676
7219.29,0.59664
7196.15,0.58145
7173,0.57652
7149.86,0.57025
7126.71,0.54812
7103.57,0.54475
7080.42,0.52843
7057.28,0.49483
7034.13,0.48492
7010.99,0.46376
6987.84,0.45455
6964.7,0.44893
6941.55,0.45183
6918.41,0.44723
6895.26,0.44320
6872.12,0.44169
6848.97,0.44247
6825.83,0.44277
6802.68,0.44098
6779.54,0.44099
6756.39,0.44087
6733.25,0.44608
6710.1,0.44826
6686.96,0.45031
6663.82,0.44895
6640.67,0.45104
6617.53,0.46004
6594.38,0.46101
6571.24,0.45953
6548.09,0.46943
6524.95,0.47174
6501.8,0.46899
6478.66,0.46971
6455.51,0.47112
6432.37,0.47192
6409.22,0.47805
6386.08,0.47712
6362.93,0.48146
6339.79,0.48484
6316.64,0.48621
6293.5,0.49023
6270.35,0.49292
6247.21,0.49827
6224.06,0.50765
6200.92,0.51767
6177.77,0.52157
6154.63,0.53082
6131.48,0.53225
6108.34,0.53701
6085.19,0.53675
6062.05,0.53733
6038.9,0.53728
6015.76,0.53195
5992.61,0.52381
5969.47,0.52138
5946.32,0.51793
5923.18,0.51910
5900.03,0.51269
5876.89,0.50803
5853.74,0.50659
5830.6,0.50053
5807.45,0.49312
5784.31,0.49718
5761.16,0.50475
5738.02,0.50442
5714.87,0.50680
5691.73,0.50436
5668.58,0.50517
5645.44,0.50671
5622.29,0.50367
5599.15,0.50307
5576,0.50522
5552.86,0.50778
5529.71,0.50682
5506.57,0.51154
5483.42,0.51264
5460.28,0.51419
5437.13,0.51755
5413.99,0.52431
5390.84,0.52645
5367.7,0.52637
5344.55,0.52433
5321.41,0.51056
5298.26,0.48866
5275.12,0.45012
5251.97,0.40943
5228.83,0.38165
5205.68,0.37133
5182.54,0.37098
5159.39,0.38177
5136.25,0.39214
5113.1,0.40593
5089.96,0.41755
5066.81,0.42855
5043.67,0.43620
5020.52,0.44431
4997.38,0.44601
4974.23,0.44285
4951.09,0.42995
4927.94,0.41176
4904.8,0.39368
4881.65,0.37349
4858.51,0.35805
4835.36,0.34593
4812.22,0.33550
4789.07,0.32962
4765.93,0.32782
4742.78,0.32782
4719.64,0.33012
4696.49,0.33353
4673.35,0.34088
4650.2,0.35101
4627.06,0.35952
4603.92,0.36716
4580.77,0.37490
4557.63,0.37896
4534.48,0.38346
4511.34,0.38321
4488.19,0.37326
4465.05,0.34833
4441.9,0.32156
4418.76,0.30135
4395.61,0.29349
4372.47,0.30197
4349.32,0.30367
4326.18,0.29650
4303.03,0.28957
4279.89,0.28474
4256.74,0.28832
4233.6,0.29117
4210.45,0.29336
4187.31,0.29455
4164.16,0.29825
4141.02,0.29499
4117.87,0.28448
4094.73,0.26967
4071.58,0.25180
4048.44,0.23640
4025.29,0.22597
4002.15,0.22846
3979,0.23314
3955.86,0.24043
3932.71,0.24938
3909.57,0.25742
3886.42,0.26533
3863.28,0.27416
3840.13,0.28281
3816.99,0.28577
3793.84,0.28570
3770.7,0.28288
3747.55,0.27483
3724.41,0.26002
3701.26,0.23231
3678.12,0.18125
3654.97,0.12457
3631.83,0.09003
3608.68,0.06723
3585.54,0.05317
3562.39,0.04417
3539.25,0.03869
3516.1,0.03518
3492.96,0.03292
3469.81,0.03112
3446.67,0.02996
3423.52,0.02988
3400.38,0.02987
3377.23,0.03034
3354.09,0.03067
3330.94,0.03229
3307.8,0.03388
3284.65,0.03639
3261.51,0.03983
3238.36,0.04270
3215.22,0.04717
3192.07,0.05215
3168.93,0.05717
3145.78,0.06271
3122.64,0.06860
3099.49,0.07508
3076.35,0.07976
3053.2,0.08486
3030.06,0.08724
3006.91,0.08068
2983.77,0.07022
2960.62,0.05558
2937.48,0.04973
2914.33,0.04804
2891.19,0.05149
2868.04,0.05569
2844.9,0.06266
2821.75,0.08306
2798.61,0.09637
2775.46,0.10230
2752.32,0.10594
2729.17,0.10821
2706.03,0.11463
2682.88,0.12219
2659.74,0.12668
2636.59,0.13221
2613.45,0.13753
2590.3,0.14304
2567.16,0.14544
2544.02,0.14609
2520.87,0.14914
2497.73,0.15493
2474.58,0.16171
2451.44,0.16735
2428.29,0.17507
2405.15,0.18396
2382,0.19109
2358.86,0.19818
2335.71,0.20420
2312.57,0.20661
2289.42,0.20447
2266.28,0.20012
2243.13,0.19386
2219.99,0.19484
2196.84,0.19283
2173.7,0.18127
2150.55,0.17143
2127.41,0.16984
2104.26,0.17326
2081.12,0.17740
2057.97,0.17885
2034.83,0.18426
2011.68,0.19535
1988.54,0.20260
1965.39,0.20227
1942.25,0.20552
1919.1,0.21693
1895.96,0.22134
1872.81,0.21975
1849.67,0.20958
1826.52,0.19310
1803.38,0.16559
1780.23,0.12189
1757.09,0.06112
1733.94,0.05383
1710.8,0.06800
1687.65,0.07817
1664.51,0.06891
1641.36,0.06514
1618.22,0.06121
1595.07,0.04958
1571.93,0.08201
1548.78,0.09658
1525.64,0.08122
1502.49,0.05201
1479.35,0.05378
1456.2,0.03913
1433.06,0.03889
1409.91,0.04553
1386.77,0.03836
1363.62,0.03447
1340.48,0.03432
1317.33,0.03453
1294.19,0.03715
1271.04,0.03191
1247.9,0.02997
1224.75,0.03286
1201.61,0.03593
1178.46,0.03078
1155.32,0.03130
1132.17,0.02595
1109.03,0.03078
1085.88,0.03016
1062.74,0.03998
1039.59,0.04367
1016.45,0.04796
993.304,0.05124
970.159,0.06537
947.014,0.08604
923.869,0.08479
900.724,0.07334
877.579,0.08787
854.434,0.09391
831.289,0.08905
808.144,0.09179
784.999,0.08876
761.854,0.07832
738.709,0.06949
715.565,0.06124
692.42,0.05867
669.275,0.05489
646.13,0.05282
622.985,0.05000
599.84,0.05181