File: 01_Data/Excelsior/FTIR/IS/Excelsior_IS_S_221109_R5.dpt
7497.03,0.65549
7473.89,0.65063
7450.74,0.64204
7427.6,0.63393
7404.45,0.63401
7381.31,0.62850
7358.16,0.61432
7335.02,0.61426
7311.87,0.61388
7288.73,0.61021
7265.58,0.60795
7242.44,0.60919
7219.29,0.60936
7196.15,0.59922
7173,0.59668
7149.86,0.58546
7126.71,0.57065
7103.57,0.55589
7080.42,0.53814
7057.28,0.52386
7034.13,0.49346
7010.99,0.47790
6987.84,0.46548
6964.7,0.45837
6941.55,0.45534
6918.41,0.45911
6895.26,0.45066
6872.12,0.45379
6848.97,0.45373
6825.83,0.45292
6802.68,0.45701
6779.54,0.44646
6756.39,0.45219
6733.25,0.45303
6710.1,0.45397
6686.96,0.45888
6663.82,0.45827
6640.67,0.45820
6617.53,0.46903
6594.38,0.47363
6571.24,0.47605
6548.09,0.47993
6524.95,0.48021
6501.8,0.48462
6478.66,0.48529
6455.51,0.48246
6432.37,0.48838
6409.22,0.49151
6386.08,0.48913
6362.93,0.49276
6339.79,0.49049
6316.64,0.49561
6293.5,0.50024
6270.35,0.50304
6247.21,0.51250
6224.06,0.51502
6200.92,0.52371
6177.77,0.53431
6154.63,0.54080
6131.48,0.54169
6108.34,0.54208
6085.19,0.54716
6062.05,0.54247
6038.9,0.54255
6015.76,0.53877
5992.61,0.53851
5969.47,0.53112
5946.32,0.52769
5923.18,0.52656
5900.03,0.51749
5876.89,0.51374
5853.74,0.51433
5830.6,0.50723
5807.45,0.49975
5784.31,0.50379
5761.16,0.50863
5738.02,0.51668
5714.87,0.51649
5691.73,0.51554
5668.58,0.51166
5645.44,0.50994
5622.29,0.51136
5599.15,0.51294
5576,0.51464
5552.86,0.51538
5529.71,0.51868
5506.57,0.51941
5483.42,0.51935
5460.28,0.52431
5437.13,0.52988
5413.99,0.53456
5390.84,0.53785
5367.7,0.53674
5344.55,0.53782
5321.41,0.53158
5298.26,0.51256
5275.12,0.48233
5251.97,0.44692
5228.83,0.42417
5205.68,0.41184
5182.54,0.41432
5159.39,0.42241
5136.25,0.43423
5113.1,0.44491
5089.96,0.45472
5066.81,0.46481
5043.67,0.47235
5020.52,0.47563
4997.38,0.47218
4974.23,0.46168
4951.09,0.44366
4927.94,0.42207
4904.8,0.39807
4881.65,0.37897
4858.51,0.36156
4835.36,0.34824
4812.22,0.33829
4789.07,0.33264
4765.93,0.33069
4742.78,0.33177
4719.64,0.33403
4696.49,0.33750
4673.35,0.34635
4650.2,0.35504
4627.06,0.36354
4603.92,0.37322
4580.77,0.37871
4557.63,0.38542
4534.48,0.38814
4511.34,0.38825
4488.19,0.37790
4465.05,0.35344
4441.9,0.32487
4418.76,0.30314
4395.61,0.29589
4372.47,0.30404
4349.32,0.30606
4326.18,0.29833
4303.03,0.29348
4279.89,0.28815
4256.74,0.29095
4233.6,0.29401
4210.45,0.29673
4187.31,0.29921
4164.16,0.30271
4141.02,0.29999
4117.87,0.28939
4094.73,0.27429
4071.58,0.25661
4048.44,0.23968
4025.29,0.22987
4002.15,0.23120
3979,0.23774
3955.86,0.24522
3932.71,0.25419
3909.57,0.26380
3886.42,0.27188
3863.28,0.27977
3840.13,0.29147
3816.99,0.29528
3793.84,0.29610
3770.7,0.29496
3747.55,0.28898
3724.41,0.27622
3701.26,0.25047
3678.12,0.20418
3654.97,0.14706
3631.83,0.10622
3608.68,0.07780
3585.54,0.05729
3562.39,0.04646
3539.25,0.03958
3516.1,0.03529
3492.96,0.03287
3469.81,0.03140
3446.67,0.02932
3423.52,0.02975
3400.38,0.02996
3377.23,0.03090
3354.09,0.03136
3330.94,0.03303
3307.8,0.03476
3284.65,0.03640
3261.51,0.03906
3238.36,0.04418
3215.22,0.04845
3192.07,0.05435
3168.93,0.06024
3145.78,0.06716
3122.64,0.07370
3099.49,0.07973
3076.35,0.08489
3053.2,0.09012
3030.06,0.09153
3006.91,0.08305
2983.77,0.07166
2960.62,0.05563
2937.48,0.04955
2914.33,0.04890
2891.19,0.05187
2868.04,0.05595
2844.9,0.06355
2821.75,0.08427
2798.61,0.09793
2775.46,0.10414
2752.32,0.10803
2729.17,0.11022
2706.03,0.11676
2682.88,0.12451
2659.74,0.12921
2636.59,0.13433
2613.45,0.14076
2590.3,0.14571
2567.16,0.14782
2544.02,0.14902
2520.87,0.15223
2497.73,0.15799
2474.58,0.16442
2451.44,0.17022
2428.29,0.17762
2405.15,0.18727
2382,0.19478
2358.86,0.20248
2335.71,0.20960
2312.57,0.21234
2289.42,0.21051
2266.28,0.20627
2243.13,0.19996
2219.99,0.20194
2196.84,0.20088
2173.7,0.18841
2150.55,0.17845
2127.41,0.17651
2104.26,0.18086
2081.12,0.18566
2057.97,0.18662
2034.83,0.19224
2011.68,0.20391
1988.54,0.21131
1965.39,0.21075
1942.25,0.21404
1919.1,0.22485
1895.96,0.22997
1872.81,0.22736
1849.67,0.21655
1826.52,0.19862
1803.38,0.16968
1780.23,0.12129
1757.09,0.06057
1733.94,0.05474
1710.8,0.06909
1687.65,0.08235
1664.51,0.07411
1641.36,0.07112
1618.22,0.06416
1595.07,0.05034
1571.93,0.08406
1548.78,0.10002
1525.64,0.08297
1502.49,0.05199
1479.35,0.05432
1456.2,0.03970
1433.06,0.03939
1409.91,0.04539
1386.77,0.03819
1363.62,0.03422
1340.48,0.03398
1317.33,0.03450
1294.19,0.03721
1271.04,0.03145
1247.9,0.02923
1224.75,0.03264
1201.61,0.03559
1178.46,0.03006
1155.32,0.03081
1132.17,0.02620
1109.03,0.03073
1085.88,0.03027
1062.74,0.04076
1039.59,0.04458
1016.45,0.04740
993.304,0.05050
970.159,0.06543
947.014,0.08715
923.869,0.08605
900.724,0.07525
877.579,0.08978
854.434,0.09619
831.289,0.09347
808.144,0.09827
784.999,0.09489
761.854,0.08307
738.709,0.07298
715.565,0.06453
692.42,0.06027
669.275,0.05534
646.13,0.05612
622.985,0.05074
599.84,0.05118