File: 01_Data/Excelsior/FTIR/IS/Excelsior_IS_S_221109_R3.dpt
7497.03,0.65392
7473.89,0.64366
7450.74,0.65185
7427.6,0.63569
7404.45,0.62875
7381.31,0.61484
7358.16,0.61378
7335.02,0.61235
7311.87,0.60320
7288.73,0.60524
7265.58,0.59644
7242.44,0.60428
7219.29,0.59787
7196.15,0.59369
7173,0.58472
7149.86,0.57060
7126.71,0.56979
7103.57,0.55520
7080.42,0.52934
7057.28,0.50868
7034.13,0.48538
7010.99,0.46960
6987.84,0.45977
6964.7,0.45113
6941.55,0.45380
6918.41,0.44771
6895.26,0.44655
6872.12,0.44930
6848.97,0.44654
6825.83,0.44470
6802.68,0.44797
6779.54,0.44376
6756.39,0.44862
6733.25,0.44777
6710.1,0.44999
6686.96,0.45374
6663.82,0.45260
6640.67,0.46144
6617.53,0.46157
6594.38,0.46708
6571.24,0.46575
6548.09,0.47527
6524.95,0.47122
6501.8,0.47291
6478.66,0.47582
6455.51,0.47678
6432.37,0.48462
6409.22,0.48708
6386.08,0.48308
6362.93,0.48694
6339.79,0.49345
6316.64,0.48895
6293.5,0.49321
6270.35,0.50163
6247.21,0.50717
6224.06,0.51461
6200.92,0.52027
6177.77,0.52743
6154.63,0.53637
6131.48,0.53719
6108.34,0.54402
6085.19,0.54457
6062.05,0.53986
6038.9,0.53847
6015.76,0.53598
5992.61,0.53376
5969.47,0.52790
5946.32,0.52277
5923.18,0.52407
5900.03,0.51715
5876.89,0.51230
5853.74,0.50984
5830.6,0.50468
5807.45,0.49555
5784.31,0.50029
5761.16,0.50654
5738.02,0.51148
5714.87,0.51138
5691.73,0.50851
5668.58,0.50978
5645.44,0.50848
5622.29,0.50936
5599.15,0.51095
5576,0.51033
5552.86,0.51482
5529.71,0.51496
5506.57,0.51536
5483.42,0.51728
5460.28,0.51952
5437.13,0.52511
5413.99,0.53059
5390.84,0.53325
5367.7,0.53508
5344.55,0.53418
5321.41,0.52244
5298.26,0.50327
5275.12,0.46773
5251.97,0.42860
5228.83,0.40578
5205.68,0.39648
5182.54,0.39668
5159.39,0.40445
5136.25,0.41660
5113.1,0.43002
5089.96,0.43792
5066.81,0.44931
5043.67,0.45773
5020.52,0.46244
4997.38,0.46187
4974.23,0.45477
4951.09,0.43966
4927.94,0.41589
4904.8,0.39595
4881.65,0.37856
4858.51,0.35999
4835.36,0.34717
4812.22,0.33716
4789.07,0.33204
4765.93,0.32965
4742.78,0.33030
4719.64,0.33316
4696.49,0.33601
4673.35,0.34390
4650.2,0.35394
4627.06,0.36181
4603.92,0.37054
4580.77,0.37749
4557.63,0.38202
4534.48,0.38641
4511.34,0.38627
4488.19,0.37537
4465.05,0.35092
4441.9,0.32294
4418.76,0.30326
4395.61,0.29525
4372.47,0.30319
4349.32,0.30527
4326.18,0.29716
4303.03,0.29156
4279.89,0.28734
4256.74,0.29021
4233.6,0.29265
4210.45,0.29491
4187.31,0.29698
4164.16,0.30202
4141.02,0.29828
4117.87,0.28741
4094.73,0.27264
4071.58,0.25539
4048.44,0.23882
4025.29,0.22925
4002.15,0.23085
3979,0.23493
3955.86,0.24353
3932.71,0.25188
3909.57,0.26105
3886.42,0.26966
3863.28,0.27793
3840.13,0.28767
3816.99,0.29165
3793.84,0.29184
3770.7,0.29038
3747.55,0.28332
3724.41,0.26984
3701.26,0.24341
3678.12,0.19558
3654.97,0.13669
3631.83,0.09933
3608.68,0.07376
3585.54,0.05530
3562.39,0.04581
3539.25,0.03888
3516.1,0.03525
3492.96,0.03257
3469.81,0.03075
3446.67,0.03007
3423.52,0.02986
3400.38,0.03051
3377.23,0.02969
3354.09,0.03121
3330.94,0.03314
3307.8,0.03440
3284.65,0.03643
3261.51,0.03959
3238.36,0.04308
3215.22,0.04761
3192.07,0.05298
3168.93,0.05906
3145.78,0.06592
3122.64,0.07131
3099.49,0.07757
3076.35,0.08291
3053.2,0.08865
3030.06,0.08987
3006.91,0.08249
2983.77,0.07078
2960.62,0.05579
2937.48,0.04987
2914.33,0.04845
2891.19,0.05216
2868.04,0.05624
2844.9,0.06302
2821.75,0.08412
2798.61,0.09751
2775.46,0.10383
2752.32,0.10786
2729.17,0.10928
2706.03,0.11643
2682.88,0.12393
2659.74,0.12895
2636.59,0.13354
2613.45,0.13975
2590.3,0.14472
2567.16,0.14682
2544.02,0.14771
2520.87,0.15105
2497.73,0.15716
2474.58,0.16326
2451.44,0.16885
2428.29,0.17680
2405.15,0.18620
2382,0.19366
2358.86,0.20076
2335.71,0.20755
2312.57,0.21027
2289.42,0.20836
2266.28,0.20439
2243.13,0.19760
2219.99,0.19915
2196.84,0.19830
2173.7,0.18583
2150.55,0.17600
2127.41,0.17395
2104.26,0.17817
2081.12,0.18293
2057.97,0.18364
2034.83,0.18897
2011.68,0.20074
1988.54,0.20817
1965.39,0.20739
1942.25,0.21073
1919.1,0.22230
1895.96,0.22673
1872.81,0.22461
1849.67,0.21360
1826.52,0.19637
1803.38,0.16812
1780.23,0.12161
1757.09,0.06105
1733.94,0.05467
1710.8,0.06849
1687.65,0.08095
1664.51,0.07211
1641.36,0.06899
1618.22,0.06277
1595.07,0.04970
1571.93,0.08348
1548.78,0.09867
1525.64,0.08215
1502.49,0.05161
1479.35,0.05440
1456.2,0.03960
1433.06,0.03934
1409.91,0.04522
1386.77,0.03836
1363.62,0.03442
1340.48,0.03371
1317.33,0.03410
1294.19,0.03720
1271.04,0.03122
1247.9,0.02914
1224.75,0.03280
1201.61,0.03556
1178.46,0.03054
1155.32,0.03113
1132.17,0.02628
1109.03,0.03105
1085.88,0.03106
1062.74,0.04095
1039.59,0.04390
1016.45,0.04811
993.304,0.05142
970.159,0.06510
947.014,0.08663
923.869,0.08474
900.724,0.07475
877.579,0.08933
854.434,0.09566
831.289,0.09166
808.144,0.09637
784.999,0.09296
761.854,0.08075
738.709,0.07222
715.565,0.06258
692.42,0.06074
669.275,0.05470
646.13,0.05445
622.985,0.05115
599.84,0.05240