File: 01_Data/Excelsior/FTIR/IS/Excelsior_IS_S_221109_R8.dpt
7497.03,0.66658
7473.89,0.66517
7450.74,0.65092
7427.6,0.64510
7404.45,0.63585
7381.31,0.62926
7358.16,0.61938
7335.02,0.61404
7311.87,0.61726
7288.73,0.60433
7265.58,0.60639
7242.44,0.59629
7219.29,0.60031
7196.15,0.60560
7173,0.59821
7149.86,0.58962
7126.71,0.57911
7103.57,0.55928
7080.42,0.53544
7057.28,0.51766
7034.13,0.49418
7010.99,0.48063
6987.84,0.46637
6964.7,0.46056
6941.55,0.45860
6918.41,0.45707
6895.26,0.44811
6872.12,0.44875
6848.97,0.45086
6825.83,0.45777
6802.68,0.46022
6779.54,0.45583
6756.39,0.45821
6733.25,0.45124
6710.1,0.45866
6686.96,0.46131
6663.82,0.46323
6640.67,0.46800
6617.53,0.47262
6594.38,0.47599
6571.24,0.47372
6548.09,0.47833
6524.95,0.48156
6501.8,0.48390
6478.66,0.48299
6455.51,0.48197
6432.37,0.49159
6409.22,0.49249
6386.08,0.49030
6362.93,0.49338
6339.79,0.49758
6316.64,0.49910
6293.5,0.50149
6270.35,0.51067
6247.21,0.51738
6224.06,0.52218
6200.92,0.52765
6177.77,0.53784
6154.63,0.54122
6131.48,0.55034
6108.34,0.55103
6085.19,0.55356
6062.05,0.55072
6038.9,0.54744
6015.76,0.54239
5992.61,0.53773
5969.47,0.53468
5946.32,0.52740
5923.18,0.52736
5900.03,0.52326
5876.89,0.51905
5853.74,0.51169
5830.6,0.51073
5807.45,0.50443
5784.31,0.50752
5761.16,0.51076
5738.02,0.51855
5714.87,0.52006
5691.73,0.51797
5668.58,0.51405
5645.44,0.51810
5622.29,0.51694
5599.15,0.52002
5576,0.51855
5552.86,0.51954
5529.71,0.52309
5506.57,0.52595
5483.42,0.52511
5460.28,0.52712
5437.13,0.53279
5413.99,0.53947
5390.84,0.54216
5367.7,0.54246
5344.55,0.54416
5321.41,0.53650
5298.26,0.52032
5275.12,0.49095
5251.97,0.45624
5228.83,0.43211
5205.68,0.42320
5182.54,0.42615
5159.39,0.43375
5136.25,0.44482
5113.1,0.45557
5089.96,0.46515
5066.81,0.47418
5043.67,0.47925
5020.52,0.48280
4997.38,0.47794
4974.23,0.46775
4951.09,0.44757
4927.94,0.42385
4904.8,0.40027
4881.65,0.38112
4858.51,0.36434
4835.36,0.35041
4812.22,0.34033
4789.07,0.33484
4765.93,0.33333
4742.78,0.33217
4719.64,0.33577
4696.49,0.34114
4673.35,0.34738
4650.2,0.35661
4627.06,0.36546
4603.92,0.37461
4580.77,0.38168
4557.63,0.38684
4534.48,0.39141
4511.34,0.39090
4488.19,0.38086
4465.05,0.35507
4441.9,0.32667
4418.76,0.30544
4395.61,0.29716
4372.47,0.30536
4349.32,0.30784
4326.18,0.29983
4303.03,0.29411
4279.89,0.28975
4256.74,0.29276
4233.6,0.29638
4210.45,0.29825
4187.31,0.30051
4164.16,0.30528
4141.02,0.30258
4117.87,0.29187
4094.73,0.27615
4071.58,0.25739
4048.44,0.24112
4025.29,0.23107
4002.15,0.23264
3979,0.23792
3955.86,0.24610
3932.71,0.25590
3909.57,0.26522
3886.42,0.27343
3863.28,0.28305
3840.13,0.29363
3816.99,0.29721
3793.84,0.29852
3770.7,0.29728
3747.55,0.29171
3724.41,0.28006
3701.26,0.25427
3678.12,0.20792
3654.97,0.15042
3631.83,0.10925
3608.68,0.07933
3585.54,0.05836
3562.39,0.04641
3539.25,0.04020
3516.1,0.03506
3492.96,0.03281
3469.81,0.03105
3446.67,0.03072
3423.52,0.02973
3400.38,0.03040
3377.23,0.03120
3354.09,0.03116
3330.94,0.03303
3307.8,0.03423
3284.65,0.03710
3261.51,0.04014
3238.36,0.04347
3215.22,0.04957
3192.07,0.05449
3168.93,0.06065
3145.78,0.06742
3122.64,0.07439
3099.49,0.08017
3076.35,0.08602
3053.2,0.09113
3030.06,0.09254
3006.91,0.08403
2983.77,0.07156
2960.62,0.05697
2937.48,0.04963
2914.33,0.04885
2891.19,0.05148
2868.04,0.05653
2844.9,0.06348
2821.75,0.08435
2798.61,0.09818
2775.46,0.10484
2752.32,0.10859
2729.17,0.11045
2706.03,0.11740
2682.88,0.12506
2659.74,0.12994
2636.59,0.13502
2613.45,0.14145
2590.3,0.14639
2567.16,0.14909
2544.02,0.14972
2520.87,0.15292
2497.73,0.15905
2474.58,0.16546
2451.44,0.17090
2428.29,0.17929
2405.15,0.18888
2382,0.19647
2358.86,0.20380
2335.71,0.21077
2312.57,0.21372
2289.42,0.21258
2266.28,0.20812
2243.13,0.20141
2219.99,0.20359
2196.84,0.20260
2173.7,0.19041
2150.55,0.17984
2127.41,0.17763
2104.26,0.18224
2081.12,0.18710
2057.97,0.18803
2034.83,0.19385
2011.68,0.20589
1988.54,0.21326
1965.39,0.21265
1942.25,0.21578
1919.1,0.22727
1895.96,0.23181
1872.81,0.22953
1849.67,0.21793
1826.52,0.20025
1803.38,0.17020
1780.23,0.12144
1757.09,0.06107
1733.94,0.05482
1710.8,0.06948
1687.65,0.08280
1664.51,0.07528
1641.36,0.07207
1618.22,0.06474
1595.07,0.05006
1571.93,0.08407
1548.78,0.10073
1525.64,0.08333
1502.49,0.05220
1479.35,0.05445
1456.2,0.03974
1433.06,0.03932
1409.91,0.04514
1386.77,0.03830
1363.62,0.03441
1340.48,0.03422
1317.33,0.03456
1294.19,0.03748
1271.04,0.03209
1247.9,0.02930
1224.75,0.03241
1201.61,0.03550
1178.46,0.03088
1155.32,0.03108
1132.17,0.02589
1109.03,0.03096
1085.88,0.03051
1062.74,0.04127
1039.59,0.04455
1016.45,0.04857
993.304,0.05167
970.159,0.06548
947.014,0.08684
923.869,0.08597
900.724,0.07495
877.579,0.09066
854.434,0.09756
831.289,0.09389
808.144,0.09948
784.999,0.09617
761.854,0.08401
738.709,0.07382
715.565,0.06423
692.42,0.06156
669.275,0.05526
646.13,0.05571
622.985,0.04903
599.84,0.05354