File: 01_Data/Excelsior/FTIR/IS/Excelsior_IS_T_221109_R6.dpt
7497.03,0.02154
7473.89,0.02404
7450.74,0.02763
7427.6,0.02358
7404.45,0.02830
7381.31,0.02313
7358.16,0.02030
7335.02,0.02905
7311.87,0.02132
7288.73,0.02909
7265.58,0.02294
7242.44,0.02253
7219.29,0.02632
7196.15,0.02858
7173,0.02226
7149.86,0.02230
7126.71,0.02356
7103.57,0.01838
7080.42,0.03037
7057.28,0.02767
7034.13,0.02740
7010.99,0.01608
6987.84,0.02568
6964.7,0.01544
6941.55,0.01990
6918.41,0.02258
6895.26,0.02931
6872.12,0.02465
6848.97,0.02722
6825.83,0.01779
6802.68,0.02189
6779.54,0.02590
6756.39,0.02188
6733.25,0.01897
6710.1,0.02361
6686.96,0.02103
6663.82,0.02214
6640.67,0.02318
6617.53,0.02289
6594.38,0.01934
6571.24,0.02169
6548.09,0.02260
6524.95,0.02333
6501.8,0.02820
6478.66,0.02847
6455.51,0.02221
6432.37,0.02417
6409.22,0.01994
6386.08,0.02004
6362.93,0.02421
6339.79,0.01925
6316.64,0.01895
6293.5,0.02190
6270.35,0.02115
6247.21,0.02051
6224.06,0.02287
6200.92,0.02187
6177.77,0.02197
6154.63,0.01987
6131.48,0.02325
6108.34,0.01828
6085.19,0.02135
6062.05,0.02096
6038.9,0.02280
6015.76,0.02239
5992.61,0.02156
5969.47,0.02012
5946.32,0.02139
5923.18,0.02161
5900.03,0.02034
5876.89,0.01959
5853.74,0.02118
5830.6,0.02046
5807.45,0.02239
5784.31,0.02233
5761.16,0.02378
5738.02,0.02210
5714.87,0.02297
5691.73,0.01979
5668.58,0.02091
5645.44,0.02282
5622.29,0.01994
5599.15,0.02041
5576,0.02166
5552.86,0.02003
5529.71,0.02057
5506.57,0.02178
5483.42,0.02319
5460.28,0.01964
5437.13,0.02109
5413.99,0.02053
5390.84,0.02221
5367.7,0.02219
5344.55,0.02225
5321.41,0.02214
5298.26,0.02298
5275.12,0.02206
5251.97,0.02142
5228.83,0.02181
5205.68,0.02152
5182.54,0.01917
5159.39,0.02154
5136.25,0.02184
5113.1,0.02103
5089.96,0.02117
5066.81,0.02210
5043.67,0.02160
5020.52,0.02133
4997.38,0.02235
4974.23,0.02280
4951.09,0.02205
4927.94,0.02163
4904.8,0.02186
4881.65,0.02140
4858.51,0.02188
4835.36,0.02247
4812.22,0.02173
4789.07,0.02255
4765.93,0.02252
4742.78,0.02241
4719.64,0.02143
4696.49,0.02214
4673.35,0.02222
4650.2,0.02227
4627.06,0.02283
4603.92,0.02271
4580.77,0.02108
4557.63,0.02278
4534.48,0.02136
4511.34,0.02219
4488.19,0.02132
4465.05,0.02129
4441.9,0.02134
4418.76,0.02242
4395.61,0.02271
4372.47,0.02263
4349.32,0.02194
4326.18,0.02215
4303.03,0.02268
4279.89,0.02239
4256.74,0.02229
4233.6,0.02223
4210.45,0.02253
4187.31,0.02195
4164.16,0.02208
4141.02,0.02237
4117.87,0.02220
4094.73,0.02299
4071.58,0.02274
4048.44,0.02266
4025.29,0.02237
4002.15,0.02237
3979,0.02172
3955.86,0.02224
3932.71,0.02206
3909.57,0.02332
3886.42,0.02270
3863.28,0.02203
3840.13,0.02235
3816.99,0.02281
3793.84,0.02229
3770.7,0.02265
3747.55,0.02263
3724.41,0.02234
3701.26,0.02243
3678.12,0.02245
3654.97,0.02249
3631.83,0.02246
3608.68,0.02192
3585.54,0.02114
3562.39,0.02166
3539.25,0.02091
3516.1,0.02092
3492.96,0.02081
3469.81,0.02023
3446.67,0.02056
3423.52,0.02046
3400.38,0.02063
3377.23,0.02047
3354.09,0.02052
3330.94,0.02018
3307.8,0.01972
3284.65,0.02031
3261.51,0.02135
3238.36,0.02112
3215.22,0.02070
3192.07,0.02106
3168.93,0.02086
3145.78,0.02116
3122.64,0.02110
3099.49,0.02141
3076.35,0.02135
3053.2,0.02097
3030.06,0.02061
3006.91,0.02070
2983.77,0.01981
2960.62,0.01919
2937.48,0.01957
2914.33,0.02082
2891.19,0.02077
2868.04,0.02015
2844.9,0.02085
2821.75,0.02118
2798.61,0.02152
2775.46,0.02205
2752.32,0.02146
2729.17,0.02110
2706.03,0.02182
2682.88,0.02160
2659.74,0.02114
2636.59,0.02147
2613.45,0.02142
2590.3,0.02125
2567.16,0.02142
2544.02,0.02145
2520.87,0.02153
2497.73,0.02145
2474.58,0.02125
2451.44,0.02117
2428.29,0.02132
2405.15,0.02134
2382,0.02138
2358.86,0.02149
2335.71,0.02171
2312.57,0.02105
2289.42,0.02118
2266.28,0.02117
2243.13,0.02108
2219.99,0.02158
2196.84,0.02112
2173.7,0.02137
2150.55,0.02120
2127.41,0.02131
2104.26,0.02147
2081.12,0.02130
2057.97,0.02106
2034.83,0.02143
2011.68,0.02159
1988.54,0.02113
1965.39,0.02089
1942.25,0.02095
1919.1,0.02111
1895.96,0.02091
1872.81,0.02077
1849.67,0.02085
1826.52,0.02036
1803.38,0.02005
1780.23,0.01961
1757.09,0.01797
1733.94,0.01959
1710.8,0.02046
1687.65,0.01918
1664.51,0.01872
1641.36,0.01879
1618.22,0.01863
1595.07,0.01960
1571.93,0.01875
1548.78,0.01891
1525.64,0.01886
1502.49,0.01947
1479.35,0.01899
1456.2,0.01877
1433.06,0.01956
1409.91,0.01866
1386.77,0.01845
1363.62,0.01812
1340.48,0.01841
1317.33,0.01739
1294.19,0.01860
1271.04,0.01979
1247.9,0.02048
1224.75,0.01977
1201.61,0.01887
1178.46,0.01815
1155.32,0.01823
1132.17,0.01841
1109.03,0.01938
1085.88,0.01824
1062.74,0.02019
1039.59,0.01994
1016.45,0.01911
993.304,0.02131
970.159,0.02011
947.014,0.02049
923.869,0.02004
900.724,0.01908
877.579,0.01857
854.434,0.01957
831.289,0.01870
808.144,0.01879
784.999,0.01857
761.854,0.01860
738.709,0.01925
715.565,0.01828
692.42,0.01850
669.275,0.01832
646.13,0.01765
622.985,0.01584
599.84,0.01610