File: 01_Data/Excelsior/FTIR/IS/Excelsior_IS_S_221109_R6.dpt
7497.03,0.65813
7473.89,0.64902
7450.74,0.65147
7427.6,0.63813
7404.45,0.62841
7381.31,0.61897
7358.16,0.61696
7335.02,0.61084
7311.87,0.60841
7288.73,0.60140
7265.58,0.60219
7242.44,0.60356
7219.29,0.59843
7196.15,0.59898
7173,0.59730
7149.86,0.58898
7126.71,0.56864
7103.57,0.55781
7080.42,0.54288
7057.28,0.51034
7034.13,0.49438
7010.99,0.47726
6987.84,0.46588
6964.7,0.45157
6941.55,0.44954
6918.41,0.45280
6895.26,0.45352
6872.12,0.45232
6848.97,0.45580
6825.83,0.45581
6802.68,0.45158
6779.54,0.44762
6756.39,0.45332
6733.25,0.45349
6710.1,0.45850
6686.96,0.45839
6663.82,0.46095
6640.67,0.45639
6617.53,0.46885
6594.38,0.47216
6571.24,0.47552
6548.09,0.47664
6524.95,0.48257
6501.8,0.47557
6478.66,0.48362
6455.51,0.48136
6432.37,0.48664
6409.22,0.48930
6386.08,0.48950
6362.93,0.49170
6339.79,0.49485
6316.64,0.49668
6293.5,0.49948
6270.35,0.50370
6247.21,0.51403
6224.06,0.52063
6200.92,0.53038
6177.77,0.53244
6154.63,0.54074
6131.48,0.54492
6108.34,0.54928
6085.19,0.54780
6062.05,0.55009
6038.9,0.54551
6015.76,0.54063
5992.61,0.53677
5969.47,0.53102
5946.32,0.52799
5923.18,0.52394
5900.03,0.52040
5876.89,0.51557
5853.74,0.51487
5830.6,0.50990
5807.45,0.49985
5784.31,0.50390
5761.16,0.51259
5738.02,0.51598
5714.87,0.51644
5691.73,0.51573
5668.58,0.51486
5645.44,0.51084
5622.29,0.51441
5599.15,0.51622
5576,0.51544
5552.86,0.51965
5529.71,0.52111
5506.57,0.52388
5483.42,0.52365
5460.28,0.52453
5437.13,0.53020
5413.99,0.53529
5390.84,0.53992
5367.7,0.54071
5344.55,0.53954
5321.41,0.53462
5298.26,0.51860
5275.12,0.48770
5251.97,0.44907
5228.83,0.42657
5205.68,0.41738
5182.54,0.41814
5159.39,0.42748
5136.25,0.43857
5113.1,0.44767
5089.96,0.45823
5066.81,0.46666
5043.67,0.47508
5020.52,0.47845
4997.38,0.47469
4974.23,0.46420
4951.09,0.44474
4927.94,0.42132
4904.8,0.39922
4881.65,0.37891
4858.51,0.36266
4835.36,0.34954
4812.22,0.33935
4789.07,0.33364
4765.93,0.33028
4742.78,0.33212
4719.64,0.33467
4696.49,0.34017
4673.35,0.34626
4650.2,0.35587
4627.06,0.36531
4603.92,0.37324
4580.77,0.38072
4557.63,0.38571
4534.48,0.39004
4511.34,0.38909
4488.19,0.37839
4465.05,0.35450
4441.9,0.32443
4418.76,0.30421
4395.61,0.29716
4372.47,0.30410
4349.32,0.30614
4326.18,0.29952
4303.03,0.29335
4279.89,0.28847
4256.74,0.29178
4233.6,0.29433
4210.45,0.29710
4187.31,0.29907
4164.16,0.30314
4141.02,0.30091
4117.87,0.29043
4094.73,0.27514
4071.58,0.25669
4048.44,0.24042
4025.29,0.23099
4002.15,0.23163
3979,0.23698
3955.86,0.24580
3932.71,0.25492
3909.57,0.26433
3886.42,0.27298
3863.28,0.28109
3840.13,0.29157
3816.99,0.29610
3793.84,0.29691
3770.7,0.29569
3747.55,0.29042
3724.41,0.27786
3701.26,0.25209
3678.12,0.20554
3654.97,0.14859
3631.83,0.10742
3608.68,0.07801
3585.54,0.05776
3562.39,0.04650
3539.25,0.03940
3516.1,0.03567
3492.96,0.03279
3469.81,0.03103
3446.67,0.03031
3423.52,0.02945
3400.38,0.02982
3377.23,0.03052
3354.09,0.03156
3330.94,0.03256
3307.8,0.03447
3284.65,0.03623
3261.51,0.03963
3238.36,0.04428
3215.22,0.04910
3192.07,0.05471
3168.93,0.06059
3145.78,0.06726
3122.64,0.07315
3099.49,0.07975
3076.35,0.08507
3053.2,0.09023
3030.06,0.09159
3006.91,0.08386
2983.77,0.07166
2960.62,0.05615
2937.48,0.04956
2914.33,0.04846
2891.19,0.05172
2868.04,0.05542
2844.9,0.06303
2821.75,0.08382
2798.61,0.09835
2775.46,0.10485
2752.32,0.10798
2729.17,0.11026
2706.03,0.11765
2682.88,0.12465
2659.74,0.12990
2636.59,0.13443
2613.45,0.14075
2590.3,0.14623
2567.16,0.14847
2544.02,0.14921
2520.87,0.15199
2497.73,0.15798
2474.58,0.16511
2451.44,0.17052
2428.29,0.17844
2405.15,0.18766
2382,0.19547
2358.86,0.20261
2335.71,0.21027
2312.57,0.21289
2289.42,0.21126
2266.28,0.20705
2243.13,0.20110
2219.99,0.20276
2196.84,0.20160
2173.7,0.18930
2150.55,0.17909
2127.41,0.17736
2104.26,0.18142
2081.12,0.18633
2057.97,0.18710
2034.83,0.19299
2011.68,0.20474
1988.54,0.21199
1965.39,0.21171
1942.25,0.21445
1919.1,0.22623
1895.96,0.23048
1872.81,0.22861
1849.67,0.21728
1826.52,0.19924
1803.38,0.16972
1780.23,0.12159
1757.09,0.06085
1733.94,0.05480
1710.8,0.06920
1687.65,0.08212
1664.51,0.07412
1641.36,0.07171
1618.22,0.06409
1595.07,0.05033
1571.93,0.08432
1548.78,0.10007
1525.64,0.08312
1502.49,0.05188
1479.35,0.05438
1456.2,0.03966
1433.06,0.03904
1409.91,0.04522
1386.77,0.03842
1363.62,0.03403
1340.48,0.03404
1317.33,0.03422
1294.19,0.03755
1271.04,0.03178
1247.9,0.02963
1224.75,0.03288
1201.61,0.03519
1178.46,0.03013
1155.32,0.03103
1132.17,0.02610
1109.03,0.03064
1085.88,0.02949
1062.74,0.04100
1039.59,0.04432
1016.45,0.04799
993.304,0.05168
970.159,0.06571
947.014,0.08740
923.869,0.08621
900.724,0.07545
877.579,0.09031
854.434,0.09653
831.289,0.09285
808.144,0.09801
784.999,0.09566
761.854,0.08273
738.709,0.07385
715.565,0.06412
692.42,0.06102
669.275,0.05425
646.13,0.05406
622.985,0.05028
599.84,0.05595