File: 01_Data/Excelsior/FTIR/IS/Excelsior_IS_S_221109_R2.dpt
7497.03,0.65720
7473.89,0.64945
7450.74,0.63990
7427.6,0.62727
7404.45,0.62797
7381.31,0.61787
7358.16,0.61333
7335.02,0.60732
7311.87,0.60416
7288.73,0.59483
7265.58,0.60011
7242.44,0.59793
7219.29,0.59687
7196.15,0.59215
7173,0.58722
7149.86,0.57300
7126.71,0.56574
7103.57,0.54684
7080.42,0.52686
7057.28,0.50298
7034.13,0.48885
7010.99,0.47777
6987.84,0.45526
6964.7,0.45734
6941.55,0.45434
6918.41,0.44947
6895.26,0.44755
6872.12,0.45018
6848.97,0.44615
6825.83,0.44373
6802.68,0.44120
6779.54,0.43928
6756.39,0.44798
6733.25,0.44716
6710.1,0.44763
6686.96,0.45288
6663.82,0.45043
6640.67,0.45322
6617.53,0.46466
6594.38,0.46620
6571.24,0.46687
6548.09,0.46699
6524.95,0.47496
6501.8,0.47224
6478.66,0.47992
6455.51,0.47407
6432.37,0.47827
6409.22,0.48035
6386.08,0.48489
6362.93,0.48600
6339.79,0.48609
6316.64,0.48903
6293.5,0.49425
6270.35,0.49513
6247.21,0.50514
6224.06,0.51437
6200.92,0.51905
6177.77,0.52507
6154.63,0.53282
6131.48,0.53723
6108.34,0.54277
6085.19,0.54139
6062.05,0.53990
6038.9,0.53751
6015.76,0.53537
5992.61,0.52794
5969.47,0.52507
5946.32,0.52098
5923.18,0.52204
5900.03,0.51742
5876.89,0.51261
5853.74,0.50773
5830.6,0.50186
5807.45,0.49808
5784.31,0.49794
5761.16,0.50377
5738.02,0.51050
5714.87,0.51247
5691.73,0.50921
5668.58,0.50510
5645.44,0.50714
5622.29,0.50746
5599.15,0.50498
5576,0.50804
5552.86,0.51167
5529.71,0.51421
5506.57,0.51530
5483.42,0.51440
5460.28,0.51963
5437.13,0.52318
5413.99,0.52935
5390.84,0.53285
5367.7,0.52904
5344.55,0.52802
5321.41,0.51928
5298.26,0.49564
5275.12,0.45815
5251.97,0.41867
5228.83,0.39186
5205.68,0.38182
5182.54,0.38302
5159.39,0.39135
5136.25,0.40552
5113.1,0.41657
5089.96,0.42832
5066.81,0.43916
5043.67,0.44700
5020.52,0.45272
4997.38,0.45469
4974.23,0.44976
4951.09,0.43490
4927.94,0.41426
4904.8,0.39454
4881.65,0.37599
4858.51,0.36105
4835.36,0.34746
4812.22,0.33657
4789.07,0.33151
4765.93,0.32927
4742.78,0.33068
4719.64,0.33222
4696.49,0.33492
4673.35,0.34393
4650.2,0.35175
4627.06,0.36097
4603.92,0.36989
4580.77,0.37566
4557.63,0.38228
4534.48,0.38514
4511.34,0.38620
4488.19,0.37529
4465.05,0.35089
4441.9,0.32248
4418.76,0.30215
4395.61,0.29577
4372.47,0.30321
4349.32,0.30548
4326.18,0.29798
4303.03,0.29176
4279.89,0.28755
4256.74,0.28963
4233.6,0.29298
4210.45,0.29440
4187.31,0.29619
4164.16,0.29991
4141.02,0.29755
4117.87,0.28692
4094.73,0.27089
4071.58,0.25459
4048.44,0.23800
4025.29,0.22763
4002.15,0.22949
3979,0.23427
3955.86,0.24193
3932.71,0.25101
3909.57,0.26069
3886.42,0.26827
3863.28,0.27680
3840.13,0.28602
3816.99,0.28954
3793.84,0.28903
3770.7,0.28615
3747.55,0.27984
3724.41,0.26553
3701.26,0.23822
3678.12,0.18908
3654.97,0.13146
3631.83,0.09474
3608.68,0.07010
3585.54,0.05420
3562.39,0.04483
3539.25,0.03881
3516.1,0.03562
3492.96,0.03275
3469.81,0.03080
3446.67,0.02931
3423.52,0.02968
3400.38,0.03034
3377.23,0.03091
3354.09,0.03136
3330.94,0.03231
3307.8,0.03415
3284.65,0.03622
3261.51,0.03940
3238.36,0.04296
3215.22,0.04745
3192.07,0.05248
3168.93,0.05839
3145.78,0.06433
3122.64,0.07065
3099.49,0.07601
3076.35,0.08129
3053.2,0.08710
3030.06,0.08880
3006.91,0.08202
2983.77,0.07051
2960.62,0.05570
2937.48,0.04968
2914.33,0.04835
2891.19,0.05130
2868.04,0.05556
2844.9,0.06339
2821.75,0.08398
2798.61,0.09687
2775.46,0.10269
2752.32,0.10716
2729.17,0.10888
2706.03,0.11502
2682.88,0.12320
2659.74,0.12773
2636.59,0.13329
2613.45,0.13917
2590.3,0.14446
2567.16,0.14657
2544.02,0.14756
2520.87,0.15014
2497.73,0.15692
2474.58,0.16289
2451.44,0.16833
2428.29,0.17637
2405.15,0.18537
2382,0.19259
2358.86,0.19966
2335.71,0.20585
2312.57,0.20902
2289.42,0.20731
2266.28,0.20294
2243.13,0.19633
2219.99,0.19761
2196.84,0.19606
2173.7,0.18410
2150.55,0.17412
2127.41,0.17202
2104.26,0.17614
2081.12,0.18085
2057.97,0.18174
2034.83,0.18721
2011.68,0.19855
1988.54,0.20574
1965.39,0.20566
1942.25,0.20882
1919.1,0.21965
1895.96,0.22481
1872.81,0.22289
1849.67,0.21239
1826.52,0.19536
1803.38,0.16720
1780.23,0.12199
1757.09,0.06115
1733.94,0.05446
1710.8,0.06844
1687.65,0.07945
1664.51,0.07081
1641.36,0.06731
1618.22,0.06236
1595.07,0.04958
1571.93,0.08310
1548.78,0.09816
1525.64,0.08155
1502.49,0.05164
1479.35,0.05427
1456.2,0.03950
1433.06,0.03914
1409.91,0.04514
1386.77,0.03872
1363.62,0.03422
1340.48,0.03412
1317.33,0.03456
1294.19,0.03713
1271.04,0.03183
1247.9,0.02928
1224.75,0.03304
1201.61,0.03559
1178.46,0.03069
1155.32,0.03098
1132.17,0.02605
1109.03,0.03140
1085.88,0.02975
1062.74,0.04049
1039.59,0.04475
1016.45,0.04845
993.304,0.05167
970.159,0.06561
947.014,0.08646
923.869,0.08527
900.724,0.07385
877.579,0.08936
854.434,0.09458
831.289,0.09070
808.144,0.09400
784.999,0.09124
761.854,0.07979
738.709,0.07120
715.565,0.06296
692.42,0.06000
669.275,0.05392
646.13,0.05499
622.985,0.04802
599.84,0.05322