File: 01_Data/Excelsior/FTIR/IS/Excelsior_IS_S_221109_R7.dpt
7497.03,0.66781
7473.89,0.65719
7450.74,0.64763
7427.6,0.65252
7404.45,0.64041
7381.31,0.62637
7358.16,0.61423
7335.02,0.61346
7311.87,0.61443
7288.73,0.60406
7265.58,0.60165
7242.44,0.60416
7219.29,0.60498
7196.15,0.60609
7173,0.60023
7149.86,0.58838
7126.71,0.58383
7103.57,0.55964
7080.42,0.53837
7057.28,0.52247
7034.13,0.50131
7010.99,0.47307
6987.84,0.46802
6964.7,0.45488
6941.55,0.45413
6918.41,0.45744
6895.26,0.45457
6872.12,0.45040
6848.97,0.44819
6825.83,0.45082
6802.68,0.45430
6779.54,0.45109
6756.39,0.45021
6733.25,0.45237
6710.1,0.45846
6686.96,0.46000
6663.82,0.45548
6640.67,0.46369
6617.53,0.46973
6594.38,0.47402
6571.24,0.47965
6548.09,0.47798
6524.95,0.48689
6501.8,0.48225
6478.66,0.48056
6455.51,0.48521
6432.37,0.48867
6409.22,0.48563
6386.08,0.49162
6362.93,0.49295
6339.79,0.49485
6316.64,0.49706
6293.5,0.49591
6270.35,0.50594
6247.21,0.51090
6224.06,0.52184
6200.92,0.52855
6177.77,0.53255
6154.63,0.54209
6131.48,0.54502
6108.34,0.54814
6085.19,0.55159
6062.05,0.55012
6038.9,0.54192
6015.76,0.54165
5992.61,0.53710
5969.47,0.53283
5946.32,0.52762
5923.18,0.53000
5900.03,0.52237
5876.89,0.51454
5853.74,0.51281
5830.6,0.50867
5807.45,0.50451
5784.31,0.50327
5761.16,0.51122
5738.02,0.51703
5714.87,0.51886
5691.73,0.51474
5668.58,0.51276
5645.44,0.51271
5622.29,0.51525
5599.15,0.51465
5576,0.51665
5552.86,0.51705
5529.71,0.52049
5506.57,0.52349
5483.42,0.52273
5460.28,0.52558
5437.13,0.52991
5413.99,0.53798
5390.84,0.54106
5367.7,0.54002
5344.55,0.53988
5321.41,0.53483
5298.26,0.51807
5275.12,0.48937
5251.97,0.45231
5228.83,0.43052
5205.68,0.41953
5182.54,0.42286
5159.39,0.42981
5136.25,0.44133
5113.1,0.45153
5089.96,0.46182
5066.81,0.46996
5043.67,0.47738
5020.52,0.47915
4997.38,0.47648
4974.23,0.46502
4951.09,0.44540
4927.94,0.42074
4904.8,0.39874
4881.65,0.37921
4858.51,0.36179
4835.36,0.34882
4812.22,0.33783
4789.07,0.33388
4765.93,0.33133
4742.78,0.33104
4719.64,0.33535
4696.49,0.34024
4673.35,0.34554
4650.2,0.35636
4627.06,0.36560
4603.92,0.37358
4580.77,0.37949
4557.63,0.38619
4534.48,0.38949
4511.34,0.38983
4488.19,0.37854
4465.05,0.35316
4441.9,0.32530
4418.76,0.30412
4395.61,0.29672
4372.47,0.30359
4349.32,0.30596
4326.18,0.29998
4303.03,0.29286
4279.89,0.28865
4256.74,0.29089
4233.6,0.29424
4210.45,0.29781
4187.31,0.29891
4164.16,0.30371
4141.02,0.30142
4117.87,0.29016
4094.73,0.27465
4071.58,0.25695
4048.44,0.24075
4025.29,0.23047
4002.15,0.23277
3979,0.23737
3955.86,0.24594
3932.71,0.25486
3909.57,0.26428
3886.42,0.27257
3863.28,0.28149
3840.13,0.29184
3816.99,0.29629
3793.84,0.29754
3770.7,0.29582
3747.55,0.29102
3724.41,0.27835
3701.26,0.25222
3678.12,0.20755
3654.97,0.14947
3631.83,0.10849
3608.68,0.07859
3585.54,0.05834
3562.39,0.04706
3539.25,0.03993
3516.1,0.03570
3492.96,0.03264
3469.81,0.03118
3446.67,0.03033
3423.52,0.02977
3400.38,0.03021
3377.23,0.03048
3354.09,0.03129
3330.94,0.03314
3307.8,0.03511
3284.65,0.03671
3261.51,0.03972
3238.36,0.04472
3215.22,0.04927
3192.07,0.05440
3168.93,0.06114
3145.78,0.06644
3122.64,0.07339
3099.49,0.08050
3076.35,0.08524
3053.2,0.09119
3030.06,0.09218
3006.91,0.08411
2983.77,0.07090
2960.62,0.05610
2937.48,0.04965
2914.33,0.04838
2891.19,0.05155
2868.04,0.05605
2844.9,0.06282
2821.75,0.08404
2798.61,0.09774
2775.46,0.10487
2752.32,0.10878
2729.17,0.11074
2706.03,0.11722
2682.88,0.12498
2659.74,0.13022
2636.59,0.13458
2613.45,0.14046
2590.3,0.14600
2567.16,0.14834
2544.02,0.14920
2520.87,0.15239
2497.73,0.15842
2474.58,0.16552
2451.44,0.17020
2428.29,0.17882
2405.15,0.18747
2382,0.19528
2358.86,0.20287
2335.71,0.21040
2312.57,0.21294
2289.42,0.21158
2266.28,0.20682
2243.13,0.20078
2219.99,0.20268
2196.84,0.20178
2173.7,0.18892
2150.55,0.17874
2127.41,0.17718
2104.26,0.18172
2081.12,0.18680
2057.97,0.18727
2034.83,0.19315
2011.68,0.20512
1988.54,0.21271
1965.39,0.21179
1942.25,0.21474
1919.1,0.22602
1895.96,0.23087
1872.81,0.22854
1849.67,0.21734
1826.52,0.19945
1803.38,0.16980
1780.23,0.12126
1757.09,0.06048
1733.94,0.05470
1710.8,0.06932
1687.65,0.08268
1664.51,0.07460
1641.36,0.07177
1618.22,0.06470
1595.07,0.05030
1571.93,0.08430
1548.78,0.10034
1525.64,0.08299
1502.49,0.05177
1479.35,0.05439
1456.2,0.03948
1433.06,0.03944
1409.91,0.04528
1386.77,0.03889
1363.62,0.03415
1340.48,0.03392
1317.33,0.03440
1294.19,0.03727
1271.04,0.03190
1247.9,0.02957
1224.75,0.03286
1201.61,0.03575
1178.46,0.03023
1155.32,0.03077
1132.17,0.02621
1109.03,0.03103
1085.88,0.03035
1062.74,0.04124
1039.59,0.04518
1016.45,0.04819
993.304,0.05123
970.159,0.06542
947.014,0.08675
923.869,0.08621
900.724,0.07524
877.579,0.09021
854.434,0.09714
831.289,0.09345
808.144,0.09901
784.999,0.09645
761.854,0.08388
738.709,0.07329
715.565,0.06400
692.42,0.06226
669.275,0.05514
646.13,0.05486
622.985,0.04950
599.84,0.05139