File: 01_Data/Excelsior/FTIR/IS/Excelsior_IS_S_221109_R4.dpt
7497.03,0.66057
7473.89,0.64382
7450.74,0.63884
7427.6,0.63322
7404.45,0.62977
7381.31,0.62562
7358.16,0.60675
7335.02,0.61553
7311.87,0.60816
7288.73,0.60350
7265.58,0.60272
7242.44,0.60527
7219.29,0.60524
7196.15,0.59892
7173,0.59170
7149.86,0.58667
7126.71,0.57279
7103.57,0.55792
7080.42,0.53755
7057.28,0.51381
7034.13,0.49024
7010.99,0.47673
6987.84,0.46289
6964.7,0.46233
6941.55,0.44904
6918.41,0.45570
6895.26,0.45016
6872.12,0.45269
6848.97,0.44854
6825.83,0.45394
6802.68,0.45469
6779.54,0.44645
6756.39,0.45129
6733.25,0.45326
6710.1,0.45499
6686.96,0.46120
6663.82,0.46142
6640.67,0.45828
6617.53,0.46629
6594.38,0.47264
6571.24,0.47397
6548.09,0.47447
6524.95,0.47948
6501.8,0.48243
6478.66,0.48053
6455.51,0.48306
6432.37,0.48323
6409.22,0.48840
6386.08,0.48904
6362.93,0.48716
6339.79,0.49073
6316.64,0.49051
6293.5,0.49127
6270.35,0.50218
6247.21,0.50806
6224.06,0.51641
6200.92,0.52706
6177.77,0.53289
6154.63,0.53766
6131.48,0.54401
6108.34,0.54751
6085.19,0.54629
6062.05,0.54899
6038.9,0.54472
6015.76,0.54144
5992.61,0.53615
5969.47,0.52817
5946.32,0.52427
5923.18,0.52678
5900.03,0.51947
5876.89,0.51604
5853.74,0.51281
5830.6,0.50916
5807.45,0.50128
5784.31,0.50460
5761.16,0.51026
5738.02,0.51508
5714.87,0.51816
5691.73,0.51597
5668.58,0.51364
5645.44,0.51316
5622.29,0.51429
5599.15,0.51380
5576,0.51411
5552.86,0.51750
5529.71,0.51848
5506.57,0.52244
5483.42,0.52140
5460.28,0.52620
5437.13,0.53015
5413.99,0.53604
5390.84,0.53807
5367.7,0.53760
5344.55,0.53742
5321.41,0.53118
5298.26,0.50962
5275.12,0.47812
5251.97,0.43874
5228.83,0.41443
5205.68,0.40579
5182.54,0.40488
5159.39,0.41408
5136.25,0.42717
5113.1,0.43822
5089.96,0.44849
5066.81,0.45865
5043.67,0.46654
5020.52,0.46977
4997.38,0.46902
4974.23,0.45941
4951.09,0.44275
4927.94,0.42020
4904.8,0.39791
4881.65,0.37940
4858.51,0.36283
4835.36,0.34908
4812.22,0.33806
4789.07,0.33375
4765.93,0.33082
4742.78,0.33129
4719.64,0.33541
4696.49,0.33829
4673.35,0.34582
4650.2,0.35579
4627.06,0.36494
4603.92,0.37298
4580.77,0.38002
4557.63,0.38453
4534.48,0.38981
4511.34,0.38854
4488.19,0.37898
4465.05,0.35480
4441.9,0.32542
4418.76,0.30498
4395.61,0.29686
4372.47,0.30426
4349.32,0.30714
4326.18,0.29945
4303.03,0.29289
4279.89,0.28870
4256.74,0.29146
4233.6,0.29517
4210.45,0.29682
4187.31,0.29929
4164.16,0.30276
4141.02,0.30002
4117.87,0.28975
4094.73,0.27447
4071.58,0.25702
4048.44,0.23983
4025.29,0.23011
4002.15,0.23164
3979,0.23722
3955.86,0.24533
3932.71,0.25523
3909.57,0.26325
3886.42,0.27130
3863.28,0.28079
3840.13,0.29027
3816.99,0.29473
3793.84,0.29564
3770.7,0.29305
3747.55,0.28812
3724.41,0.27405
3701.26,0.24795
3678.12,0.19995
3654.97,0.14176
3631.83,0.10296
3608.68,0.07528
3585.54,0.05700
3562.39,0.04610
3539.25,0.03961
3516.1,0.03545
3492.96,0.03174
3469.81,0.03063
3446.67,0.03024
3423.52,0.02983
3400.38,0.02999
3377.23,0.03093
3354.09,0.03075
3330.94,0.03262
3307.8,0.03500
3284.65,0.03653
3261.51,0.03966
3238.36,0.04380
3215.22,0.04797
3192.07,0.05456
3168.93,0.06015
3145.78,0.06637
3122.64,0.07326
3099.49,0.07879
3076.35,0.08381
3053.2,0.08881
3030.06,0.09105
3006.91,0.08275
2983.77,0.07104
2960.62,0.05595
2937.48,0.04951
2914.33,0.04868
2891.19,0.05177
2868.04,0.05601
2844.9,0.06327
2821.75,0.08398
2798.61,0.09806
2775.46,0.10443
2752.32,0.10778
2729.17,0.10996
2706.03,0.11714
2682.88,0.12445
2659.74,0.12937
2636.59,0.13440
2613.45,0.14024
2590.3,0.14583
2567.16,0.14775
2544.02,0.14936
2520.87,0.15213
2497.73,0.15821
2474.58,0.16474
2451.44,0.17017
2428.29,0.17852
2405.15,0.18736
2382,0.19493
2358.86,0.20261
2335.71,0.20965
2312.57,0.21218
2289.42,0.20995
2266.28,0.20607
2243.13,0.19995
2219.99,0.20139
2196.84,0.20002
2173.7,0.18814
2150.55,0.17772
2127.41,0.17577
2104.26,0.18069
2081.12,0.18474
2057.97,0.18592
2034.83,0.19135
2011.68,0.20362
1988.54,0.21063
1965.39,0.21021
1942.25,0.21296
1919.1,0.22427
1895.96,0.22945
1872.81,0.22729
1849.67,0.21592
1826.52,0.19866
1803.38,0.16952
1780.23,0.12187
1757.09,0.06055
1733.94,0.05438
1710.8,0.06918
1687.65,0.08168
1664.51,0.07331
1641.36,0.06988
1618.22,0.06376
1595.07,0.05014
1571.93,0.08415
1548.78,0.09976
1525.64,0.08256
1502.49,0.05218
1479.35,0.05447
1456.2,0.03956
1433.06,0.03900
1409.91,0.04555
1386.77,0.03833
1363.62,0.03432
1340.48,0.03398
1317.33,0.03481
1294.19,0.03709
1271.04,0.03191
1247.9,0.02953
1224.75,0.03278
1201.61,0.03506
1178.46,0.03015
1155.32,0.03141
1132.17,0.02610
1109.03,0.03101
1085.88,0.03085
1062.74,0.04070
1039.59,0.04490
1016.45,0.04848
993.304,0.05064
970.159,0.06571
947.014,0.08699
923.869,0.08617
900.724,0.07510
877.579,0.09044
854.434,0.09622
831.289,0.09276
808.144,0.09726
784.999,0.09484
761.854,0.08261
738.709,0.07273
715.565,0.06390
692.42,0.06099
669.275,0.05254
646.13,0.05629
622.985,0.05101
599.84,0.05234