File: 01_Data/Memory_Foam_Carpet_Pad/FTIR/IS/Memory_Foam_Carpet_Pad_IS_S_221003_R4.dpt
7497.03,0.71575
7473.89,0.71553
7450.74,0.70337
7427.6,0.70538
7404.45,0.69395
7381.31,0.67639
7358.16,0.66019
7335.02,0.65557
7311.87,0.65475
7288.73,0.63014
7265.58,0.62697
7242.44,0.62508
7219.29,0.62315
7196.15,0.60873
7173,0.60827
7149.86,0.61273
7126.71,0.62088
7103.57,0.62264
7080.42,0.62257
7057.28,0.62116
7034.13,0.62467
7010.99,0.61727
6987.84,0.61351
6964.7,0.61843
6941.55,0.62456
6918.41,0.62789
6895.26,0.62828
6872.12,0.63375
6848.97,0.63296
6825.83,0.64106
6802.68,0.63570
6779.54,0.61944
6756.39,0.61102
6733.25,0.60490
6710.1,0.60296
6686.96,0.58966
6663.82,0.59236
6640.67,0.59501
6617.53,0.59802
6594.38,0.59438
6571.24,0.60717
6548.09,0.61337
6524.95,0.62203
6501.8,0.62991
6478.66,0.63613
6455.51,0.64250
6432.37,0.64547
6409.22,0.64229
6386.08,0.64873
6362.93,0.65016
6339.79,0.65194
6316.64,0.65124
6293.5,0.65714
6270.35,0.65240
6247.21,0.65442
6224.06,0.64914
6200.92,0.64908
6177.77,0.64350
6154.63,0.63474
6131.48,0.62454
6108.34,0.60224
6085.19,0.58845
6062.05,0.57806
6038.9,0.57392
6015.76,0.55344
5992.61,0.52250
5969.47,0.47110
5946.32,0.41595
5923.18,0.41878
5900.03,0.39663
5876.89,0.42474
5853.74,0.42324
5830.6,0.40876
5807.45,0.39083
5784.31,0.37737
5761.16,0.38075
5738.02,0.40226
5714.87,0.42635
5691.73,0.43690
5668.58,0.43434
5645.44,0.44327
5622.29,0.46228
5599.15,0.47061
5576,0.47236
5552.86,0.47100
5529.71,0.47234
5506.57,0.47735
5483.42,0.48498
5460.28,0.48794
5437.13,0.49351
5413.99,0.51091
5390.84,0.52302
5367.7,0.53403
5344.55,0.53656
5321.41,0.54017
5298.26,0.54124
5275.12,0.52938
5251.97,0.51917
5228.83,0.51132
5205.68,0.50719
5182.54,0.50848
5159.39,0.51061
5136.25,0.51042
5113.1,0.51152
5089.96,0.50949
5066.81,0.50070
5043.67,0.49201
5020.52,0.48122
4997.38,0.46258
4974.23,0.43043
4951.09,0.40360
4927.94,0.38272
4904.8,0.36466
4881.65,0.35938
4858.51,0.35804
4835.36,0.36680
4812.22,0.38374
4789.07,0.40130
4765.93,0.41265
4742.78,0.41626
4719.64,0.40201
4696.49,0.38845
4673.35,0.37321
4650.2,0.36144
4627.06,0.34670
4603.92,0.35433
4580.77,0.35790
4557.63,0.35795
4534.48,0.35872
4511.34,0.35378
4488.19,0.34772
4465.05,0.31841
4441.9,0.25352
4418.76,0.18811
4395.61,0.19032
4372.47,0.17123
4349.32,0.13941
4326.18,0.13330
4303.03,0.15878
4279.89,0.17085
4256.74,0.17692
4233.6,0.18415
4210.45,0.19539
4187.31,0.20404
4164.16,0.19634
4141.02,0.19312
4117.87,0.18742
4094.73,0.17552
4071.58,0.15788
4048.44,0.14778
4025.29,0.14670
4002.15,0.15106
3979,0.16129
3955.86,0.17728
3932.71,0.19870
3909.57,0.21807
3886.42,0.22777
3863.28,0.23137
3840.13,0.23743
3816.99,0.24465
3793.84,0.24909
3770.7,0.26265
3747.55,0.28309
3724.41,0.29452
3701.26,0.29485
3678.12,0.27431
3654.97,0.24274
3631.83,0.21032
3608.68,0.18060
3585.54,0.15385
3562.39,0.13761
3539.25,0.11986
3516.1,0.10498
3492.96,0.09633
3469.81,0.08351
3446.67,0.06841
3423.52,0.05574
3400.38,0.04164
3377.23,0.03283
3354.09,0.02986
3330.94,0.02893
3307.8,0.02874
3284.65,0.02891
3261.51,0.03008
3238.36,0.03350
3215.22,0.03632
3192.07,0.03835
3168.93,0.04450
3145.78,0.04662
3122.64,0.04481
3099.49,0.04745
3076.35,0.04469
3053.2,0.04274
3030.06,0.04037
3006.91,0.03757
2983.77,0.02774
2960.62,0.02737
2937.48,0.02615
2914.33,0.02581
2891.19,0.02677
2868.04,0.02709
2844.9,0.03011
2821.75,0.03773
2798.61,0.04191
2775.46,0.04609
2752.32,0.05182
2729.17,0.05823
2706.03,0.07128
2682.88,0.08508
2659.74,0.09314
2636.59,0.09956
2613.45,0.11074
2590.3,0.10828
2567.16,0.12561
2544.02,0.14009
2520.87,0.14161
2497.73,0.14692
2474.58,0.15694
2451.44,0.16598
2428.29,0.17664
2405.15,0.17712
2382,0.17289
2358.86,0.17042
2335.71,0.16786
2312.57,0.15387
2289.42,0.12437
2266.28,0.10858
2243.13,0.11927
2219.99,0.13556
2196.84,0.14189
2173.7,0.14352
2150.55,0.14414
2127.41,0.14708
2104.26,0.14890
2081.12,0.14402
2057.97,0.14090
2034.83,0.13085
2011.68,0.12439
1988.54,0.12479
1965.39,0.12232
1942.25,0.12153
1919.1,0.11893
1895.96,0.11817
1872.81,0.12660
1849.67,0.12631
1826.52,0.11192
1803.38,0.09014
1780.23,0.07519
1757.09,0.04849
1733.94,0.02444
1710.8,0.02617
1687.65,0.02701
1664.51,0.02680
1641.36,0.02739
1618.22,0.02598
1595.07,0.02567
1571.93,0.02810
1548.78,0.02352
1525.64,0.02719
1502.49,0.02893
1479.35,0.02889
1456.2,0.02691
1433.06,0.03021
1409.91,0.02720
1386.77,0.02702
1363.62,0.02906
1340.48,0.02691
1317.33,0.02569
1294.19,0.02604
1271.04,0.02558
1247.9,0.02383
1224.75,0.02570
1201.61,0.02632
1178.46,0.02510
1155.32,0.02323
1132.17,0.02307
1109.03,0.02733
1085.88,0.03026
1062.74,0.03206
1039.59,0.03352
1016.45,0.03261
993.304,0.03785
970.159,0.04016
947.014,0.03821
923.869,0.03530
900.724,0.04097
877.579,0.03960
854.434,0.03751
831.289,0.03615
808.144,0.03703
784.999,0.04076
761.854,0.03522
738.709,0.04234
715.565,0.03745
692.42,0.03724
669.275,0.03560
646.13,0.03698
622.985,0.03769
599.84,0.03917