File: 01_Data/Memory_Foam_Carpet_Pad/FTIR/IS/Memory_Foam_Carpet_Pad_IS_S_221003_R7.dpt
7497.03,0.72325
7473.89,0.73001
7450.74,0.71257
7427.6,0.70551
7404.45,0.69016
7381.31,0.66839
7358.16,0.66232
7335.02,0.66382
7311.87,0.66064
7288.73,0.64422
7265.58,0.62558
7242.44,0.62917
7219.29,0.61583
7196.15,0.61212
7173,0.61677
7149.86,0.61158
7126.71,0.62129
7103.57,0.62133
7080.42,0.62438
7057.28,0.62841
7034.13,0.62218
7010.99,0.62344
6987.84,0.62074
6964.7,0.62488
6941.55,0.62522
6918.41,0.63563
6895.26,0.63521
6872.12,0.63412
6848.97,0.63420
6825.83,0.64460
6802.68,0.63582
6779.54,0.62264
6756.39,0.61523
6733.25,0.61116
6710.1,0.60202
6686.96,0.59785
6663.82,0.59608
6640.67,0.59343
6617.53,0.60152
6594.38,0.60394
6571.24,0.60941
6548.09,0.61913
6524.95,0.62500
6501.8,0.63494
6478.66,0.63641
6455.51,0.64772
6432.37,0.64738
6409.22,0.64688
6386.08,0.65173
6362.93,0.65477
6339.79,0.65618
6316.64,0.65201
6293.5,0.65514
6270.35,0.65348
6247.21,0.65401
6224.06,0.65463
6200.92,0.65129
6177.77,0.64692
6154.63,0.63705
6131.48,0.62784
6108.34,0.60662
6085.19,0.58616
6062.05,0.57904
6038.9,0.57439
6015.76,0.55506
5992.61,0.52421
5969.47,0.47479
5946.32,0.41736
5923.18,0.41879
5900.03,0.39739
5876.89,0.42647
5853.74,0.42673
5830.6,0.40837
5807.45,0.39244
5784.31,0.37733
5761.16,0.38185
5738.02,0.40097
5714.87,0.42828
5691.73,0.43959
5668.58,0.43573
5645.44,0.44547
5622.29,0.46382
5599.15,0.47140
5576,0.47266
5552.86,0.47248
5529.71,0.47175
5506.57,0.47974
5483.42,0.48762
5460.28,0.48945
5437.13,0.49545
5413.99,0.51144
5390.84,0.52691
5367.7,0.53397
5344.55,0.53850
5321.41,0.54309
5298.26,0.54422
5275.12,0.53635
5251.97,0.52766
5228.83,0.52038
5205.68,0.51631
5182.54,0.51792
5159.39,0.51741
5136.25,0.51920
5113.1,0.51755
5089.96,0.51301
5066.81,0.50563
5043.67,0.49467
5020.52,0.48386
4997.38,0.46216
4974.23,0.43248
4951.09,0.40623
4927.94,0.38451
4904.8,0.36620
4881.65,0.36045
4858.51,0.35972
4835.36,0.36751
4812.22,0.38615
4789.07,0.40270
4765.93,0.41528
4742.78,0.41709
4719.64,0.40430
4696.49,0.39005
4673.35,0.37493
4650.2,0.36342
4627.06,0.34780
4603.92,0.35516
4580.77,0.35885
4557.63,0.35996
4534.48,0.36025
4511.34,0.35597
4488.19,0.34999
4465.05,0.31871
4441.9,0.25312
4418.76,0.18845
4395.61,0.19047
4372.47,0.17114
4349.32,0.13935
4326.18,0.13334
4303.03,0.15937
4279.89,0.17153
4256.74,0.17813
4233.6,0.18463
4210.45,0.19643
4187.31,0.20447
4164.16,0.19760
4141.02,0.19284
4117.87,0.18897
4094.73,0.17660
4071.58,0.15814
4048.44,0.14779
4025.29,0.14732
4002.15,0.15220
3979,0.16225
3955.86,0.17780
3932.71,0.19964
3909.57,0.21915
3886.42,0.22877
3863.28,0.23299
3840.13,0.23812
3816.99,0.24701
3793.84,0.25150
3770.7,0.26450
3747.55,0.28545
3724.41,0.29774
3701.26,0.30082
3678.12,0.28691
3654.97,0.25954
3631.83,0.23152
3608.68,0.20161
3585.54,0.17285
3562.39,0.15296
3539.25,0.13317
3516.1,0.11646
3492.96,0.10570
3469.81,0.08940
3446.67,0.07140
3423.52,0.05682
3400.38,0.04151
3377.23,0.03365
3354.09,0.02952
3330.94,0.02914
3307.8,0.02851
3284.65,0.02778
3261.51,0.02985
3238.36,0.03329
3215.22,0.03735
3192.07,0.03853
3168.93,0.04538
3145.78,0.04732
3122.64,0.04516
3099.49,0.04788
3076.35,0.04524
3053.2,0.04254
3030.06,0.04032
3006.91,0.03768
2983.77,0.02798
2960.62,0.02750
2937.48,0.02561
2914.33,0.02632
2891.19,0.02695
2868.04,0.02699
2844.9,0.03065
2821.75,0.03770
2798.61,0.04182
2775.46,0.04609
2752.32,0.05222
2729.17,0.05817
2706.03,0.07189
2682.88,0.08529
2659.74,0.09316
2636.59,0.09965
2613.45,0.11132
2590.3,0.10857
2567.16,0.12606
2544.02,0.14046
2520.87,0.14197
2497.73,0.14755
2474.58,0.15778
2451.44,0.16614
2428.29,0.17747
2405.15,0.17812
2382,0.17311
2358.86,0.17095
2335.71,0.16869
2312.57,0.15474
2289.42,0.12521
2266.28,0.10921
2243.13,0.11953
2219.99,0.13605
2196.84,0.14277
2173.7,0.14428
2150.55,0.14440
2127.41,0.14831
2104.26,0.14991
2081.12,0.14445
2057.97,0.14126
2034.83,0.13156
2011.68,0.12481
1988.54,0.12572
1965.39,0.12305
1942.25,0.12272
1919.1,0.11890
1895.96,0.11882
1872.81,0.12686
1849.67,0.12730
1826.52,0.11223
1803.38,0.09090
1780.23,0.07574
1757.09,0.04866
1733.94,0.02457
1710.8,0.02614
1687.65,0.02675
1664.51,0.02707
1641.36,0.02782
1618.22,0.02639
1595.07,0.02535
1571.93,0.02802
1548.78,0.02345
1525.64,0.02723
1502.49,0.02891
1479.35,0.02842
1456.2,0.02679
1433.06,0.03040
1409.91,0.02765
1386.77,0.02731
1363.62,0.02908
1340.48,0.02736
1317.33,0.02512
1294.19,0.02605
1271.04,0.02561
1247.9,0.02373
1224.75,0.02547
1201.61,0.02701
1178.46,0.02472
1155.32,0.02367
1132.17,0.02330
1109.03,0.02762
1085.88,0.03041
1062.74,0.03171
1039.59,0.03253
1016.45,0.03301
993.304,0.03797
970.159,0.04075
947.014,0.03904
923.869,0.03543
900.724,0.04076
877.579,0.03964
854.434,0.03798
831.289,0.03657
808.144,0.03653
784.999,0.04079
761.854,0.03540
738.709,0.04320
715.565,0.03874
692.42,0.03718
669.275,0.03532
646.13,0.03761
622.985,0.03719
599.84,0.03622