File: 01_Data/Memory_Foam_Carpet_Pad/FTIR/IS/Memory_Foam_Carpet_Pad_IS_S_221003_R1.dpt
7497.03,0.71369
7473.89,0.71427
7450.74,0.69449
7427.6,0.70118
7404.45,0.68185
7381.31,0.66117
7358.16,0.65465
7335.02,0.65935
7311.87,0.65404
7288.73,0.63199
7265.58,0.62136
7242.44,0.61288
7219.29,0.61586
7196.15,0.60770
7173,0.60901
7149.86,0.60835
7126.71,0.61620
7103.57,0.60963
7080.42,0.61456
7057.28,0.61522
7034.13,0.61286
7010.99,0.61609
6987.84,0.60818
6964.7,0.60865
6941.55,0.61575
6918.41,0.61999
6895.26,0.62472
6872.12,0.62693
6848.97,0.62471
6825.83,0.62608
6802.68,0.62534
6779.54,0.61394
6756.39,0.60744
6733.25,0.60226
6710.1,0.59804
6686.96,0.59001
6663.82,0.58535
6640.67,0.58958
6617.53,0.59183
6594.38,0.59467
6571.24,0.60276
6548.09,0.61378
6524.95,0.62205
6501.8,0.63054
6478.66,0.63463
6455.51,0.63668
6432.37,0.64129
6409.22,0.64453
6386.08,0.64476
6362.93,0.65038
6339.79,0.64567
6316.64,0.64921
6293.5,0.64763
6270.35,0.65012
6247.21,0.64965
6224.06,0.64965
6200.92,0.64556
6177.77,0.64127
6154.63,0.63433
6131.48,0.61897
6108.34,0.60484
6085.19,0.58413
6062.05,0.57796
6038.9,0.57415
6015.76,0.55154
5992.61,0.52096
5969.47,0.46901
5946.32,0.41347
5923.18,0.41814
5900.03,0.39438
5876.89,0.42110
5853.74,0.42370
5830.6,0.40639
5807.45,0.39006
5784.31,0.37492
5761.16,0.38054
5738.02,0.40430
5714.87,0.42627
5691.73,0.43572
5668.58,0.43437
5645.44,0.44262
5622.29,0.45882
5599.15,0.46789
5576,0.47065
5552.86,0.46850
5529.71,0.47092
5506.57,0.47501
5483.42,0.48048
5460.28,0.48584
5437.13,0.49173
5413.99,0.50776
5390.84,0.52297
5367.7,0.52985
5344.55,0.53316
5321.41,0.53505
5298.26,0.53077
5275.12,0.50979
5251.97,0.49212
5228.83,0.48014
5205.68,0.47272
5182.54,0.47708
5159.39,0.48240
5136.25,0.48508
5113.1,0.49104
5089.96,0.49212
5066.81,0.48700
5043.67,0.48289
5020.52,0.47335
4997.38,0.45774
4974.23,0.42801
4951.09,0.40192
4927.94,0.38091
4904.8,0.36397
4881.65,0.35756
4858.51,0.35748
4835.36,0.36451
4812.22,0.38097
4789.07,0.39977
4765.93,0.41123
4742.78,0.41324
4719.64,0.39971
4696.49,0.38626
4673.35,0.37173
4650.2,0.35988
4627.06,0.34470
4603.92,0.35223
4580.77,0.35599
4557.63,0.35594
4534.48,0.35633
4511.34,0.35307
4488.19,0.34557
4465.05,0.31669
4441.9,0.25135
4418.76,0.18725
4395.61,0.18893
4372.47,0.17010
4349.32,0.13905
4326.18,0.13276
4303.03,0.15845
4279.89,0.17034
4256.74,0.17655
4233.6,0.18327
4210.45,0.19524
4187.31,0.20222
4164.16,0.19573
4141.02,0.19215
4117.87,0.18764
4094.73,0.17492
4071.58,0.15629
4048.44,0.14651
4025.29,0.14603
4002.15,0.15022
3979,0.16001
3955.86,0.17495
3932.71,0.19707
3909.57,0.21555
3886.42,0.22484
3863.28,0.22860
3840.13,0.23516
3816.99,0.24139
3793.84,0.24525
3770.7,0.25798
3747.55,0.27595
3724.41,0.28385
3701.26,0.27572
3678.12,0.23209
3654.97,0.18687
3631.83,0.15117
3608.68,0.12349
3585.54,0.10357
3562.39,0.09313
3539.25,0.08337
3516.1,0.07438
3492.96,0.07116
3469.81,0.06629
3446.67,0.05852
3423.52,0.05093
3400.38,0.04100
3377.23,0.03272
3354.09,0.02980
3330.94,0.02861
3307.8,0.02859
3284.65,0.02883
3261.51,0.03020
3238.36,0.03300
3215.22,0.03693
3192.07,0.03792
3168.93,0.04362
3145.78,0.04581
3122.64,0.04372
3099.49,0.04661
3076.35,0.04422
3053.2,0.04216
3030.06,0.04000
3006.91,0.03700
2983.77,0.02670
2960.62,0.02687
2937.48,0.02579
2914.33,0.02621
2891.19,0.02678
2868.04,0.02730
2844.9,0.03040
2821.75,0.03801
2798.61,0.04201
2775.46,0.04616
2752.32,0.05191
2729.17,0.05813
2706.03,0.07152
2682.88,0.08492
2659.74,0.09260
2636.59,0.09934
2613.45,0.11040
2590.3,0.10769
2567.16,0.12544
2544.02,0.13942
2520.87,0.14115
2497.73,0.14623
2474.58,0.15641
2451.44,0.16530
2428.29,0.17576
2405.15,0.17639
2382,0.17148
2358.86,0.16993
2335.71,0.16732
2312.57,0.15310
2289.42,0.12377
2266.28,0.10834
2243.13,0.11797
2219.99,0.13405
2196.84,0.14013
2173.7,0.14178
2150.55,0.14191
2127.41,0.14453
2104.26,0.14594
2081.12,0.14104
2057.97,0.13820
2034.83,0.12889
2011.68,0.12267
1988.54,0.12286
1965.39,0.12104
1942.25,0.12052
1919.1,0.11743
1895.96,0.11739
1872.81,0.12531
1849.67,0.12546
1826.52,0.11114
1803.38,0.08981
1780.23,0.07499
1757.09,0.04903
1733.94,0.02438
1710.8,0.02617
1687.65,0.02695
1664.51,0.02666
1641.36,0.02721
1618.22,0.02581
1595.07,0.02593
1571.93,0.02803
1548.78,0.02356
1525.64,0.02701
1502.49,0.02916
1479.35,0.02848
1456.2,0.02657
1433.06,0.02990
1409.91,0.02759
1386.77,0.02741
1363.62,0.02879
1340.48,0.02719
1317.33,0.02528
1294.19,0.02620
1271.04,0.02523
1247.9,0.02408
1224.75,0.02551
1201.61,0.02681
1178.46,0.02477
1155.32,0.02310
1132.17,0.02275
1109.03,0.02710
1085.88,0.03064
1062.74,0.03264
1039.59,0.03350
1016.45,0.03194
993.304,0.03781
970.159,0.04000
947.014,0.03887
923.869,0.03558
900.724,0.04037
877.579,0.04002
854.434,0.03780
831.289,0.03632
808.144,0.03592
784.999,0.03981
761.854,0.03588
738.709,0.04180
715.565,0.03846
692.42,0.03767
669.275,0.03402
646.13,0.03653
622.985,0.03951
599.84,0.03676