File: 01_Data/Memory_Foam_Carpet_Pad/FTIR/IS/Memory_Foam_Carpet_Pad_IS_S_221003_R3.dpt
7497.03,0.71635
7473.89,0.71767
7450.74,0.70820
7427.6,0.69861
7404.45,0.68504
7381.31,0.66671
7358.16,0.65908
7335.02,0.66112
7311.87,0.65437
7288.73,0.63497
7265.58,0.62928
7242.44,0.61460
7219.29,0.61887
7196.15,0.61031
7173,0.61553
7149.86,0.62052
7126.71,0.61176
7103.57,0.61549
7080.42,0.61767
7057.28,0.62496
7034.13,0.62223
7010.99,0.62262
6987.84,0.61884
6964.7,0.62062
6941.55,0.62497
6918.41,0.62430
6895.26,0.63282
6872.12,0.63502
6848.97,0.63151
6825.83,0.63573
6802.68,0.62275
6779.54,0.61878
6756.39,0.61224
6733.25,0.60865
6710.1,0.59585
6686.96,0.59161
6663.82,0.59037
6640.67,0.59141
6617.53,0.59474
6594.38,0.60173
6571.24,0.60679
6548.09,0.61203
6524.95,0.62172
6501.8,0.63098
6478.66,0.63294
6455.51,0.64271
6432.37,0.64681
6409.22,0.64631
6386.08,0.64682
6362.93,0.65135
6339.79,0.65662
6316.64,0.65384
6293.5,0.64906
6270.35,0.65036
6247.21,0.65595
6224.06,0.64832
6200.92,0.64789
6177.77,0.64342
6154.63,0.63182
6131.48,0.62253
6108.34,0.60425
6085.19,0.58516
6062.05,0.57730
6038.9,0.57244
6015.76,0.55203
5992.61,0.52274
5969.47,0.46978
5946.32,0.41475
5923.18,0.41816
5900.03,0.39499
5876.89,0.42452
5853.74,0.42349
5830.6,0.40771
5807.45,0.38790
5784.31,0.37678
5761.16,0.38271
5738.02,0.40241
5714.87,0.42552
5691.73,0.43785
5668.58,0.43331
5645.44,0.44433
5622.29,0.46180
5599.15,0.47017
5576,0.47094
5552.86,0.47100
5529.71,0.47189
5506.57,0.47820
5483.42,0.48579
5460.28,0.48636
5437.13,0.49288
5413.99,0.50831
5390.84,0.52513
5367.7,0.53057
5344.55,0.53599
5321.41,0.54127
5298.26,0.53884
5275.12,0.52618
5251.97,0.51441
5228.83,0.50523
5205.68,0.49936
5182.54,0.50440
5159.39,0.50664
5136.25,0.50724
5113.1,0.50909
5089.96,0.50587
5066.81,0.49775
5043.67,0.49077
5020.52,0.47837
4997.38,0.45999
4974.23,0.43042
4951.09,0.40324
4927.94,0.38190
4904.8,0.36491
4881.65,0.35918
4858.51,0.35802
4835.36,0.36651
4812.22,0.38368
4789.07,0.40152
4765.93,0.41268
4742.78,0.41391
4719.64,0.40184
4696.49,0.38722
4673.35,0.37246
4650.2,0.36075
4627.06,0.34567
4603.92,0.35385
4580.77,0.35662
4557.63,0.35716
4534.48,0.35869
4511.34,0.35405
4488.19,0.34772
4465.05,0.31795
4441.9,0.25278
4418.76,0.18732
4395.61,0.18928
4372.47,0.17026
4349.32,0.13990
4326.18,0.13293
4303.03,0.15868
4279.89,0.17146
4256.74,0.17765
4233.6,0.18431
4210.45,0.19529
4187.31,0.20297
4164.16,0.19618
4141.02,0.19256
4117.87,0.18768
4094.73,0.17547
4071.58,0.15792
4048.44,0.14706
4025.29,0.14695
4002.15,0.15119
3979,0.16132
3955.86,0.17707
3932.71,0.19844
3909.57,0.21790
3886.42,0.22643
3863.28,0.23069
3840.13,0.23656
3816.99,0.24392
3793.84,0.24857
3770.7,0.26163
3747.55,0.28152
3724.41,0.29240
3701.26,0.29138
3678.12,0.26548
3654.97,0.23092
3631.83,0.19753
3608.68,0.16746
3585.54,0.14311
3562.39,0.12748
3539.25,0.11194
3516.1,0.09837
3492.96,0.09070
3469.81,0.08027
3446.67,0.06642
3423.52,0.05511
3400.38,0.04138
3377.23,0.03299
3354.09,0.02972
3330.94,0.02875
3307.8,0.02831
3284.65,0.02857
3261.51,0.03033
3238.36,0.03311
3215.22,0.03691
3192.07,0.03779
3168.93,0.04432
3145.78,0.04624
3122.64,0.04430
3099.49,0.04757
3076.35,0.04429
3053.2,0.04315
3030.06,0.04013
3006.91,0.03745
2983.77,0.02691
2960.62,0.02700
2937.48,0.02621
2914.33,0.02653
2891.19,0.02651
2868.04,0.02736
2844.9,0.03058
2821.75,0.03834
2798.61,0.04206
2775.46,0.04612
2752.32,0.05215
2729.17,0.05842
2706.03,0.07148
2682.88,0.08519
2659.74,0.09274
2636.59,0.09932
2613.45,0.11065
2590.3,0.10800
2567.16,0.12560
2544.02,0.13983
2520.87,0.14220
2497.73,0.14649
2474.58,0.15698
2451.44,0.16567
2428.29,0.17624
2405.15,0.17709
2382,0.17222
2358.86,0.16999
2335.71,0.16718
2312.57,0.15372
2289.42,0.12431
2266.28,0.10912
2243.13,0.11850
2219.99,0.13532
2196.84,0.14166
2173.7,0.14344
2150.55,0.14323
2127.41,0.14664
2104.26,0.14834
2081.12,0.14312
2057.97,0.14008
2034.83,0.13059
2011.68,0.12390
1988.54,0.12467
1965.39,0.12208
1942.25,0.12159
1919.1,0.11785
1895.96,0.11806
1872.81,0.12612
1849.67,0.12641
1826.52,0.11125
1803.38,0.09018
1780.23,0.07518
1757.09,0.04883
1733.94,0.02409
1710.8,0.02632
1687.65,0.02696
1664.51,0.02651
1641.36,0.02750
1618.22,0.02613
1595.07,0.02561
1571.93,0.02812
1548.78,0.02333
1525.64,0.02672
1502.49,0.02899
1479.35,0.02853
1456.2,0.02720
1433.06,0.03036
1409.91,0.02758
1386.77,0.02737
1363.62,0.02867
1340.48,0.02750
1317.33,0.02524
1294.19,0.02610
1271.04,0.02545
1247.9,0.02387
1224.75,0.02582
1201.61,0.02633
1178.46,0.02496
1155.32,0.02245
1132.17,0.02305
1109.03,0.02749
1085.88,0.03071
1062.74,0.03248
1039.59,0.03287
1016.45,0.03254
993.304,0.03834
970.159,0.04036
947.014,0.03864
923.869,0.03486
900.724,0.04040
877.579,0.03958
854.434,0.03754
831.289,0.03590
808.144,0.03669
784.999,0.04053
761.854,0.03625
738.709,0.04247
715.565,0.03791
692.42,0.03688
669.275,0.03586
646.13,0.03732
622.985,0.03752
599.84,0.03888