File: 01_Data/Memory_Foam_Carpet_Pad/FTIR/IS/Memory_Foam_Carpet_Pad_IS_S_221003_R5.dpt
7497.03,0.71708
7473.89,0.71858
7450.74,0.71453
7427.6,0.71050
7404.45,0.70099
7381.31,0.67327
7358.16,0.67185
7335.02,0.65985
7311.87,0.66324
7288.73,0.63957
7265.58,0.62836
7242.44,0.62287
7219.29,0.61159
7196.15,0.60778
7173,0.61177
7149.86,0.61959
7126.71,0.62902
7103.57,0.62063
7080.42,0.61821
7057.28,0.62158
7034.13,0.62212
7010.99,0.61873
6987.84,0.62055
6964.7,0.61879
6941.55,0.62548
6918.41,0.63007
6895.26,0.63200
6872.12,0.64165
6848.97,0.63846
6825.83,0.64097
6802.68,0.63197
6779.54,0.61901
6756.39,0.61373
6733.25,0.61089
6710.1,0.59892
6686.96,0.59733
6663.82,0.59148
6640.67,0.59547
6617.53,0.59810
6594.38,0.60279
6571.24,0.60423
6548.09,0.61164
6524.95,0.62914
6501.8,0.63525
6478.66,0.63847
6455.51,0.64476
6432.37,0.64912
6409.22,0.64795
6386.08,0.65456
6362.93,0.65390
6339.79,0.65079
6316.64,0.65294
6293.5,0.65236
6270.35,0.65014
6247.21,0.65127
6224.06,0.65097
6200.92,0.65251
6177.77,0.64302
6154.63,0.63489
6131.48,0.62140
6108.34,0.60313
6085.19,0.59043
6062.05,0.58150
6038.9,0.57507
6015.76,0.55464
5992.61,0.52333
5969.47,0.47234
5946.32,0.41666
5923.18,0.41929
5900.03,0.39441
5876.89,0.42395
5853.74,0.42466
5830.6,0.40947
5807.45,0.39147
5784.31,0.37887
5761.16,0.38418
5738.02,0.40216
5714.87,0.42797
5691.73,0.43585
5668.58,0.43698
5645.44,0.44445
5622.29,0.46255
5599.15,0.47198
5576,0.47062
5552.86,0.47085
5529.71,0.47292
5506.57,0.47866
5483.42,0.48370
5460.28,0.48729
5437.13,0.49331
5413.99,0.51125
5390.84,0.52666
5367.7,0.53370
5344.55,0.53825
5321.41,0.54251
5298.26,0.54287
5275.12,0.53243
5251.97,0.52242
5228.83,0.51574
5205.68,0.51114
5182.54,0.51169
5159.39,0.51467
5136.25,0.51218
5113.1,0.51512
5089.96,0.51288
5066.81,0.50267
5043.67,0.49336
5020.52,0.48350
4997.38,0.46246
4974.23,0.43243
4951.09,0.40413
4927.94,0.38126
4904.8,0.36627
4881.65,0.35957
4858.51,0.35944
4835.36,0.36786
4812.22,0.38480
4789.07,0.40319
4765.93,0.41269
4742.78,0.41570
4719.64,0.40315
4696.49,0.38912
4673.35,0.37352
4650.2,0.36206
4627.06,0.34706
4603.92,0.35471
4580.77,0.35740
4557.63,0.35894
4534.48,0.35965
4511.34,0.35620
4488.19,0.34861
4465.05,0.31857
4441.9,0.25359
4418.76,0.18872
4395.61,0.19015
4372.47,0.17143
4349.32,0.13924
4326.18,0.13335
4303.03,0.15861
4279.89,0.17075
4256.74,0.17707
4233.6,0.18442
4210.45,0.19592
4187.31,0.20369
4164.16,0.19697
4141.02,0.19313
4117.87,0.18881
4094.73,0.17637
4071.58,0.15804
4048.44,0.14767
4025.29,0.14734
4002.15,0.15214
3979,0.16223
3955.86,0.17712
3932.71,0.19941
3909.57,0.21873
3886.42,0.22762
3863.28,0.23186
3840.13,0.23753
3816.99,0.24615
3793.84,0.25032
3770.7,0.26421
3747.55,0.28420
3724.41,0.29600
3701.26,0.29751
3678.12,0.27966
3654.97,0.24922
3631.83,0.21864
3608.68,0.18873
3585.54,0.16107
3562.39,0.14349
3539.25,0.12531
3516.1,0.10932
3492.96,0.09935
3469.81,0.08580
3446.67,0.06975
3423.52,0.05643
3400.38,0.04206
3377.23,0.03275
3354.09,0.03056
3330.94,0.02878
3307.8,0.02848
3284.65,0.02865
3261.51,0.03023
3238.36,0.03370
3215.22,0.03679
3192.07,0.03838
3168.93,0.04449
3145.78,0.04744
3122.64,0.04474
3099.49,0.04755
3076.35,0.04503
3053.2,0.04294
3030.06,0.04043
3006.91,0.03766
2983.77,0.02728
2960.62,0.02761
2937.48,0.02590
2914.33,0.02636
2891.19,0.02712
2868.04,0.02714
2844.9,0.03054
2821.75,0.03804
2798.61,0.04172
2775.46,0.04613
2752.32,0.05234
2729.17,0.05853
2706.03,0.07153
2682.88,0.08487
2659.74,0.09321
2636.59,0.09958
2613.45,0.11105
2590.3,0.10797
2567.16,0.12601
2544.02,0.14023
2520.87,0.14196
2497.73,0.14689
2474.58,0.15715
2451.44,0.16603
2428.29,0.17680
2405.15,0.17792
2382,0.17278
2358.86,0.17027
2335.71,0.16840
2312.57,0.15430
2289.42,0.12496
2266.28,0.10925
2243.13,0.11905
2219.99,0.13581
2196.84,0.14176
2173.7,0.14373
2150.55,0.14412
2127.41,0.14740
2104.26,0.14905
2081.12,0.14377
2057.97,0.14050
2034.83,0.13150
2011.68,0.12434
1988.54,0.12520
1965.39,0.12267
1942.25,0.12198
1919.1,0.11904
1895.96,0.11880
1872.81,0.12638
1849.67,0.12684
1826.52,0.11217
1803.38,0.09041
1780.23,0.07528
1757.09,0.04909
1733.94,0.02453
1710.8,0.02632
1687.65,0.02708
1664.51,0.02697
1641.36,0.02790
1618.22,0.02634
1595.07,0.02505
1571.93,0.02805
1548.78,0.02322
1525.64,0.02669
1502.49,0.02886
1479.35,0.02880
1456.2,0.02657
1433.06,0.03001
1409.91,0.02752
1386.77,0.02696
1363.62,0.02879
1340.48,0.02728
1317.33,0.02541
1294.19,0.02583
1271.04,0.02549
1247.9,0.02349
1224.75,0.02575
1201.61,0.02679
1178.46,0.02495
1155.32,0.02322
1132.17,0.02323
1109.03,0.02695
1085.88,0.03065
1062.74,0.03197
1039.59,0.03246
1016.45,0.03233
993.304,0.03820
970.159,0.04021
947.014,0.03909
923.869,0.03526
900.724,0.04102
877.579,0.03981
854.434,0.03778
831.289,0.03613
808.144,0.03636
784.999,0.04086
761.854,0.03585
738.709,0.04258
715.565,0.03880
692.42,0.03726
669.275,0.03509
646.13,0.03797
622.985,0.03911
599.84,0.04037