File: 01_Data/Memory_Foam_Carpet_Pad/FTIR/IS/Memory_Foam_Carpet_Pad_IS_S_221003_R2.dpt
7497.03,0.71614
7473.89,0.71113
7450.74,0.71146
7427.6,0.70281
7404.45,0.69122
7381.31,0.67007
7358.16,0.65443
7335.02,0.66238
7311.87,0.65735
7288.73,0.64231
7265.58,0.62578
7242.44,0.61674
7219.29,0.61222
7196.15,0.60876
7173,0.61124
7149.86,0.61048
7126.71,0.62097
7103.57,0.61025
7080.42,0.61261
7057.28,0.62474
7034.13,0.61641
7010.99,0.61160
6987.84,0.60718
6964.7,0.61652
6941.55,0.61309
6918.41,0.62021
6895.26,0.62243
6872.12,0.62655
6848.97,0.62886
6825.83,0.63451
6802.68,0.63065
6779.54,0.61612
6756.39,0.61083
6733.25,0.60478
6710.1,0.60146
6686.96,0.59675
6663.82,0.58913
6640.67,0.58991
6617.53,0.59587
6594.38,0.59871
6571.24,0.60739
6548.09,0.61429
6524.95,0.62126
6501.8,0.62679
6478.66,0.63693
6455.51,0.63977
6432.37,0.64410
6409.22,0.64940
6386.08,0.64847
6362.93,0.64717
6339.79,0.64872
6316.64,0.65036
6293.5,0.64995
6270.35,0.64970
6247.21,0.64962
6224.06,0.64984
6200.92,0.64927
6177.77,0.63855
6154.63,0.63457
6131.48,0.61879
6108.34,0.60493
6085.19,0.58305
6062.05,0.57748
6038.9,0.57349
6015.76,0.55238
5992.61,0.52025
5969.47,0.46938
5946.32,0.41448
5923.18,0.41699
5900.03,0.39496
5876.89,0.42354
5853.74,0.42275
5830.6,0.40672
5807.45,0.39027
5784.31,0.37618
5761.16,0.37989
5738.02,0.40252
5714.87,0.42350
5691.73,0.43722
5668.58,0.43368
5645.44,0.44365
5622.29,0.46087
5599.15,0.46939
5576,0.46906
5552.86,0.46897
5529.71,0.47147
5506.57,0.47612
5483.42,0.48352
5460.28,0.48559
5437.13,0.49184
5413.99,0.50635
5390.84,0.52505
5367.7,0.53104
5344.55,0.53665
5321.41,0.53702
5298.26,0.53500
5275.12,0.52021
5251.97,0.50491
5228.83,0.49350
5205.68,0.49004
5182.54,0.49186
5159.39,0.49507
5136.25,0.49865
5113.1,0.50069
5089.96,0.50026
5066.81,0.49334
5043.67,0.48817
5020.52,0.47600
4997.38,0.45915
4974.23,0.42919
4951.09,0.40186
4927.94,0.38111
4904.8,0.36377
4881.65,0.35714
4858.51,0.35766
4835.36,0.36603
4812.22,0.38271
4789.07,0.40018
4765.93,0.41271
4742.78,0.41352
4719.64,0.40082
4696.49,0.38665
4673.35,0.37133
4650.2,0.35965
4627.06,0.34489
4603.92,0.35248
4580.77,0.35532
4557.63,0.35730
4534.48,0.35733
4511.34,0.35322
4488.19,0.34559
4465.05,0.31666
4441.9,0.25249
4418.76,0.18725
4395.61,0.18958
4372.47,0.17069
4349.32,0.13963
4326.18,0.13298
4303.03,0.15761
4279.89,0.17139
4256.74,0.17719
4233.6,0.18406
4210.45,0.19536
4187.31,0.20261
4164.16,0.19634
4141.02,0.19182
4117.87,0.18723
4094.73,0.17528
4071.58,0.15717
4048.44,0.14668
4025.29,0.14606
4002.15,0.15053
3979,0.16116
3955.86,0.17618
3932.71,0.19756
3909.57,0.21740
3886.42,0.22596
3863.28,0.23018
3840.13,0.23506
3816.99,0.24205
3793.84,0.24664
3770.7,0.25967
3747.55,0.27891
3724.41,0.28886
3701.26,0.28478
3678.12,0.25128
3654.97,0.20993
3631.83,0.17609
3608.68,0.14591
3585.54,0.12400
3562.39,0.11174
3539.25,0.09771
3516.1,0.08689
3492.96,0.08175
3469.81,0.07371
3446.67,0.06319
3423.52,0.05337
3400.38,0.04074
3377.23,0.03257
3354.09,0.02940
3330.94,0.02923
3307.8,0.02860
3284.65,0.02856
3261.51,0.03006
3238.36,0.03294
3215.22,0.03672
3192.07,0.03832
3168.93,0.04381
3145.78,0.04629
3122.64,0.04445
3099.49,0.04700
3076.35,0.04457
3053.2,0.04280
3030.06,0.04002
3006.91,0.03747
2983.77,0.02749
2960.62,0.02720
2937.48,0.02596
2914.33,0.02579
2891.19,0.02723
2868.04,0.02740
2844.9,0.03039
2821.75,0.03835
2798.61,0.04140
2775.46,0.04614
2752.32,0.05210
2729.17,0.05849
2706.03,0.07144
2682.88,0.08476
2659.74,0.09265
2636.59,0.09929
2613.45,0.11072
2590.3,0.10825
2567.16,0.12544
2544.02,0.13953
2520.87,0.14139
2497.73,0.14651
2474.58,0.15665
2451.44,0.16529
2428.29,0.17579
2405.15,0.17699
2382,0.17172
2358.86,0.16941
2335.71,0.16708
2312.57,0.15337
2289.42,0.12446
2266.28,0.10810
2243.13,0.11871
2219.99,0.13509
2196.84,0.14148
2173.7,0.14227
2150.55,0.14240
2127.41,0.14555
2104.26,0.14691
2081.12,0.14203
2057.97,0.13927
2034.83,0.12972
2011.68,0.12334
1988.54,0.12399
1965.39,0.12166
1942.25,0.12129
1919.1,0.11757
1895.96,0.11746
1872.81,0.12572
1849.67,0.12617
1826.52,0.11130
1803.38,0.09039
1780.23,0.07527
1757.09,0.04898
1733.94,0.02486
1710.8,0.02589
1687.65,0.02697
1664.51,0.02674
1641.36,0.02725
1618.22,0.02661
1595.07,0.02531
1571.93,0.02804
1548.78,0.02393
1525.64,0.02725
1502.49,0.02866
1479.35,0.02883
1456.2,0.02700
1433.06,0.03026
1409.91,0.02771
1386.77,0.02734
1363.62,0.02874
1340.48,0.02745
1317.33,0.02533
1294.19,0.02606
1271.04,0.02557
1247.9,0.02407
1224.75,0.02512
1201.61,0.02638
1178.46,0.02467
1155.32,0.02297
1132.17,0.02278
1109.03,0.02722
1085.88,0.03049
1062.74,0.03228
1039.59,0.03259
1016.45,0.03337
993.304,0.03802
970.159,0.04030
947.014,0.03873
923.869,0.03491
900.724,0.04075
877.579,0.03928
854.434,0.03714
831.289,0.03547
808.144,0.03586
784.999,0.04003
761.854,0.03597
738.709,0.04232
715.565,0.03719
692.42,0.03732
669.275,0.03512
646.13,0.03665
622.985,0.03757
599.84,0.03902