File: 01_Data/Memory_Foam_Carpet_Pad/FTIR/IS/Memory_Foam_Carpet_Pad_IS_S_221003_R6.dpt
7497.03,0.71914
7473.89,0.71395
7450.74,0.70942
7427.6,0.70461
7404.45,0.70236
7381.31,0.67143
7358.16,0.66371
7335.02,0.66104
7311.87,0.65928
7288.73,0.63636
7265.58,0.62223
7242.44,0.62043
7219.29,0.61866
7196.15,0.60849
7173,0.61298
7149.86,0.61766
7126.71,0.61920
7103.57,0.61945
7080.42,0.61303
7057.28,0.62186
7034.13,0.61890
7010.99,0.61852
6987.84,0.61414
6964.7,0.61802
6941.55,0.62160
6918.41,0.62470
6895.26,0.62668
6872.12,0.63656
6848.97,0.63581
6825.83,0.63633
6802.68,0.62696
6779.54,0.62242
6756.39,0.61397
6733.25,0.60814
6710.1,0.60258
6686.96,0.59348
6663.82,0.58930
6640.67,0.59393
6617.53,0.59950
6594.38,0.59753
6571.24,0.60044
6548.09,0.61205
6524.95,0.62470
6501.8,0.63261
6478.66,0.63457
6455.51,0.64047
6432.37,0.64172
6409.22,0.64771
6386.08,0.64910
6362.93,0.65082
6339.79,0.64311
6316.64,0.64956
6293.5,0.64861
6270.35,0.64783
6247.21,0.65343
6224.06,0.64810
6200.92,0.64629
6177.77,0.64180
6154.63,0.63472
6131.48,0.62232
6108.34,0.60116
6085.19,0.58351
6062.05,0.57715
6038.9,0.57204
6015.76,0.54805
5992.61,0.51909
5969.47,0.46949
5946.32,0.41425
5923.18,0.41532
5900.03,0.39226
5876.89,0.42209
5853.74,0.42195
5830.6,0.40650
5807.45,0.38836
5784.31,0.37331
5761.16,0.37983
5738.02,0.40100
5714.87,0.42610
5691.73,0.43442
5668.58,0.43255
5645.44,0.44301
5622.29,0.45812
5599.15,0.46947
5576,0.46800
5552.86,0.46901
5529.71,0.47079
5506.57,0.47457
5483.42,0.48240
5460.28,0.48589
5437.13,0.49237
5413.99,0.50848
5390.84,0.52352
5367.7,0.53244
5344.55,0.53286
5321.41,0.53894
5298.26,0.53953
5275.12,0.53064
5251.97,0.52222
5228.83,0.51351
5205.68,0.51149
5182.54,0.51121
5159.39,0.51222
5136.25,0.51292
5113.1,0.51462
5089.96,0.50929
5066.81,0.50021
5043.67,0.49057
5020.52,0.47857
4997.38,0.46005
4974.23,0.42938
4951.09,0.40166
4927.94,0.37957
4904.8,0.36333
4881.65,0.35783
4858.51,0.35673
4835.36,0.36565
4812.22,0.38306
4789.07,0.39993
4765.93,0.41180
4742.78,0.41460
4719.64,0.40163
4696.49,0.38652
4673.35,0.37213
4650.2,0.35885
4627.06,0.34479
4603.92,0.35230
4580.77,0.35605
4557.63,0.35710
4534.48,0.35617
4511.34,0.35265
4488.19,0.34628
4465.05,0.31666
4441.9,0.25145
4418.76,0.18679
4395.61,0.18961
4372.47,0.17012
4349.32,0.13832
4326.18,0.13208
4303.03,0.15845
4279.89,0.16979
4256.74,0.17661
4233.6,0.18364
4210.45,0.19535
4187.31,0.20252
4164.16,0.19582
4141.02,0.19269
4117.87,0.18751
4094.73,0.17520
4071.58,0.15766
4048.44,0.14758
4025.29,0.14653
4002.15,0.15129
3979,0.16064
3955.86,0.17647
3932.71,0.19835
3909.57,0.21718
3886.42,0.22749
3863.28,0.23135
3840.13,0.23670
3816.99,0.24480
3793.84,0.24886
3770.7,0.26226
3747.55,0.28280
3724.41,0.29510
3701.26,0.29766
3678.12,0.28201
3654.97,0.25283
3631.83,0.22462
3608.68,0.19434
3585.54,0.16653
3562.39,0.14803
3539.25,0.12845
3516.1,0.11238
3492.96,0.10180
3469.81,0.08722
3446.67,0.06989
3423.52,0.05613
3400.38,0.04184
3377.23,0.03352
3354.09,0.03043
3330.94,0.02871
3307.8,0.02815
3284.65,0.02872
3261.51,0.03014
3238.36,0.03274
3215.22,0.03751
3192.07,0.03858
3168.93,0.04432
3145.78,0.04711
3122.64,0.04504
3099.49,0.04797
3076.35,0.04447
3053.2,0.04256
3030.06,0.04057
3006.91,0.03695
2983.77,0.02695
2960.62,0.02730
2937.48,0.02587
2914.33,0.02633
2891.19,0.02722
2868.04,0.02750
2844.9,0.03011
2821.75,0.03774
2798.61,0.04179
2775.46,0.04601
2752.32,0.05188
2729.17,0.05758
2706.03,0.07147
2682.88,0.08462
2659.74,0.09301
2636.59,0.09933
2613.45,0.11057
2590.3,0.10767
2567.16,0.12539
2544.02,0.13972
2520.87,0.14151
2497.73,0.14620
2474.58,0.15637
2451.44,0.16510
2428.29,0.17559
2405.15,0.17660
2382,0.17191
2358.86,0.16985
2335.71,0.16787
2312.57,0.15356
2289.42,0.12413
2266.28,0.10887
2243.13,0.11867
2219.99,0.13561
2196.84,0.14155
2173.7,0.14285
2150.55,0.14371
2127.41,0.14659
2104.26,0.14863
2081.12,0.14383
2057.97,0.14011
2034.83,0.13064
2011.68,0.12407
1988.54,0.12453
1965.39,0.12210
1942.25,0.12148
1919.1,0.11851
1895.96,0.11781
1872.81,0.12609
1849.67,0.12631
1826.52,0.11153
1803.38,0.09004
1780.23,0.07518
1757.09,0.04852
1733.94,0.02498
1710.8,0.02592
1687.65,0.02757
1664.51,0.02682
1641.36,0.02796
1618.22,0.02638
1595.07,0.02534
1571.93,0.02783
1548.78,0.02413
1525.64,0.02715
1502.49,0.02907
1479.35,0.02856
1456.2,0.02687
1433.06,0.03039
1409.91,0.02744
1386.77,0.02737
1363.62,0.02861
1340.48,0.02737
1317.33,0.02560
1294.19,0.02604
1271.04,0.02552
1247.9,0.02416
1224.75,0.02585
1201.61,0.02692
1178.46,0.02476
1155.32,0.02289
1132.17,0.02374
1109.03,0.02754
1085.88,0.03123
1062.74,0.03242
1039.59,0.03308
1016.45,0.03328
993.304,0.03817
970.159,0.04059
947.014,0.03893
923.869,0.03494
900.724,0.04075
877.579,0.03952
854.434,0.03823
831.289,0.03640
808.144,0.03671
784.999,0.04050
761.854,0.03656
738.709,0.04324
715.565,0.03850
692.42,0.03828
669.275,0.03501
646.13,0.03769
622.985,0.03870
599.84,0.03856