File: 01_Data/Memory_Foam_Carpet_Pad/FTIR/IS/Memory_Foam_Carpet_Pad_IS_S_221003_R8.dpt
7497.03,0.71843
7473.89,0.72693
7450.74,0.71343
7427.6,0.70458
7404.45,0.68891
7381.31,0.67372
7358.16,0.66191
7335.02,0.66042
7311.87,0.65421
7288.73,0.64044
7265.58,0.63083
7242.44,0.62173
7219.29,0.61365
7196.15,0.60404
7173,0.61109
7149.86,0.62078
7126.71,0.62556
7103.57,0.62353
7080.42,0.62187
7057.28,0.62140
7034.13,0.62496
7010.99,0.62117
6987.84,0.61978
6964.7,0.61612
6941.55,0.62373
6918.41,0.62603
6895.26,0.63329
6872.12,0.63716
6848.97,0.64364
6825.83,0.63465
6802.68,0.63533
6779.54,0.62758
6756.39,0.61936
6733.25,0.61194
6710.1,0.59916
6686.96,0.59366
6663.82,0.59754
6640.67,0.59286
6617.53,0.59648
6594.38,0.59468
6571.24,0.60591
6548.09,0.61632
6524.95,0.62349
6501.8,0.63566
6478.66,0.63905
6455.51,0.64632
6432.37,0.64657
6409.22,0.64900
6386.08,0.64949
6362.93,0.65277
6339.79,0.65403
6316.64,0.65101
6293.5,0.65261
6270.35,0.65421
6247.21,0.65360
6224.06,0.64992
6200.92,0.64755
6177.77,0.63987
6154.63,0.63381
6131.48,0.62209
6108.34,0.60408
6085.19,0.58580
6062.05,0.57815
6038.9,0.57237
6015.76,0.55188
5992.61,0.52128
5969.47,0.47298
5946.32,0.41460
5923.18,0.41995
5900.03,0.39452
5876.89,0.42480
5853.74,0.42320
5830.6,0.40871
5807.45,0.39209
5784.31,0.37697
5761.16,0.37977
5738.02,0.40199
5714.87,0.42629
5691.73,0.43748
5668.58,0.43324
5645.44,0.44565
5622.29,0.46265
5599.15,0.46758
5576,0.47169
5552.86,0.47042
5529.71,0.47045
5506.57,0.47726
5483.42,0.48456
5460.28,0.48732
5437.13,0.49153
5413.99,0.50916
5390.84,0.52541
5367.7,0.53296
5344.55,0.53663
5321.41,0.54001
5298.26,0.54178
5275.12,0.53289
5251.97,0.52513
5228.83,0.51783
5205.68,0.51683
5182.54,0.51732
5159.39,0.51664
5136.25,0.51603
5113.1,0.51737
5089.96,0.51099
5066.81,0.50260
5043.67,0.49350
5020.52,0.48209
4997.38,0.46237
4974.23,0.43063
4951.09,0.40356
4927.94,0.38134
4904.8,0.36406
4881.65,0.35943
4858.51,0.35822
4835.36,0.36695
4812.22,0.38483
4789.07,0.40210
4765.93,0.41440
4742.78,0.41523
4719.64,0.40198
4696.49,0.38908
4673.35,0.37306
4650.2,0.36085
4627.06,0.34673
4603.92,0.35408
4580.77,0.35737
4557.63,0.35861
4534.48,0.35772
4511.34,0.35459
4488.19,0.34760
4465.05,0.31857
4441.9,0.25271
4418.76,0.18780
4395.61,0.19002
4372.47,0.17019
4349.32,0.13964
4326.18,0.13257
4303.03,0.15784
4279.89,0.17064
4256.74,0.17637
4233.6,0.18460
4210.45,0.19542
4187.31,0.20419
4164.16,0.19734
4141.02,0.19271
4117.87,0.18818
4094.73,0.17551
4071.58,0.15734
4048.44,0.14754
4025.29,0.14683
4002.15,0.15161
3979,0.16152
3955.86,0.17660
3932.71,0.19912
3909.57,0.21801
3886.42,0.22824
3863.28,0.23113
3840.13,0.23702
3816.99,0.24572
3793.84,0.25011
3770.7,0.26367
3747.55,0.28377
3724.41,0.29672
3701.26,0.29998
3678.12,0.28695
3654.97,0.26147
3631.83,0.23389
3608.68,0.20451
3585.54,0.17528
3562.39,0.15526
3539.25,0.13481
3516.1,0.11731
3492.96,0.10591
3469.81,0.08995
3446.67,0.07044
3423.52,0.05668
3400.38,0.04265
3377.23,0.03348
3354.09,0.02977
3330.94,0.02911
3307.8,0.02808
3284.65,0.02938
3261.51,0.03032
3238.36,0.03339
3215.22,0.03667
3192.07,0.03871
3168.93,0.04509
3145.78,0.04744
3122.64,0.04547
3099.49,0.04811
3076.35,0.04457
3053.2,0.04343
3030.06,0.04033
3006.91,0.03775
2983.77,0.02742
2960.62,0.02737
2937.48,0.02632
2914.33,0.02665
2891.19,0.02690
2868.04,0.02785
2844.9,0.03049
2821.75,0.03807
2798.61,0.04211
2775.46,0.04633
2752.32,0.05175
2729.17,0.05830
2706.03,0.07128
2682.88,0.08533
2659.74,0.09335
2636.59,0.09914
2613.45,0.11060
2590.3,0.10848
2567.16,0.12572
2544.02,0.14020
2520.87,0.14170
2497.73,0.14632
2474.58,0.15697
2451.44,0.16588
2428.29,0.17673
2405.15,0.17731
2382,0.17220
2358.86,0.17021
2335.71,0.16749
2312.57,0.15380
2289.42,0.12458
2266.28,0.10937
2243.13,0.11938
2219.99,0.13543
2196.84,0.14199
2173.7,0.14377
2150.55,0.14415
2127.41,0.14710
2104.26,0.14898
2081.12,0.14390
2057.97,0.14116
2034.83,0.13098
2011.68,0.12438
1988.54,0.12539
1965.39,0.12258
1942.25,0.12159
1919.1,0.11880
1895.96,0.11832
1872.81,0.12639
1849.67,0.12646
1826.52,0.11189
1803.38,0.09032
1780.23,0.07496
1757.09,0.04876
1733.94,0.02484
1710.8,0.02609
1687.65,0.02694
1664.51,0.02705
1641.36,0.02800
1618.22,0.02603
1595.07,0.02546
1571.93,0.02814
1548.78,0.02372
1525.64,0.02696
1502.49,0.02894
1479.35,0.02875
1456.2,0.02703
1433.06,0.03044
1409.91,0.02756
1386.77,0.02755
1363.62,0.02867
1340.48,0.02732
1317.33,0.02502
1294.19,0.02600
1271.04,0.02564
1247.9,0.02389
1224.75,0.02565
1201.61,0.02664
1178.46,0.02521
1155.32,0.02303
1132.17,0.02315
1109.03,0.02679
1085.88,0.03058
1062.74,0.03212
1039.59,0.03356
1016.45,0.03206
993.304,0.03853
970.159,0.04049
947.014,0.03831
923.869,0.03503
900.724,0.04006
877.579,0.03993
854.434,0.03739
831.289,0.03691
808.144,0.03667
784.999,0.04163
761.854,0.03623
738.709,0.04362
715.565,0.03799
692.42,0.03861
669.275,0.03552
646.13,0.03760
622.985,0.03922
599.84,0.03643