File: 01_Data/Engineered_Wood_Table/Cone/Engineered_Wood_Table_Cone_HF75Scan_230626_R2.csv
Names,Time,Stack TC,Smoke TC,Exh Press,Smoke Comp,Smoke Meas,CO Meter,CO2 Meter,O2 Meter,Sample Mass,Ext Coeff,Start Test,Flame Verif
Chan Gain,,500,500,1,1,1,1,1,1,1,1,1.0,1.0
Offset,,0,0,0.135513,0,0,0,0,0,0,0,0.0,0.0
Gain,,1,1,25.011,12.9674,38.5317,1,1,1,1.00084,0.895081,1.0,1.0
Units,sec,C,C,Pa,%,%,%,%,%,g,/m,,
Baseline,,67.774,71.3756,156.206,100.573,100.613,0.00056513,0.0455317,20.9366,-448.642,-0.00308473,,
149,37,96.0973,120.333,136.388,100.576,89.796,0.0075637,0.839067,20.0617,400.545,0.890131,0.0,0.0
298,74.25,104.368,119.724,141.404,100.821,96.8208,0.00572878,0.552957,20.3026,392.799,0.317869,0.0,0.0
447,111.5,101.362,111.682,136.197,100.927,96.3645,0.00399656,0.397268,20.4988,387.334,0.36318,0.0,0.0
596,148.75,98.8066,107.934,140.612,100.279,97.2959,0.00314681,0.353059,20.556,382.46,0.237104,0.0,0.0
745,186,97.0941,105.169,144.785,99.7315,97.5663,0.00256554,0.323915,20.5961,377.986,0.17234,0.0,0.0
894,223.25,95.5774,103.133,144.949,99.7438,97.6839,0.00241545,0.309099,20.6206,373.923,0.163848,0.0,0.0
1043,260.5,94.1326,101.325,148.157,99.9096,99.2196,0.0022741,0.291606,20.6446,369.929,0.0544125,0.0,0.0
1192,297.75,93.7656,100.415,144.764,100.719,99.7582,0.00177621,0.273064,20.6631,366.236,0.0752821,0.0,0.0
1341,335,92.4671,99.1736,141.46,100.397,98.9186,0.00158523,0.253408,20.6862,362.874,0.116491,0.0,0.0
1490,372.25,91.378,97.8207,146.16,100.724,99.0444,0.00152139,0.241198,20.7027,359.731,0.132064,0.0,0.0
1639,409.5,91.1989,97.027,147.807,101.352,100.214,0.00168679,0.229591,20.7171,356.698,0.0886601,0.0,0.0
1788,446.75,90.3789,95.3233,141.534,100.745,99.8146,0.00158528,0.217605,20.7352,353.746,0.0728464,0.0,0.0
1937,484,89.2171,94.9767,145.147,99.8123,99.0138,0.00108157,0.208613,20.7444,351.054,0.0630587,0.0,0.0
2086,521.25,87.9743,94.086,147.983,100.946,100.931,0.00131564,0.205727,20.7469,348.271,0.00117457,0.0,0.0
2235,558.5,87.349,92.5161,145.677,100.713,100.167,0.0012794,0.20197,20.7527,345.709,0.0426164,0.0,0.0
2384,595.75,86.9362,92.1528,145.988,100.428,99.9487,0.00104804,0.198757,20.7547,343.227,0.0375357,0.0,0.0
2533,633,86.5285,91.5387,148.971,100.363,99.8758,0.00111007,0.200405,20.7549,340.565,0.0381877,0.0,0.0
2682,670.25,86.2598,91.1001,148.945,100.645,99.8452,0.00128934,0.20448,20.7517,338.093,0.0626659,0.0,0.0
2831,707.5,86.5988,92.138,144.24,100.719,99.5794,0.00111125,0.206091,20.7552,335.491,0.089332,0.0,0.0
2980,744.75,86.2979,92.3916,147.469,100.05,99.5912,0.00146795,0.208416,20.749,332.738,0.0360954,0.0,0.0
3129,782,86.1861,91.5147,145.346,101.079,100.818,0.00143289,0.210273,20.7456,330.146,0.0203574,0.0,0.0
3278,819.25,86.0134,92.2828,150.696,100.183,99.5442,0.00127726,0.213617,20.7409,327.344,0.0502322,0.0,0.0
3427,856.5,87.1006,93.1102,142.853,100.458,100.397,0.0013573,0.216869,20.741,324.431,0.00477019,0.0,0.0
3576,893.75,86.9367,92.5074,147.736,100.016,99.376,0.00161105,0.223877,20.7327,321.409,0.0504378,0.0,0.0
3725,931,87.0544,93.277,149.644,100.163,98.9527,0.00146274,0.231445,20.7263,318.266,0.0954427,0.0,0.0
3874,968.25,88.082,94.7309,144.891,100.198,99.4407,0.00154573,0.246686,20.7074,314.773,0.0595761,0.0,0.0
4023,1005.5,89.4166,96.6775,140.052,100.567,100.077,0.00155381,0.262309,20.685,311.22,0.0383246,0.0,0.0
4172,1042.75,89.1108,95.0952,144.565,101.034,100.32,0.00153111,0.228599,20.7231,307.908,0.0556551,0.0,0.0
4321,1080,90.0118,96.6639,149.912,100.747,99.3619,0.00156005,0.249248,20.7003,304.445,0.108693,0.0,0.0
4470,1117.25,90.6638,97.6081,145.932,100.607,99.9675,0.00160221,0.252616,20.6946,300.942,0.0500909,0.0,0.0
4619,1154.5,90.5854,96.6962,143.13,100.557,98.9374,0.00182488,0.245611,20.6983,297.769,0.127461,0.0,0.0
4768,1191.75,90.7371,97.26,144.071,101.467,99.8405,0.00159694,0.23525,20.7103,294.717,0.126866,0.0,0.0
4917,1229,89.9532,96.0256,151.485,100.097,98.6446,0.0017212,0.226171,20.7181,291.864,0.114744,0.0,0.0
5066,1266.25,89.727,95.4475,149.982,99.8499,99.6829,0.00190885,0.22356,20.725,289.192,0.0131377,0.0,0.0
5215,1303.5,88.441,93.2932,145.063,99.9155,99.6371,0.00170231,0.211272,20.7353,286.53,0.0219144,0.0,0.0
5364,1340.75,87.4778,93.1926,144.202,99.7885,99.3243,0.00180638,0.203695,20.7442,284.248,0.0366125,0.0,0.0
5513,1378,85.9057,91.4096,145.062,100.295,99.3948,0.00163925,0.194641,20.7589,281.906,0.0708227,0.0,0.0
5662,1415.25,85.7702,90.6469,146.842,101.386,100.873,0.00143184,0.189501,20.7613,279.764,0.039811,0.0,0.0
5811,1452.5,85.2481,89.9773,146.545,100.954,100.164,0.00129169,0.183002,20.7745,277.642,0.06169,0.0,0.0
5960,1489.75,83.8862,88.9655,147.621,100.846,99.8405,0.00129624,0.175489,20.7828,275.571,0.0786725,0.0,0.0
6109,1527,83.5317,88.2926,147.36,101.193,100.263,0.00142592,0.178781,20.7792,273.519,0.0724884,0.0,0.0
6258,1564.25,83.2354,88.4871,151.215,101.423,101.34,0.00180711,0.174314,20.7849,271.547,0.00643879,0.0,0.0
6407,1601.5,83.8861,88.6859,147.561,100.922,100.465,0.00171824,0.17381,20.7814,269.555,0.0356044,0.0,0.0
6556,1638.75,83.1245,88.0805,150.129,99.8898,98.7798,0.00184896,0.170486,20.789,267.654,0.0877364,0.0,0.0
6705,1676,82.5107,88.1644,151.743,100.361,99.6535,0.00161631,0.168323,20.7937,265.692,0.0555241,0.0,0.0
6854,1713.25,82.9072,87.587,151.816,100.782,99.5289,0.00182166,0.167353,20.7968,263.791,0.0982237,0.0,0.0
7003,1750.5,82.5315,87.9085,146.942,100.822,99.3889,0.00182319,0.168415,20.7931,261.879,0.112384,0.0,0.0
7152,1787.75,82.5933,87.3519,149.592,100.986,100.808,0.00190801,0.175338,20.7908,259.917,0.013802,0.0,0.0
7301,1825,83.3518,88.116,147.422,101.385,100.433,0.00190924,0.172441,20.792,257.946,0.0740861,0.0,0.0
7450,1862.25,82.2699,87.477,147.9,101.296,101.725,0.00165023,0.17351,20.7917,255.914,-0.0331968,0.0,0.0
7599,1899.5,82.8702,87.6167,147.304,100.649,100.417,0.00166008,0.176699,20.7866,253.962,0.0181315,0.0,0.0
7748,1936.75,83.2455,88.2515,150.038,100.755,99.8475,0.00204961,0.177265,20.7843,251.961,0.0710592,0.0,0.0
7897,1974,83.3958,88.197,143.604,100.793,100.159,0.00177551,0.177482,20.7848,249.909,0.0495217,0.0,0.0
8046,2011.25,83.538,88.645,148.892,100.407,100.724,0.00175199,0.17927,20.7826,247.847,-0.0247451,0.0,0.0
8195,2048.5,82.3745,88.0688,150.655,100.312,99.5771,0.00164318,0.180726,20.7822,245.776,0.0577404,0.0,0.0
8344,2085.75,83.1332,88.3412,147.895,101.161,101.15,0.00172517,0.185254,20.779,243.664,0.00084421,0.0,0.0
8493,2123,82.9717,88.236,148.054,100.551,100.518,0.00142868,0.185406,20.7755,241.522,0.00259973,0.0,0.0
8642,2160.25,83.1388,88.2923,146.432,100.983,100.705,0.00154944,0.187822,20.7764,239.45,0.0216801,0.0,0.0
8791,2197.5,83.5173,88.5652,150.943,100.031,99.5665,0.00172511,0.191698,20.7702,237.108,0.036551,0.0,0.0
8940,2234.75,83.1279,89.3494,151.794,100.851,101.242,0.00152083,0.190587,20.7716,234.927,-0.0303892,0.0,0.0
9089,2272,83.8562,89.9667,148.56,100.485,100.136,0.00168736,0.198304,20.765,232.555,0.0273765,0.0,0.0
9238,2309.25,84.5094,90.299,145.217,100.412,99.3748,0.00147126,0.201193,20.7582,230.122,0.0815372,0.0,0.0
9387,2346.5,84.4913,90.1367,145.376,99.9626,98.8633,0.0014706,0.201095,20.7598,227.781,0.0868247,0.0,0.0
9536,2383.75,84.1065,90.0837,152.134,100.132,99.3995,0.00170587,0.209481,20.7515,225.278,0.0576781,0.0,0.0
9685,2421,84.6206,90.8962,142.605,100.216,98.4518,0.00144778,0.212876,20.7465,222.846,0.139446,0.0,0.0
9834,2458.25,85.7209,92.2417,145.806,100.725,99.3537,0.00142619,0.216809,20.7389,220.164,0.107647,0.0,0.0
9983,2495.5,86.0314,92.3471,144.202,100.983,100.002,0.00168932,0.222428,20.7339,217.542,0.076667,0.0,0.0
10132,2532.75,86.5007,92.8666,146.72,100.267,99.4842,0.00144237,0.226003,20.7301,214.9,0.0615052,0.0,0.0
10281,2570,87.1167,93.4457,147.237,100.592,99.8569,0.00163822,0.231886,20.7217,212.157,0.0575722,0.0,0.0
10430,2607.25,87.5435,94.0478,142.139,101.467,100.815,0.00148108,0.231847,20.7226,209.455,0.0505773,0.0,0.0
10579,2644.5,88.7906,95.0163,144.049,100.005,98.7375,0.00140627,0.236508,20.7148,206.663,0.100117,0.0,0.0
10728,2681.75,88.497,94.5573,144.785,99.7925,98.7493,0.00165256,0.23831,20.7117,203.961,0.0825107,0.0,0.0
10877,2719,88.9131,94.3003,147.838,99.7956,98.6293,0.00162311,0.235689,20.7148,201.178,0.0923028,0.0,0.0
11026,2756.25,88.0845,93.6394,148.216,99.7984,98.3048,0.00165125,0.230821,20.7189,198.306,0.118399,0.0,0.0
11175,2793.5,88.1332,94.2003,142.437,100.716,98.9986,0.00189637,0.232273,20.7179,195.634,0.135052,0.0,0.0
11324,2830.75,88.477,94.2644,145.916,101.261,99.4701,0.00151776,0.232465,20.7178,193.112,0.14011,0.0,0.0
11473,2868,88.604,94.7905,144.13,100.87,98.5247,0.00151741,0.240223,20.7114,190.239,0.184687,0.0,0.0
11622,2905.25,89.2056,95.3468,145.952,100.667,99.0644,0.00153515,0.244391,20.7038,187.397,0.126005,0.0,0.0
11771,2942.5,89.0954,95.6817,149.093,100.984,98.6187,0.00151265,0.24588,20.7031,184.554,0.186121,0.0,0.0
11920,2979.75,88.6619,95.1419,145.899,100.986,98.8269,0.00173732,0.249391,20.6998,181.562,0.169661,0.0,0.0
12069,3017,89.3683,95.7748,145.677,100.652,98.0449,0.00179207,0.258107,20.686,178.559,0.206053,0.0,0.0
12218,3054.25,90.0542,96.5973,149.371,100.95,97.9955,0.00184486,0.253967,20.6902,175.607,0.233251,0.0,0.0
12367,3091.5,89.9779,96.1088,147.278,101.236,98.6364,0.00175698,0.243854,20.6978,172.785,0.204231,0.0,0.0
12516,3128.75,89.4361,95.1788,147.206,100.485,97.0172,0.00155876,0.232754,20.7092,170.172,0.275753,0.0,0.0
12665,3166,88.9789,94.9765,148.351,100.529,99.1291,0.00205673,0.226768,20.7181,167.62,0.11007,0.0,0.0
12814,3203.25,88.4843,94.0512,144.549,100.531,98.233,0.0015171,0.221451,20.7181,165.238,0.181519,0.0,0.0
12963,3240.5,85.5995,88.9703,151.474,100.799,99.7899,0.00238546,0.151426,20.7954,164.037,0.0790135,0.0,0.0
13112,3277.75,82.0573,85.9277,149.597,101.025,101.05,0.00256734,0.123664,20.8303,163.197,-0.00196581,0.0,0.0
13261,3315,80.2054,83.1626,151.828,101.262,101.196,0.0032889,0.118127,20.8456,162.496,0.00508354,0.0,0.0
13410,3352.25,78.8139,82.4321,153.477,101.096,101.542,0.00421423,0.112475,20.8448,161.895,-0.0345617,0.0,0.0
13559,3389.5,78.3696,81.9489,149.436,100.588,100.357,0.00444758,0.111932,20.8486,161.275,0.0180362,0.0,0.0
13708,3426.75,76.8455,80.3741,151.335,100.579,100.53,0.00471447,0.10744,20.8536,160.885,0.00387494,0.0,0.0
13857,3464,76.1676,80.4336,154.272,100.923,100.814,0.00527485,0.107483,20.8526,160.334,0.00848009,0.0,0.0
14006,3501.25,75.6214,79.4445,154.651,99.8831,100.124,0.00475946,0.105011,20.8584,159.904,-0.0189048,0.0,0.0
14136,3533.75,75.0215,79.0442,157.576,100.689,101.003,0.00503543,0.105702,20.8572,159.533,-0.0244973,0.0,0.0