File: 01_Data/Engineered_Wood_Table/Cone/Engineered_Wood_Table_Cone_HF25Scan_230626_R2.csv
Names,Time,Stack TC,Smoke TC,Exh Press,Smoke Comp,Smoke Meas,CO Meter,CO2 Meter,O2 Meter,Sample Mass,Ext Coeff,Start Test,Flame Verif
Chan Gain,,500,500,1,1,1,1,1,1,1,1,1.0,1.0
Offset,,0,0,0.21304,0,0,0,0,0,0,0,0.0,0.0
Gain,,1,1,25.011,13.9504,14.5362,1,1,1,1.0009,1.0389,1.0,1.0
Units,sec,C,C,Pa,%,%,%,%,%,g,/m,,
Baseline,,40.9167,42.3553,162.15,101.062,97.7051,0.000700803,0.0465114,20.9708,-444.538,0.307889,,
38,9.25,40.235,41.3852,162.349,101.069,97.8636,0.000612335,0.048075,20.9701,424.143,0.293714,0.0,0.0
76,18.75,40.5371,41.8347,162.798,101.061,97.7922,0.000324453,0.0479776,20.9713,424.093,0.299598,0.0,0.0
114,28.25,40.9968,42.399,162.895,101.057,97.534,0.000625462,0.0472874,20.9729,424.123,0.323344,0.0,0.0
152,37.75,41.28,42.1478,165.183,101.027,96.925,0.0007358,0.0478173,20.9747,423.973,0.377706,0.0,0.0
190,47.25,41.1896,42.9612,159.296,101.019,97.1503,0.0020121,0.0618825,20.9721,423.883,0.355851,0.0,0.0
228,56.75,41.1155,42.6987,160.18,100.949,97.1605,0.00126537,0.0518138,20.9677,423.773,0.348554,0.0,0.0
266,66.25,41.2425,42.5577,161.398,100.905,96.9001,0.00111379,0.0487798,20.9737,423.723,0.36909,0.0,0.0
304,75.75,41.5443,43.0432,158.983,100.828,96.4308,0.000979168,0.0488759,20.9758,423.643,0.406376,0.0,0.0
342,85.25,41.543,42.9462,162.788,100.745,96.449,0.000805213,0.0500045,20.9729,423.522,0.397111,0.0,0.0
380,94.75,41.7116,43.2347,159.067,100.683,95.6026,0.000966483,0.0523668,20.9727,423.362,0.471893,0.0,0.0
418,104.25,42.0303,42.9387,163.771,100.617,95.5586,0.00123746,0.0555888,20.9722,423.182,0.470027,0.0,0.0
456,113.75,42.1182,43.6135,160.389,100.529,94.8431,0.00176476,0.0587611,20.9731,422.972,0.530577,0.0,0.0
494,123.25,42.041,43.6078,162.467,100.447,93.6489,0.00252293,0.0622554,20.9713,422.622,0.6386,0.0,0.0
532,132.75,43.2675,46.754,142.771,100.353,94.376,0.00329428,0.0654431,20.9708,422.051,0.559618,0.0,1.0
570,142.25,52.0342,63.9105,141.204,100.219,93.1916,0.00431874,0.291049,20.8964,420.089,0.662567,0.0,0.0
608,151.75,56.7267,69.4418,144.751,100.067,92.0417,0.00684449,0.534158,20.4349,418.488,0.761799,0.0,0.0
646,161.25,59.8132,70.3656,147.145,99.8541,92.8624,0.00605572,0.445431,20.5065,416.896,0.661535,0.0,0.0
684,170.75,61.266,71.6711,146.508,99.6438,92.6521,0.00567941,0.409297,20.5576,415.615,0.66298,0.0,0.0
722,180.25,62.734,71.9173,150.439,99.4347,93.5025,0.0048578,0.386634,20.5824,414.304,0.56058,0.0,0.0
760,189.75,63.2556,71.534,145.082,99.3006,93.6312,0.00386813,0.358324,20.6116,413.113,0.53575,0.0,0.0
798,199.25,63.2188,70.1849,144.137,99.2112,94.3205,0.00365701,0.325852,20.645,412.032,0.46069,0.0,0.0
836,208.75,62.428,68.4055,155.543,99.1665,94.4594,0.00267665,0.296844,20.6821,411.171,0.443178,0.0,0.0
874,218.25,62.135,67.6285,152.33,99.1631,94.2429,0.00245949,0.27321,20.7093,410.28,0.463774,0.0,0.0
912,227.75,61.6887,65.9668,148.658,99.2257,94.5876,0.0023719,0.254531,20.7312,409.45,0.436254,0.0,0.0
950,237.25,60.9226,65.0397,153.17,99.376,94.6763,0.00212446,0.233821,20.7529,408.779,0.441502,0.0,0.0
988,246.75,60.56,64.2699,151.159,99.5258,94.9766,0.0019468,0.21727,20.774,408.099,0.426372,0.0,0.0
1026,256.25,59.6141,62.8165,154.533,99.614,94.671,0.00192407,0.206787,20.7883,407.448,0.463813,0.0,0.0
1064,265.75,58.7705,61.8499,156.42,99.6182,95.127,0.00195218,0.195833,20.799,406.767,0.420409,0.0,0.0
1102,275.25,58.3941,61.0543,151.409,99.6587,95.1443,0.00219522,0.186214,20.8152,406.237,0.42245,0.0,0.0
1140,284.75,57.6081,60.4303,156.456,99.7272,95.1248,0.00214938,0.177121,20.8264,405.716,0.430586,0.0,0.0
1178,294.25,57.1315,59.5686,158.251,99.8319,95.9069,0.00235116,0.171258,20.8332,405.096,0.365534,0.0,0.0
1216,303.75,56.5022,58.5855,154.056,99.9613,95.536,0.00243369,0.164759,20.8403,404.645,0.412647,0.0,0.0
1254,313.25,55.5785,58.2022,149.432,100.15,95.6212,0.00233163,0.161154,20.8449,404.145,0.421743,0.0,0.0
1292,322.75,55.5126,57.4793,153.184,100.313,95.8745,0.00278784,0.158063,20.8502,403.665,0.412459,0.0,0.0
1330,332.25,54.8141,57.0194,152.59,100.412,96.3234,0.00234633,0.154325,20.855,403.074,0.378816,0.0,0.0
1368,341.75,54.5434,56.8303,156.774,100.433,96.1047,0.00255501,0.152599,20.8559,402.684,0.401462,0.0,0.0
1406,351.25,54.2537,56.2648,158.671,100.405,95.8927,0.00237533,0.150107,20.8582,402.233,0.41908,0.0,0.0
1444,360.75,54.3503,57.0238,153.243,100.402,96.0329,0.0025756,0.14834,20.8616,401.693,0.405421,0.0,0.0
1482,370.25,53.8031,56.2241,157.055,100.332,95.9663,0.0031216,0.146264,20.864,401.322,0.405436,0.0,0.0
1520,379.75,53.4066,55.863,157.924,100.261,96.0617,0.00300979,0.143979,20.8672,400.872,0.389885,0.0,0.0
1558,389.25,53.3605,54.9326,153.208,100.212,95.6478,0.00315111,0.141059,20.8699,400.402,0.424822,0.0,0.0
1596,398.75,53.4198,55.2386,156.78,100.307,95.7432,0.0036116,0.138821,20.8732,399.971,0.424369,0.0,0.0
1634,408.25,53.0077,54.9957,154.577,100.283,95.5267,0.00359686,0.138328,20.874,399.571,0.442792,0.0,0.0
1672,417.75,52.3763,54.8262,160.956,100.291,95.9703,0.00358225,0.136341,20.874,399.15,0.401343,0.0,0.0
1710,427.25,52.7012,54.2443,157.262,100.262,95.5001,0.00358528,0.135353,20.8771,398.7,0.443474,0.0,0.0
1748,436.75,52.1003,54.4169,156.349,100.21,95.7529,0.00338139,0.133685,20.8784,398.23,0.414578,0.0,0.0
1786,446.25,52.6087,53.9711,155.64,100.155,95.4841,0.0038692,0.132565,20.8803,397.769,0.435243,0.0,0.0
1824,455.75,51.4564,53.8285,158.872,100.067,96.1021,0.00382526,0.130875,20.8805,397.409,0.368393,0.0,0.0
1862,465.25,51.9001,53.2514,157.345,99.9865,95.3963,0.00449791,0.130326,20.8801,397.029,0.428276,0.0,0.0
1900,474.75,51.887,53.1675,156.667,99.9069,95.4948,0.0037913,0.13069,20.882,396.508,0.411614,0.0,0.0
1938,484.25,51.8063,53.527,156.77,99.8732,95.5152,0.00442925,0.129362,20.8834,396.188,0.406599,0.0,0.0
1976,493.75,51.6439,53.7294,158.869,99.8404,95.8789,0.00441485,0.128926,20.8847,395.777,0.368967,0.0,0.0
2014,503.25,51.6371,53.5585,158.318,99.8328,95.7521,0.00468829,0.127167,20.885,395.357,0.380333,0.0,0.0
2052,512.75,51.3096,53.4651,158.356,99.8715,95.5027,0.00492552,0.126185,20.8865,394.887,0.407629,0.0,0.0
2090,522.25,51.3359,53.0107,158.438,100.083,96.3252,0.005442,0.12328,20.8885,394.566,0.34877,0.0,0.0
2128,531.75,51.5462,52.9689,159.894,100.26,95.583,0.00520122,0.122756,20.8887,394.146,0.435368,0.0,0.0
2166,541.25,50.9106,52.7339,157.929,100.426,96.8025,0.00599564,0.120692,20.892,393.685,0.334877,0.0,0.0
2204,550.75,50.9742,52.568,158.907,100.588,95.7379,0.00533511,0.1195,20.8937,393.275,0.450329,0.0,0.0
2242,560.25,50.6895,52.4361,157.406,100.674,96.0457,0.00639329,0.114666,20.8994,392.955,0.428898,0.0,0.0
2280,569.75,50.6272,51.9847,154.999,100.706,96.1482,0.0068765,0.111236,20.9028,392.534,0.42207,0.0,0.0
2318,579.25,50.0204,51.6082,161.414,100.698,96.2551,0.0068008,0.110383,20.9068,392.034,0.411248,0.0,0.0
2356,588.75,50.1693,51.4398,160.677,100.633,95.9921,0.00692297,0.109416,20.9062,391.694,0.430292,0.0,0.0
2394,598.25,49.6544,51.205,156.736,100.54,95.8173,0.00757725,0.103585,20.9127,391.353,0.438492,0.0,0.0
2432,607.75,49.6025,50.8072,163.881,100.402,95.2273,0.00715833,0.106115,20.9111,391.003,0.482191,0.0,0.0
2470,617.25,48.9571,50.2306,154.558,100.238,95.7064,0.00791419,0.101251,20.9151,390.533,0.421567,0.0,0.0
2508,626.75,49.1136,50.0483,169.505,100.313,95.9756,0.00828192,0.102159,20.917,390.222,0.402773,0.0,0.0
2546,636.25,48.5167,50.0523,157.042,100.379,94.9167,0.00837108,0.100848,20.9174,389.812,0.50987,0.0,0.0
2584,645.75,48.0887,49.1741,157.806,100.479,95.5555,0.00820339,0.0935449,20.9223,389.462,0.45786,0.0,0.0
2622,655.25,47.8329,48.7853,157.797,100.547,95.2663,0.00895192,0.0909231,20.9302,389.051,0.491662,0.0,0.0
2660,664.75,47.8107,48.5195,159.646,100.638,96.0684,0.00934133,0.0904292,20.9321,388.711,0.423475,0.0,0.0
2698,674.25,47.8268,48.6673,158.207,100.774,95.8448,0.00954639,0.0903822,20.9302,388.311,0.457036,0.0,0.0
2736,683.75,47.8126,48.8544,159.756,100.909,95.815,0.00917439,0.0901237,20.9299,387.89,0.472021,0.0,0.0
2774,693.25,47.1494,48.7112,160.59,101.032,95.9787,0.00880183,0.0905262,20.9277,387.61,0.467569,0.0,0.0
2812,702.75,46.8539,48.2752,155.146,101.093,96.1389,0.00883744,0.0903667,20.9258,387.21,0.457944,0.0,0.0
2850,712.25,46.9463,48.4569,159.963,101.105,95.8346,0.00892833,0.0905222,20.9297,386.859,0.487872,0.0,0.0
2888,721.75,47.6414,48.5819,162.14,101.102,96.244,0.00892242,0.0906563,20.925,386.469,0.44875,0.0,0.0
2926,731.25,46.6337,48.3173,157.643,101.115,96.2906,0.00912871,0.0899392,20.9296,386.139,0.445531,0.0,0.0
2964,740.75,47.1401,47.9674,160.813,101.134,96.2653,0.00890014,0.0896996,20.9216,385.788,0.449613,0.0,0.0
3002,750.25,46.8353,48.0113,155.414,101.139,96.5044,0.00862995,0.0898139,20.9141,385.368,0.427504,0.0,0.0
3040,759.75,46.1852,47.6908,157.39,101.159,96.8078,0.00888354,0.0897972,20.9209,385.058,0.400621,0.0,0.0
3078,769.25,46.3949,47.9336,159.306,101.161,96.1637,0.00884495,0.0898449,20.9116,384.657,0.46169,0.0,0.0
3116,778.75,46.902,48.2097,159.106,101.16,96.1637,0.00874893,0.0904012,20.9239,384.327,0.461574,0.0,0.0
3154,788.25,46.988,48.1154,159.925,101.148,96.3922,0.00879018,0.0897294,20.9261,383.947,0.438914,0.0,0.0
3192,797.75,46.3823,47.5133,160.012,101.166,96.3904,0.00904877,0.0896017,20.9259,383.646,0.440654,0.0,0.0
3230,807.25,46.3143,48.3316,161.87,101.138,96.6424,0.00890288,0.089871,20.926,383.296,0.414408,0.0,0.0
3268,816.75,46.3973,47.8571,160.844,101.086,96.7409,0.00888745,0.0901436,20.9257,382.866,0.400407,0.0,0.0
3306,826.25,46.3086,48.3471,161.124,101.017,96.543,0.0090293,0.0898827,20.9236,382.545,0.412843,0.0,0.0
3344,835.75,46.5119,47.8004,160.454,100.992,96.7888,0.0088317,0.0892483,20.9233,382.245,0.387446,0.0,0.0
3382,845.25,46.3218,47.7394,163.246,101.007,97.0132,0.00843589,0.0889035,20.9249,381.895,0.36768,0.0,0.0
3420,854.75,46.2099,47.9563,160.625,100.959,96.4995,0.00878423,0.0895627,20.9252,381.464,0.411723,0.0,0.0
3458,864.25,46.8535,47.6553,160.246,100.898,96.6743,0.00905603,0.0895974,20.9274,381.174,0.389735,0.0,0.0
3496,873.75,46.8311,47.8451,159.317,100.788,96.4587,0.00899223,0.0888023,20.9276,380.464,0.400118,0.0,0.0
3534,883.25,46.6272,47.8868,158.737,100.688,96.6379,0.00832502,0.0909985,20.9271,380.494,0.374149,0.0,0.0
3572,892.75,46.0092,47.0645,159.422,100.582,95.9135,0.0083861,0.105575,20.9125,380.093,0.433083,0.0,0.0
3610,902.25,46.2529,48.0699,158.19,100.553,96.1442,0.00896981,0.106311,20.9033,379.843,0.408569,0.0,0.0
3614,903.25,46.4002,47.7838,162.158,100.554,96.1464,0.00898274,0.105153,20.9037,379.813,0.408513,0.0,0.0