File: 01_Data/Engineered_Wood_Table/Cone/Engineered_Wood_Table_Cone_HF75Scalar_230626_R2.csv
LABORATORY,FSRI
TEST IDENT,Eng_Wood_Tab_HF75_R2
OPERATOR,Marino
MATERIAL,Engineered Wood Table
ORIENTATION,Horizontal
HEAT FLUX,75
SURF AREA,0.01
C FACTOR,0.0411841
SPEC HOLDER DIFF,-566
SPECIMEN MASS,335.83
SCAN TIME,0.25
O2 DELAY TIME,11
CO DELAY TIME,11
CO2 DELAY TIME,8
FLOW FACTOR,1
SCAN COUNT,14136
TIME TO IGN,3.75
END OF TEST SCAN,13656
END OF TEST TIME,3414
TEST STATUS,1
PRE TEST CMT,Dimensions: 100.52 x 100.74 x 46.32 mm; with tie wires
POST TEST CMT,"Some burning occurred between the sample edge and foil due to volume shrinking. Test was after the average mass loss rate over 1 minute was less than 150 g/m^2 despite ongoing flaming combustion, in accordance with ASTM 1354. Sample charred and partly delamainted, and continued to smolder after end of test."