File: 01_Data/Engineered_Wood_Table/Cone/Engineered_Wood_Table_Cone_HF50Scan_230626_R3.csv
Names,Time,Stack TC,Smoke TC,Exh Press,Smoke Comp,Smoke Meas,CO Meter,CO2 Meter,O2 Meter,Sample Mass,Ext Coeff,Start Test,Flame Verif
Chan Gain,,500,500,1,1,1,1,1,1,1,1,1.0,1.0
Offset,,0,0,0.208865,0,0,0,0,0,0,0,0.0,0.0
Gain,,1,1,25.011,13.0519,31.1647,1,1,1,1.00091,1.03162,1.0,1.0
Units,sec,C,C,Pa,%,%,%,%,%,g,/m,,
Baseline,,49.3083,51.8765,161.962,100.145,100.315,0.00069168,0.0486972,20.9377,-443.468,-0.0152892,,
164,40.75,60.399,74.3571,138.392,100.608,95.1631,0.00466724,0.454559,20.696,429.579,0.503504,0.0,0.0
328,81.75,78.787,92.189,150.147,101.444,99.2138,0.00542049,0.484043,20.4004,421.702,0.201148,0.0,0.0
492,122.75,77.6389,85.5388,150.944,101.008,99.7777,0.00306609,0.326095,20.5946,416.277,0.110933,0.0,0.0
656,163.75,75.3244,82.2832,149.679,100.765,100.607,0.00219723,0.278281,20.6569,411.873,0.0142328,0.0,0.0
820,204.75,73.4853,79.468,147.62,100.763,100.311,0.00184344,0.253974,20.6933,407.929,0.040662,0.0,0.0
984,245.75,72.8155,78.6211,150.962,101.335,100.548,0.00181537,0.241225,20.7082,404.376,0.0705109,0.0,0.0
1148,286.75,72.5872,77.2001,149.055,100.897,100.746,0.00178699,0.226153,20.726,400.803,0.0135844,0.0,0.0
1312,327.75,71.9538,76.4829,150.041,101.496,101.435,0.00176643,0.216518,20.7395,397.61,0.00544396,0.0,0.0
1476,368.75,71.0462,75.8684,150.867,101.703,101.201,0.00174839,0.206754,20.7497,394.547,0.0448236,0.0,0.0
1640,409.75,70.6855,75.2472,154.347,99.9776,100.068,0.00138167,0.196171,20.7617,391.675,-0.00816507,0.0,0.0
1804,450.75,69.8488,73.8448,154.592,100.497,100.565,0.00179573,0.188149,20.7769,388.962,-0.00614456,0.0,0.0
1968,491.75,69.1043,73.1692,154.889,101.013,100.908,0.00150807,0.179308,20.7827,386.49,0.00942671,0.0,0.0
2132,532.75,68.5005,72.578,150.264,101.002,100.773,0.00148636,0.173283,20.7913,383.988,0.0205476,0.0,0.0
2296,573.75,68.4349,71.2934,152.165,100.602,99.753,0.00187458,0.16795,20.7986,381.576,0.0767031,0.0,0.0
2460,614.75,67.0731,70.7577,153.797,99.8306,98.9665,0.00157732,0.164217,20.8046,379.283,0.07867,0.0,0.0
2624,655.75,67.0632,70.4763,148.284,100.274,99.442,0.00162654,0.159972,20.8087,377.051,0.075352,0.0,0.0
2788,696.75,66.415,70.1196,152.296,101.624,101.093,0.00204911,0.157603,20.8104,374.849,0.0473845,0.0,0.0
2952,737.75,66.1187,69.7203,156.31,101.006,100.657,0.00167462,0.154976,20.8166,372.838,0.0312796,0.0,0.0
3116,778.75,66.1654,69.4057,155.193,100.904,100.779,0.00201522,0.154359,20.8178,370.746,0.0111659,0.0,0.0
3280,819.75,65.8641,69.3626,155.836,101.006,101.101,0.00218477,0.15496,20.8154,368.764,-0.00847712,0.0,0.0
3444,860.75,66.0143,69.423,156.981,99.8752,99.889,0.00179119,0.155236,20.8196,366.592,-0.00125199,0.0,0.0
3608,901.75,65.9759,69.2822,152.846,99.7386,99.7188,0.00201192,0.157439,20.8144,364.47,0.00179704,0.0,0.0
3772,942.75,65.6039,69.4718,153.901,100.64,100.635,0.00185325,0.160257,20.8145,362.438,0.000441203,0.0,0.0
3936,983.75,65.4732,69.7234,151.389,100.722,100.579,0.00159156,0.159909,20.8124,360.306,0.0127786,0.0,0.0
4100,1024.75,65.6787,69.5922,155.123,100.928,100.469,0.00145945,0.161201,20.8089,358.084,0.0411925,0.0,0.0
4264,1065.75,66.5311,70.4658,151.231,100.902,100.585,0.00151756,0.16351,20.8088,355.822,0.028426,0.0,0.0
4428,1106.75,66.563,71.2696,150.438,101.69,101.568,0.00196408,0.165139,20.8067,353.53,0.0108512,0.0,0.0
4592,1147.75,66.9563,71.3067,153.679,101.045,100.512,0.00151365,0.168782,20.8046,351.158,0.0478319,0.0,0.0
4756,1188.75,67.7513,72.1316,154.234,100.638,100.213,0.00154961,0.173411,20.7986,348.526,0.0382636,0.0,0.0
4920,1229.75,67.9416,72.6448,150.033,100.893,100.117,0.00182472,0.178972,20.7941,345.873,0.0698354,0.0,0.0
5084,1270.75,68.9868,73.4313,154.214,101.535,101.081,0.00150441,0.186963,20.7842,343.121,0.0406126,0.0,0.0
5248,1311.75,69.4555,74.436,150.153,101.55,100.786,0.00162007,0.192485,20.7758,340.218,0.0683602,0.0,0.0
5412,1352.75,70.3132,74.8893,156.859,100.976,100.263,0.00169401,0.199297,20.7695,337.115,0.0641216,0.0,0.0
5576,1393.75,70.5028,75.9189,152.215,101.574,101.156,0.00168287,0.204293,20.7575,334.143,0.0372957,0.0,0.0
5740,1434.75,70.8677,76.1181,152.27,101.081,100.263,0.00174871,0.202426,20.7577,331.14,0.0735759,0.0,0.0
5904,1475.75,72.1487,77.1844,146.6,99.7621,99.0007,0.00214531,0.215791,20.7472,328.037,0.0693269,0.0,0.0
6068,1516.75,73.0149,78.9689,146.953,100.68,99.9756,0.00217352,0.230014,20.73,324.604,0.0635207,0.0,0.0
6232,1557.75,73.8078,78.7699,150.935,100.688,99.8719,0.00199736,0.226091,20.7307,321.211,0.0736241,0.0,0.0
6396,1598.75,73.6959,79.0201,149.258,100.859,100.706,0.00215007,0.217794,20.7388,317.938,0.0137427,0.0,0.0
6560,1639.75,73.853,78.5093,149.901,101.595,101.135,0.00242853,0.211033,20.7441,314.955,0.0410486,0.0,0.0
6724,1680.75,73.2466,77.6568,147.732,100.612,100.578,0.00171545,0.205515,20.7541,312.103,0.00306748,0.0,0.0
6888,1721.75,73.2768,78.0725,146.531,100.082,99.3269,0.00204173,0.20402,20.7558,309.33,0.0685604,0.0,0.0
7052,1762.75,72.9358,77.5375,150.461,100.295,100.016,0.00202946,0.198892,20.7588,306.558,0.0251681,0.0,0.0
7216,1803.75,72.5434,77.0654,150.68,101.142,100.814,0.0025063,0.200697,20.7577,303.895,0.0293433,0.0,0.0
7380,1844.75,72.7915,77.3733,152.676,101.599,101.623,0.00260652,0.199785,20.757,301.263,-0.00207632,0.0,0.0
7544,1885.75,72.2394,76.6441,148.251,101.136,100.869,0.00256176,0.19561,20.7601,298.771,0.0239793,0.0,0.0
7708,1926.75,72.2258,76.6925,151.137,101.581,101.413,0.00276994,0.194381,20.762,296.178,0.0150276,0.0,0.0
7872,1967.75,71.8521,76.156,154.117,101.678,101.437,0.00251428,0.187838,20.7724,293.806,0.0214742,0.0,0.0
8036,2008.75,71.4434,75.4156,149.432,101.598,101.315,0.00296618,0.179716,20.782,291.484,0.0252983,0.0,0.0
8200,2049.75,70.9854,74.5797,144.909,100.665,100.685,0.00357406,0.170283,20.791,289.362,-0.00179902,0.0,0.0
8364,2090.75,70.3718,74.1339,150.763,99.8127,99.8804,0.00405597,0.164878,20.7992,287.37,-0.00614348,0.0,0.0
8528,2131.75,69.4155,72.6569,153.849,100.401,100.267,0.00404553,0.159679,20.8083,285.489,0.0120849,0.0,0.0
8692,2172.75,68.8421,72.1431,146.871,100.274,100.087,0.0043086,0.154332,20.813,283.567,0.0168626,0.0,0.0
8856,2213.75,68.1929,72.2687,150.132,99.919,99.9993,0.00475721,0.151285,20.8134,281.805,-0.00727217,0.0,0.0
9020,2254.75,68.0728,71.7247,152.37,99.7661,99.3545,0.00438726,0.148658,20.8191,280.044,0.0374074,0.0,0.0
9184,2295.75,67.4732,70.7157,151.647,100.569,100.267,0.00505992,0.147717,20.8185,278.412,0.0272936,0.0,0.0
9348,2336.75,67.0501,70.3771,155.456,101.611,100.814,0.00467783,0.14458,20.8264,276.761,0.0712633,0.0,0.0
9512,2377.75,66.9573,70.7762,152.472,100.812,100.836,0.00472724,0.143735,20.8216,275.119,-0.00214052,0.0,0.0
9676,2418.75,66.6677,70.5557,149.632,100.496,100.31,0.00462428,0.146055,20.8226,273.528,0.0167129,0.0,0.0
9840,2459.75,66.8674,70.5204,153.412,100.448,100.31,0.00475538,0.146138,20.819,271.806,0.0123725,0.0,0.0
10004,2500.75,66.5886,70.9539,152.014,99.87,99.7682,0.00502299,0.148245,20.8188,270.155,0.00922843,0.0,0.0
10168,2541.75,66.7004,70.4222,153.334,101.36,101.559,0.00494829,0.147828,20.8197,268.423,-0.0177474,0.0,0.0
10332,2582.75,66.7546,70.4999,157.627,101.079,100.533,0.00528808,0.152297,20.8174,266.702,0.0490155,0.0,0.0
10496,2623.75,66.6374,70.5984,150.131,99.8429,99.9432,0.00458098,0.155181,20.8124,264.84,-0.00908505,0.0,0.0
10660,2664.75,67.4987,71.1198,150.355,99.9461,99.7815,0.00437922,0.156815,20.8134,262.988,0.0149113,0.0,0.0
10824,2705.75,68.0383,72.2189,152.828,100.767,100.109,0.0042386,0.159473,20.8086,261.006,0.0592776,0.0,0.0
10988,2746.75,68.2615,72.508,150.831,100.583,100.651,0.00448465,0.163846,20.8054,258.965,-0.00613593,0.0,0.0
11152,2787.75,68.9099,72.7359,154.429,101.18,101.748,0.00356687,0.166094,20.8046,256.933,-0.0506839,0.0,0.0
11316,2828.75,69.3154,73.5864,152.362,101.191,101.35,0.00335389,0.172166,20.799,254.721,-0.0142104,0.0,0.0
11480,2869.75,69.5614,74.3414,152.647,101.194,101.297,0.00376254,0.17716,20.7919,252.409,-0.00920437,0.0,0.0
11644,2910.75,70.2642,75.0433,152.315,101.071,100.826,0.00324415,0.18299,20.7843,250.046,0.0219736,0.0,0.0
11808,2951.75,70.9509,75.6994,149.393,100.55,100.057,0.00272724,0.190021,20.7786,247.504,0.044405,0.0,0.0
11972,2992.75,71.5451,76.1227,151.766,100.687,100.735,0.00257358,0.195034,20.7716,244.862,-0.00430853,0.0,0.0
12136,3033.75,71.6596,76.7991,148.945,100.107,99.792,0.00224501,0.200974,20.7691,242.279,0.0285207,0.0,0.0
12300,3074.75,72.5588,77.6625,146.001,99.7517,99.7425,0.00252749,0.207962,20.7581,239.507,0.000831688,0.0,0.0
12464,3115.75,72.8413,77.8538,149.138,99.6948,99.6855,0.00198229,0.213091,20.7487,236.614,0.000842475,0.0,0.0
12628,3156.75,73.4222,78.579,145.98,99.7923,99.4173,0.00208072,0.21697,20.7472,233.722,0.0340754,0.0,0.0
12792,3197.75,73.7422,78.3514,150.117,100.233,99.89,0.00216625,0.219593,20.7434,230.729,0.0310485,0.0,0.0
12956,3238.75,74.3579,79.8759,152.677,100.405,100.125,0.0022551,0.21692,20.7425,227.716,0.0253133,0.0,0.0
13120,3279.75,74.0313,78.3159,152.62,100.638,100.164,0.00202525,0.213846,20.7422,224.874,0.0427312,0.0,0.0
13284,3320.75,73.7504,77.977,148.393,101.117,100.818,0.00201563,0.205642,20.7528,222.131,0.0267913,0.0,0.0
13448,3361.75,73.238,78.3794,150.033,101.587,101.294,0.00222531,0.204031,20.7563,219.409,0.026175,0.0,0.0
13612,3402.75,73.3526,78.1165,154.346,101.554,101.099,0.00257935,0.206123,20.7542,216.876,0.0406287,0.0,0.0
13776,3443.75,72.7248,76.9425,147.365,101.286,100.607,0.00224013,0.196893,20.7663,214.464,0.0608647,0.0,0.0
13940,3484.75,72.1748,76.9945,152.921,99.9799,99.5771,0.00224136,0.19131,20.7762,212.012,0.0365404,0.0,0.0
14104,3525.75,72.9297,77.6538,151.214,99.9461,99.83,0.00182162,0.193097,20.7714,209.65,0.010514,0.0,0.0
14268,3566.75,72.771,77.7661,150.57,101.016,100.335,0.00239881,0.201632,20.7625,207.208,0.0612044,0.0,0.0
14432,3607.75,73.4698,78.7828,150.353,101.045,100.868,0.00211743,0.213184,20.7509,204.615,0.0158644,0.0,0.0
14596,3648.75,74.714,79.3331,148.741,101.639,101.687,0.00196395,0.223415,20.7339,201.813,-0.00432202,0.0,0.0
14760,3689.75,75.9085,81.3325,149.366,99.7704,99.5837,0.00175039,0.238819,20.7218,198.78,0.016952,0.0,0.0
14924,3730.75,77.3035,83.4405,148.071,100.602,100.239,0.00179726,0.256608,20.6955,195.467,0.0326857,0.0,0.0
15088,3771.75,78.4937,84.3185,145.702,100.894,99.9889,0.00172158,0.275202,20.6815,191.854,0.0815559,0.0,0.0
15252,3812.75,79.1467,85.0343,152.273,101.579,99.7787,0.00197178,0.288829,20.6574,188.05,0.161803,0.0,0.0
15416,3853.75,80.44,86.718,143.289,100.826,99.1643,0.00224791,0.298009,20.644,184.187,0.150417,0.0,0.0
15525,3881,80.4841,86.7578,146.556,100.638,98.451,0.00239452,0.293617,20.6457,181.584,0.19882,0.0,0.0