File: 01_Data/Engineered_Wood_Table/Cone/Engineered_Wood_Table_Cone_HF25Scan_230626_R3.csv
Names,Time,Stack TC,Smoke TC,Exh Press,Smoke Comp,Smoke Meas,CO Meter,CO2 Meter,O2 Meter,Sample Mass,Ext Coeff,Start Test,Flame Verif
Chan Gain,,500,500,1,1,1,1,1,1,1,1,1.0,1.0
Offset,,0,0,0.21304,0,0,0,0,0,0,0,0.0,0.0
Gain,,1,1,25.011,13.9822,15.1223,1,1,1,1.0009,1.0389,1.0,1.0
Units,sec,C,C,Pa,%,%,%,%,%,g,/m,,
Baseline,,44.0408,45.2007,160.983,100.34,100.353,0.000307259,0.04632,20.9739,-444.831,-0.00114584,,
50,12.25,43.1884,44.4217,156.502,100.663,100.518,0.000162569,0.0589377,20.9644,416.376,0.0131281,0.0,0.0
100,24.75,43.5013,45.1871,159.024,100.744,100.054,0.000659711,0.0599855,20.9583,416.296,0.062657,0.0,0.0
150,37.25,43.4947,45.3976,159.355,100.788,99.9128,0.000252802,0.0543459,20.9593,416.166,0.079461,0.0,0.0
200,49.75,43.9701,45.1571,158.79,100.8,99.5321,0.00173121,0.0524714,20.9545,416.046,0.115373,0.0,0.0
250,62.25,44.451,45.5281,162.381,100.795,100.043,0.0011266,0.0496168,20.9663,415.896,0.068173,0.0,0.0
300,74.75,44.0601,45.6312,160.126,100.798,99.8837,0.000473877,0.0490575,20.9665,415.745,0.083039,0.0,0.0
350,87.25,43.6294,45.6248,157.793,100.793,98.921,0.00062054,0.0506364,20.9695,415.645,0.170874,0.0,0.0
400,99.75,44.6433,46.0923,157.308,100.773,98.8103,0.00112135,0.0552321,20.9713,415.385,0.179231,0.0,0.0
450,112.25,44.5551,46.1438,162.882,100.728,98.011,0.00192809,0.0600914,20.9684,415.005,0.249159,0.0,0.0
500,124.75,45.1537,46.6825,160.653,100.589,95.8973,0.00315578,0.0637359,20.9773,414.654,0.435245,0.0,0.0
550,137.25,52.2577,63.0013,141.22,100.437,95.4852,0.00406821,0.13335,20.9638,412.703,0.460798,0.0,0.0
600,149.75,60.0141,71.8336,146.653,100.341,95.7275,0.0074643,0.508874,20.4457,410.471,0.42891,0.0,0.0
650,162.25,63.0703,74.9786,146.231,100.261,96.1544,0.00737534,0.424637,20.5136,408.529,0.381112,0.0,0.0
700,174.75,64.9608,74.0007,150.069,100.179,97.2541,0.00546763,0.388842,20.5543,406.837,0.270023,0.0,0.0
750,187.25,65.9303,73.711,146.976,100.23,97.7775,0.00423771,0.337909,20.6192,405.316,0.225734,0.0,0.0
800,199.75,65.7089,72.2316,145.18,100.364,98.4088,0.00342737,0.311746,20.6529,403.855,0.179256,0.0,0.0
850,212.25,65.5886,71.5023,151.745,100.556,98.0064,0.00262853,0.290453,20.6767,402.604,0.234056,0.0,0.0
900,224.75,64.9098,69.5438,151.924,100.753,98.8837,0.00203728,0.265748,20.6996,401.453,0.170691,0.0,0.0
950,237.25,64.1687,68.7567,149.178,100.884,99.1716,0.00183727,0.245038,20.7274,400.322,0.155992,0.0,0.0
1000,249.75,63.3146,67.4833,147.418,100.942,99.2344,0.00180862,0.229886,20.7471,399.351,0.155507,0.0,0.0
1050,262.25,62.1597,65.9573,151.424,101.021,99.0138,0.00167439,0.219769,20.7645,398.49,0.182872,0.0,0.0
1100,274.75,61.698,65.606,151.815,101.04,99.0507,0.00149779,0.210268,20.7727,397.619,0.181245,0.0,0.0
1150,287.25,61.2485,64.6435,153.22,101.012,99.0886,0.00160652,0.205352,20.7799,396.768,0.175185,0.0,0.0
1200,299.75,60.6702,63.519,148.933,100.913,98.8283,0.0015636,0.196999,20.7906,395.908,0.190258,0.0,0.0
1250,312.25,60.0366,62.9619,150.195,100.636,98.8366,0.00190169,0.189242,20.8009,395.117,0.164411,0.0,0.0
1300,324.75,59.6568,62.0792,154.014,100.6875,99.1513,0.00163324,0.18147,20.8106,394.296,0.14011,0.0,0.0
1350,337.25,58.7841,61.5961,153.16,100.866,99.4111,0.00178596,0.175269,20.8151,393.655,0.13239,0.0,0.0
1400,349.75,58.3888,61.2691,152.654,101.016,99.4518,0.00203463,0.16992,20.8227,392.975,0.142227,0.0,0.0
1450,362.25,58.1066,61.1075,153.632,101.216,99.5925,0.00188698,0.165148,20.8307,392.324,0.147376,0.0,0.0
1500,374.75,57.5064,60.2214,155.552,101.439,99.833,0.00272942,0.1598,20.8382,391.674,0.145471,0.0,0.0
1550,387.25,57.4964,59.3032,159.33,101.514,99.904,0.0027769,0.154884,20.8422,391.043,0.14573,0.0,0.0
1600,399.75,57.3406,59.2286,156.374,101.479,99.5081,0.00299456,0.150747,20.8464,390.363,0.178703,0.0,0.0
1650,412.25,57.0448,59.3473,150.652,101.301,99.203,0.00313218,0.149517,20.8505,389.772,0.19069,0.0,0.0
1700,424.75,56.2771,59.0343,153.636,101.113,99.0835,0.00324149,0.147988,20.8531,389.171,0.184771,0.0,0.0
1750,437.25,56.3657,58.3606,154.737,100.987,99.1439,0.00323776,0.144745,20.8529,388.621,0.167861,0.0,0.0
1800,449.75,55.9069,58.1639,153.089,100.855,99.2829,0.00322398,0.144959,20.8557,388.03,0.143156,0.0,0.0
1850,462.25,55.6515,58.0787,157.371,100.593,99.0004,0.00382186,0.142525,20.8579,387.45,0.145413,0.0,0.0
1900,474.75,55.117,57.7287,155.268,100.273,98.3663,0.00391984,0.140653,20.8586,386.899,0.174932,0.0,0.0
1950,487.25,54.3916,57.2635,155.89,100.179,98.3714,0.00378515,0.140258,20.8583,386.299,0.165926,0.0,0.0
2000,499.75,54.7763,57.4429,153.907,100.02,98.376,0.00409947,0.139406,20.8624,385.668,0.151047,0.0,0.0
2050,512.25,54.9069,57.5521,158.669,99.8089,98.1222,0.0041806,0.13711,20.8651,385.128,0.155325,0.0,0.0
2100,524.75,54.7443,56.9377,157.276,99.7163,97.9173,0.004077,0.1367,20.8629,384.597,0.165918,0.0,0.0
2150,537.25,54.4555,56.7261,157.145,99.7253,97.897,0.00432007,0.134856,20.8645,384.007,0.168626,0.0,0.0
2200,549.75,54.6061,56.5278,154.551,99.8298,98.0442,0.00416249,0.134633,20.8683,383.466,0.164481,0.0,0.0
2250,562.25,54.2188,56.6494,154.955,99.9297,98.2426,0.00468555,0.13385,20.8707,382.896,0.155165,0.0,0.0
2300,574.75,54.4231,56.1421,154.675,100.155,98.5657,0.00439124,0.132214,20.8694,382.275,0.145809,0.0,0.0
2350,587.25,54.4521,55.6912,153.157,100.392,98.6958,0.00470803,0.129921,20.8719,381.715,0.155307,0.0,0.0
2400,599.75,53.7023,56.1747,153.879,100.479,98.6063,0.00487455,0.129829,20.8745,381.194,0.171437,0.0,0.0
2450,612.25,53.3469,55.2528,156.422,100.5,98.2588,0.00544619,0.121148,20.8761,380.694,0.205545,0.0,0.0
2500,624.75,52.6881,53.0758,156.339,100.605,98.2533,0.00689269,0.113989,20.8924,380.203,0.215534,0.0,0.0
2550,637.25,51.8773,53.0967,156.481,100.822,98.2773,0.00853896,0.105717,20.9059,379.633,0.232962,0.0,0.0
2600,649.75,51.9854,52.3538,158.403,100.939,97.9685,0.0079703,0.102424,20.9028,379.152,0.272236,0.0,0.0
2650,662.25,51.3475,52.0815,158.335,100.959,98.5745,0.00800053,0.0991134,20.9056,378.622,0.217816,0.0,0.0
2700,674.75,50.4558,51.337,156.569,100.995,98.6188,0.00788584,0.099352,20.91,378.131,0.216956,0.0,0.0
2750,687.25,50.5228,51.0171,156.61,100.993,98.8223,0.00833832,0.103975,20.9021,377.731,0.198014,0.0,0.0
2800,699.75,50.1537,51.4657,156.887,100.984,98.6848,0.00786585,0.101004,20.899,377.221,0.209935,0.0,0.0
2850,712.25,49.7803,51.5204,156.245,100.938,98.856,0.00809142,0.0965708,20.909,376.79,0.189978,0.0,0.0
2900,724.75,49.6326,50.5569,154.924,100.872,98.3077,0.00771975,0.0937643,20.9107,376.32,0.234688,0.0,0.0
2950,737.25,49.4049,50.7678,163.871,100.705,98.4845,0.00791132,0.0933197,20.9158,375.769,0.203231,0.0,0.0
3000,749.75,49.4297,51.1221,156.568,100.508,97.9842,0.00814649,0.0935131,20.9132,375.289,0.231783,0.0,0.0
3050,762.25,48.7982,50.5521,162.156,100.428,98.1983,0.00838905,0.0940591,20.9136,374.909,0.204614,0.0,0.0
3100,774.75,49.1609,50.751,158.788,100.355,97.8088,0.00837255,0.0929966,20.9147,374.438,0.23417,0.0,0.0
3150,787.25,48.3997,50.7863,155.069,100.382,97.8347,0.00822963,0.0916598,20.9132,373.988,0.23428,0.0,0.0
3200,799.75,49.5134,50.8007,162.228,100.479,98.0862,0.00831745,0.0916119,20.9163,373.527,0.219633,0.0,0.0
3250,812.25,48.9222,50.6457,159.196,100.708,98.5809,0.00866078,0.0919709,20.9141,373.037,0.194543,0.0,0.0
3300,824.75,48.9576,50.2773,155.508,101.013,98.8758,0.00878637,0.0915622,20.9174,372.586,0.194888,0.0,0.0
3350,837.25,49.1657,49.9557,153.453,101.15,98.5938,0.00842235,0.0894041,20.9181,372.086,0.233225,0.0,0.0
3400,849.75,48.7802,50.6128,158.324,101.116,98.4955,0.00858924,0.0887326,20.9197,371.626,0.239278,0.0,0.0
3450,862.25,48.6323,50.2686,160.925,101.066,98.7558,0.00860472,0.0879423,20.9212,371.275,0.210765,0.0,0.0
3500,874.75,48.1901,50.0721,157.529,101.013,98.4443,0.00821298,0.0883775,20.9212,370.825,0.234707,0.0,0.0
3550,887.25,48.3859,49.9181,156.198,100.917,99.1273,0.00866506,0.0885267,20.9203,370.364,0.16307,0.0,0.0
3600,899.75,48.8687,49.6423,157.084,100.719,98.5029,0.00815558,0.0872673,20.9216,369.944,0.202759,0.0,0.0
3650,912.25,48.3092,49.8703,161.895,100.787,98.5265,0.00806853,0.0882662,20.9216,369.514,0.206719,0.0,0.0
3700,924.75,48.5662,49.7835,159.866,100.877,98.5292,0.00843855,0.0883439,20.9209,369.033,0.214639,0.0,0.0
3750,937.25,48.2623,49.996,158.118,100.933,98.9575,0.00820339,0.0877992,20.9196,368.633,0.180123,0.0,0.0
3800,949.75,48.4313,49.7381,156.381,101.046,98.7951,0.00836192,0.0892208,20.9207,368.283,0.205337,0.0,0.0
3850,962.25,48.4938,50.0925,155.066,101.22,98.9681,0.00871006,0.0890694,20.9189,367.872,0.205037,0.0,0.0
3900,974.75,48.9929,49.8179,158.042,101.356,98.9677,0.00847273,0.0896419,20.9216,367.472,0.217326,0.0,0.0
3950,987.25,48.5786,49.6537,158.914,101.48,99.5602,0.00869404,0.0885373,20.9221,367.041,0.174044,0.0,0.0
4000,999.75,48.1527,49.7172,158.513,101.565,99.5547,0.00844744,0.0893752,20.923,366.611,0.182173,0.0,0.0
4050,1012.25,48.2311,49.6214,158.077,101.593,99.6345,0.00843213,0.0890141,20.9182,366.301,0.177394,0.0,0.0
4100,1024.75,48.6304,49.6888,157.484,101.636,99.6202,0.00853216,0.0892905,20.9187,365.93,0.182606,0.0,0.0
4150,1037.25,48.5306,50.5983,155.891,101.648,99.5141,0.00886861,0.0898526,20.9186,365.52,0.193316,0.0,0.0
4200,1049.75,47.7418,49.6945,160.998,101.571,99.5136,0.00867185,0.0883222,20.9203,365.12,0.18647,0.0,0.0
4250,1062.25,48.2572,49.9715,159.908,101.46,99.2145,0.00856627,0.0899886,20.9205,364.719,0.203976,0.0,0.0
4300,1074.75,48.4763,49.6954,155.626,101.354,99.1107,0.00917129,0.0901909,20.9188,364.289,0.203932,0.0,0.0
4350,1087.25,47.8487,49.2603,157.491,101.287,99.3032,0.00876954,0.090282,20.9201,363.909,0.180267,0.0,0.0
4400,1099.75,47.8114,49.6151,157.026,101.267,99.3027,0.00895573,0.0903751,20.9203,363.588,0.178543,0.0,0.0
4450,1112.25,48.0948,49.665,158.271,101.268,99.0009,0.00888657,0.0901586,20.9201,363.208,0.20636,0.0,0.0
4500,1124.75,48.3271,49.5248,158.451,101.357,99.3696,0.00896876,0.0902912,20.9172,362.828,0.180425,0.0,0.0
4550,1137.25,47.957,49.3836,156.736,101.45,99.5191,0.00915869,0.0894445,20.9188,362.447,0.175083,0.0,0.0
4600,1149.75,48.2008,49.3018,157.035,101.482,99.4762,0.00902336,0.0899311,20.9195,361.967,0.181888,0.0,0.0
4650,1162.25,48.2366,48.9181,158.821,101.449,99.2524,0.00893766,0.08949,20.9196,361.627,0.199465,0.0,0.0
4700,1174.75,47.3492,49.6393,157.021,101.36,99.0978,0.00907368,0.0894089,20.9188,361.216,0.205657,0.0,0.0
4750,1187.25,47.8639,49.3421,162.064,101.255,99.1379,0.0093409,0.0901656,20.9211,360.866,0.192561,0.0,0.0
4795,1198.5,47.9706,49.7982,157.199,101.145,98.7789,0.00938252,0.0909449,20.9204,360.476,0.215752,0.0,0.0