File: 01_Data/Engineered_Wood_Table/Cone/Engineered_Wood_Table_Cone_HF75Scan_230626_R3.csv
Names,Time,Stack TC,Smoke TC,Exh Press,Smoke Comp,Smoke Meas,CO Meter,CO2 Meter,O2 Meter,Sample Mass,Ext Coeff,Start Test,Flame Verif
Chan Gain,,500,500,1,1,1,1,1,1,1,1,1.0,1.0
Offset,,0,0,0.135513,0,0,0,0,0,0,0,0.0,0.0
Gain,,1,1,25.011,13.0019,38.5709,1,1,1,1.00084,0.895081,1.0,1.0
Units,sec,C,C,Pa,%,%,%,%,%,g,/m,,
Baseline,,63.8218,67.2683,158.159,100.46,100.189,0.000443975,0.0445865,20.9419,-449.178,0.021232,,
173,43,97.6297,120.08,127.164,100.979,92.4592,0.00812957,0.833269,19.9898,410.634,0.692101,0.0,0.0
346,86.25,100.4,112.433,138.059,100.961,95.8327,0.00440382,0.44439,20.4382,402.827,0.409337,0.0,0.0
519,129.5,97.5929,107.354,141.455,100.42,96.7167,0.00337105,0.36795,20.548,396.672,0.295041,0.0,0.0
692,172.75,95.9793,104.558,148.097,100.44,97.4382,0.00282833,0.336261,20.5858,391.237,0.238201,0.0,0.0
865,216,94.8728,102.886,142.263,100.899,98.201,0.00248292,0.314877,20.6141,386.023,0.212846,0.0,0.0
1038,259.25,93.9942,101.294,142.132,100.698,99.1262,0.00204115,0.296532,20.6359,381.249,0.123549,0.0,0.0
1211,302.5,92.6815,99.5797,146.335,99.9567,97.4394,0.00218668,0.28153,20.6538,376.875,0.200267,0.0,0.0
1384,345.75,92.3875,99.0455,144.101,99.8091,98.7166,0.00169874,0.266243,20.674,372.592,0.086422,0.0,0.0
1557,389,90.5469,96.948,148.1,100.247,99.3275,0.00169022,0.252474,20.6893,368.578,0.0723345,0.0,0.0
1730,432.25,90.5037,96.7068,149.608,100.807,100.32,0.00135723,0.242276,20.7033,364.795,0.0380145,0.0,0.0
1903,475.5,89.7856,96.0383,145.536,101.004,100.086,0.00132074,0.235318,20.7122,361.102,0.071714,0.0,0.0
2076,518.75,89.0439,95.0925,143.779,100.692,99.2227,0.001687,0.228425,20.7245,357.479,0.115381,0.0,0.0
2249,562,88.4802,94.6678,145.65,100.361,100.137,0.00142289,0.22274,20.7343,354.026,0.0175245,0.0,0.0
2422,605.25,88.5002,94.1139,146.609,99.8123,99.1462,0.00122496,0.21757,20.7376,350.533,0.0525737,0.0,0.0
2595,648.5,87.3717,92.823,145.183,99.8925,99.8854,0.00150535,0.213898,20.7413,347.18,0.000553146,0.0,0.0
2768,691.75,86.8646,92.8544,149.562,100.748,100.559,0.00142024,0.216929,20.7421,343.918,0.0147914,0.0,0.0
2941,735,86.9646,93.1877,148.277,100.729,100.68,0.00153269,0.216948,20.7404,340.625,0.00384594,0.0,0.0
3114,778.25,87.3563,93.3994,147.441,100.185,100.077,0.00150925,0.217135,20.7416,337.312,0.00843802,0.0,0.0
3287,821.5,87.716,93.4868,147.579,100.936,100.367,0.00109908,0.218988,20.7405,333.949,0.0443989,0.0,0.0
3460,864.75,87.8632,93.5927,144.568,100.844,99.69,0.00147377,0.223732,20.7329,330.376,0.0903924,0.0,0.0
3633,908,88.3014,94.3559,148.464,101.418,100.795,0.00143964,0.229033,20.7238,326.843,0.0483338,0.0,0.0
3806,951.25,88.4408,95.4446,143.588,101.335,99.9572,0.00117693,0.237595,20.7164,323.16,0.107499,0.0,0.0
3979,994.5,90.6131,97.9591,146.206,101.251,100.087,0.00139585,0.271477,20.6749,319.037,0.0908143,0.0,0.0
4152,1037.75,88.589,94.1043,148.666,101.151,99.6994,0.00129899,0.208374,20.7427,315.724,0.113526,0.0,0.0
4325,1081,88.0823,93.5164,149.137,101.067,100.091,0.00129181,0.221999,20.731,312.361,0.0761859,0.0,0.0
4498,1124.25,88.6214,94.552,142.166,100.811,99.7136,0.00165083,0.238819,20.7102,308.718,0.0859739,0.0,0.0
4671,1167.5,89.6219,95.6814,147.591,101.265,100.607,0.00137215,0.242524,20.705,305.075,0.0511817,0.0,0.0
4844,1210.75,88.9705,94.6584,142.261,101.393,100.601,0.00126233,0.230946,20.7136,301.472,0.0616027,0.0,0.0
5017,1254,88.2354,94.1419,149.672,101.229,99.7548,0.00133611,0.222861,20.7248,298.179,0.115205,0.0,0.0
5190,1297.25,87.6885,93.8045,149.815,100.808,99.7924,0.0012397,0.219635,20.7301,294.897,0.0795194,0.0,0.0
5363,1340.5,87.4264,92.9879,146.133,100.502,99.9266,0.00115407,0.213686,20.7358,291.804,0.0450429,0.0,0.0
5536,1383.75,87.1068,92.7763,147.67,100.545,99.9101,0.00122142,0.208681,20.742,288.772,0.0497467,0.0,0.0
5709,1427,87.0707,92.6315,148.277,100.827,100.393,0.00138425,0.203551,20.7481,285.789,0.0339122,0.0,0.0
5882,1470.25,86.1885,91.5455,147.348,101.263,100.738,0.0014949,0.199404,20.7525,282.917,0.0408689,0.0,0.0
6055,1513.5,85.5772,91.6158,150.322,101.414,101.569,0.00141876,0.194422,20.7596,280.174,-0.0119846,0.0,0.0
6228,1556.75,85.5985,91.1742,147.174,100.6,100.196,0.00130476,0.194314,20.7579,277.442,0.0315754,0.0,0.0
6401,1600,85.3181,90.2875,153.281,99.7718,99.185,0.00139549,0.191658,20.7644,274.69,0.0463131,0.0,0.0
6574,1643.25,85.4019,90.7179,145.716,99.8111,99.8984,0.00120429,0.189334,20.7695,272.028,-0.00686047,0.0,0.0
6747,1686.5,85.4753,90.9338,149.077,100.233,99.5688,0.00144726,0.195108,20.7647,269.265,0.0521952,0.0,0.0
6920,1729.75,85.308,90.326,145.622,100.625,100.169,0.00137753,0.197045,20.762,266.453,0.0356174,0.0,0.0
7093,1773,85.5536,91.1045,144.481,100.882,100.07,0.00161857,0.195518,20.7639,263.6,0.0634088,0.0,0.0
7266,1816.25,84.8246,90.9943,146.514,100.702,100.144,0.00110519,0.19916,20.7595,260.808,0.0436208,0.0,0.0
7439,1859.5,85.3087,90.8249,146.053,100.153,99.0626,0.00163558,0.198242,20.757,258.006,0.0859295,0.0,0.0
7612,1902.75,85.4659,91.659,143.788,100.621,99.1474,0.00145374,0.203968,20.7562,255.043,0.115804,0.0,0.0
7785,1946,85.6011,91.8629,148.084,100.64,100.639,0.00138956,0.205334,20.7522,252.101,0.000128228,0.0,0.0
7958,1989.25,86.0948,91.8942,145.91,100.364,99.71,0.00119714,0.207759,20.7495,249.148,0.0513463,0.0,0.0
8131,2032.5,85.8443,91.4166,146.77,100.28,99.8136,0.00118069,0.211138,20.7475,246.166,0.0366106,0.0,0.0
8304,2075.75,86.2198,92.5228,146.926,100.798,100.029,0.00168101,0.214988,20.7419,243.043,0.0601538,0.0,0.0
8477,2119,86.6684,91.9936,148.838,100.795,99.4381,0.00159909,0.217889,20.7416,239.971,0.106394,0.0,0.0
8650,2162.25,86.4245,92.9606,145.129,100.064,99.6924,0.00128354,0.223534,20.7343,236.828,0.0292044,0.0,0.0
8823,2205.5,87.1647,93.6374,144.251,99.7333,99.2251,0.00139429,0.22628,20.7285,233.665,0.0401165,0.0,0.0
8996,2248.75,87.3421,93.1492,149.697,101.012,100.242,0.00166736,0.229901,20.7268,230.433,0.0600898,0.0,0.0
9169,2292,88.6029,94.776,144.761,101.428,100.855,0.0015779,0.235024,20.7194,227.06,0.0444268,0.0,0.0
9342,2335.25,88.8123,95.8523,151.237,101.409,101.035,0.00144771,0.240079,20.7145,223.697,0.0290058,0.0,0.0
9515,2378.5,89.8559,96.7632,144.185,101.39,99.8372,0.00151867,0.255345,20.6957,220.084,0.121145,0.0,0.0
9688,2421.75,90.6597,97.9603,142.396,101.163,100.016,0.00162382,0.265386,20.6814,216.401,0.0895226,0.0,0.0
9861,2465,91.0946,97.4834,148.331,100.757,100.335,0.0016414,0.258074,20.6854,212.748,0.0329224,0.0,0.0
10034,2508.25,90.5974,96.7859,149.501,99.9353,98.2799,0.00180731,0.238444,20.71,209.445,0.131153,0.0,0.0
10207,2551.5,89.7915,96.1458,147.072,99.6996,98.3976,0.00151694,0.238373,20.7118,206.052,0.103214,0.0,0.0
10380,2594.75,89.7485,96.3274,142.366,100.237,98.786,0.00150363,0.244748,20.7063,202.82,0.114476,0.0,0.0
10553,2638,89.8224,96.4539,145.374,100.828,99.65,0.00179929,0.242995,20.7072,199.427,0.0922788,0.0,0.0
10726,2681.25,90.2229,96.0482,146.481,100.853,99.3757,0.00189149,0.239658,20.7121,196.124,0.115833,0.0,0.0
10899,2724.5,89.6678,96.1675,145.433,100.382,99.2086,0.00165515,0.237996,20.7175,192.981,0.0923287,0.0,0.0
11072,2767.75,89.2453,95.1559,144.512,100.644,99.2474,0.00173044,0.236159,20.7147,189.789,0.109711,0.0,0.0
11245,2811,89.5723,95.6306,146.426,100.909,99.2875,0.00181925,0.237756,20.7129,186.636,0.127228,0.0,0.0
11418,2854.25,89.5512,95.5493,145.398,100.622,98.952,0.00178384,0.24065,20.7121,183.393,0.131418,0.0,0.0
11591,2897.5,89.9031,96.3364,145.081,101.006,99.5288,0.00199066,0.245081,20.7067,180.101,0.115698,0.0,0.0
11764,2940.75,90.1426,96.3687,145.504,101.06,99.5947,0.00160031,0.250616,20.6988,176.708,0.114663,0.0,0.0
11937,2984,90.4183,97.2938,140.956,101.105,98.8048,0.00147925,0.256194,20.6907,173.215,0.18066,0.0,0.0
12110,3027.25,91.0912,97.2967,145.072,100.73,97.5206,0.00166471,0.261025,20.6758,169.742,0.254206,0.0,0.0
12283,3070.5,89.664,95.7691,147.522,100.84,98.9873,0.00154325,0.233139,20.6958,166.669,0.145564,0.0,0.0
12456,3113.75,84.5145,88.7978,146.848,100.205,100.09,0.00239399,0.145905,20.803,165.338,0.00897655,0.0,0.0
12629,3157,82.0042,85.5212,151.288,100.705,99.8489,0.00372792,0.131737,20.8196,164.317,0.0670363,0.0,0.0
12802,3200.25,80.3513,83.7345,152.35,100.792,100.845,0.00413827,0.126721,20.8312,163.537,-0.00407913,0.0,0.0
12975,3243.5,79.0707,82.8798,147.96,100.175,98.7778,0.00458723,0.122582,20.8364,162.616,0.110312,0.0,0.0
13148,3286.75,78.7417,82.3406,150.652,99.7925,99.1933,0.00453013,0.119322,20.8414,161.986,0.0472854,0.0,0.0
13321,3330,78.1858,82.1164,150.921,99.6901,99.683,0.00510146,0.116971,20.8442,161.185,0.000562505,0.0,0.0
13494,3373.25,77.7175,81.5149,151.907,99.6591,99.3404,0.00468711,0.113318,20.8461,160.594,0.0251507,0.0,0.0
13667,3416.5,76.7739,81.4964,148.464,99.673,98.3587,0.0048407,0.111919,20.8508,159.864,0.104221,0.0,0.0
13840,3459.75,76.4958,80.7129,151.333,99.8377,99.1509,0.0049741,0.110451,20.8523,159.253,0.0541987,0.0,0.0
14013,3503,76.4571,80.6903,148.631,100.489,100.018,0.00568107,0.10972,20.8554,158.533,0.0368715,0.0,0.0
14186,3546.25,76.3755,80.708,150.214,100.857,99.9454,0.00548072,0.109239,20.8549,158.082,0.0713198,0.0,0.0
14359,3589.5,76.1785,80.4614,151.872,100.791,100.66,0.00610622,0.106881,20.8564,157.452,0.0102302,0.0,0.0
14532,3632.75,75.8649,80.1383,157.794,100.49,100.581,0.00613497,0.104938,20.8565,156.911,-0.00714245,0.0,0.0
14705,3676,75.3422,79.9082,149.209,100.324,99.6229,0.00609108,0.103813,20.8601,156.431,0.0550724,0.0,0.0
14878,3719.25,75.8127,79.9563,152.084,100.223,100.001,0.00678737,0.103981,20.8619,155.82,0.0174273,0.0,0.0
15051,3762.5,75.3277,79.2229,153.607,100.675,100.761,0.00666902,0.104281,20.861,155.35,-0.00675461,0.0,0.0
15224,3805.75,75.1269,79.3256,156.586,100.9,101.11,0.00691671,0.103111,20.8627,154.789,-0.0162697,0.0,0.0
15397,3849,75.3115,79.5008,152.265,100.583,100.187,0.00659335,0.102206,20.8613,154.359,0.0309825,0.0,0.0
15570,3892.25,74.8436,78.7237,153.677,100.837,100.143,0.00666903,0.101647,20.8654,153.799,0.054194,0.0,0.0
15743,3935.5,74.732,79.1019,152.853,101.043,101.018,0.00690309,0.100849,20.8656,153.308,0.00197093,0.0,0.0
15916,3978.75,74.8048,79.0283,151.542,100.929,100.865,0.00649627,0.100667,20.8645,152.888,0.005019,0.0,0.0
16089,4022,73.8348,77.9207,152.068,100.51,100.497,0.0069555,0.100016,20.8663,152.337,0.000964938,0.0,0.0
16262,4065.25,73.4502,77.2501,153.087,100.878,100.676,0.00695402,0.100308,20.8642,151.787,0.0157415,0.0,0.0
16435,4108.5,73.5244,77.8063,150.904,100.082,99.9772,0.00765694,0.100665,20.8628,151.387,0.00823326,0.0,0.0
16444,4110.75,73.3623,78.007,151.984,100.122,100.679,0.0074354,0.098607,20.8633,151.357,-0.0435572,0.0,0.0