File: 01_Data/Engineered_Wood_Table/Cone/Engineered_Wood_Table_Cone_HF50Scan_230626_R1.csv
Names,Time,Stack TC,Smoke TC,Exh Press,Smoke Comp,Smoke Meas,CO Meter,CO2 Meter,O2 Meter,Sample Mass,Ext Coeff,Start Test,Flame Verif
Chan Gain,,500,500,1,1,1,1,1,1,1,1,1.0,1.0
Offset,,0,0,0.132849,0,0,0,0,0,0,0,0.0,0.0
Gain,,1,1,25.011,13.9403,23.7162,1,1,1,1.00087,1.02946,1.0,1.0
Units,sec,C,C,Pa,%,%,%,%,%,g,/m,,
Baseline,,49.6712,51.455,174.535,100.196,100.107,0.000452272,0.0673952,20.9584,-443.584,0.00803135,,
164,40.75,62.6908,75.9493,152.486,101.17,96.3428,0.00348528,0.424919,20.5807,414.702,0.44145,0.0,0.0
328,81.75,77.093,89.4313,150.432,100.98,97.7925,0.00479153,0.490091,20.4628,407.146,0.289668,0.0,0.0
492,122.75,75.9445,82.7509,161.984,101.03,99.8545,0.00269809,0.33367,20.6349,402.041,0.10565,0.0,0.0
656,163.75,73.903,79.8639,156.422,101.224,100.196,0.00200109,0.290961,20.6984,397.918,0.0922086,0.0,0.0
820,204.75,72.2684,77.4838,161.104,101.214,100.727,0.00170987,0.26186,20.7326,394.195,0.04361,0.0,0.0
984,245.75,71.4217,76.3977,163.78,100.773,99.9746,0.00126585,0.248019,20.7515,390.782,0.0718334,0.0,0.0
1148,286.75,71.5148,76.2065,166.243,101.329,101.25,0.00147248,0.238417,20.7638,387.489,0.00702249,0.0,0.0
1312,327.75,71.0422,75.0458,161.969,101.695,101.255,0.00129719,0.230067,20.7713,384.436,0.0391565,0.0,0.0
1476,368.75,70.4341,74.1848,163.395,101.547,101.36,0.00138906,0.220698,20.7842,381.233,0.0166832,0.0,0.0
1640,409.75,68.7891,72.4231,162.905,101.651,101.398,0.00147292,0.214424,20.7905,378.521,0.0225567,0.0,0.0
1804,450.75,69.26,73.1255,161.28,101.718,101.411,0.00113955,0.209296,20.7989,375.899,0.0273661,0.0,0.0
1968,491.75,68.5425,72.5364,168.616,100.984,100.643,0.00137449,0.202295,20.8067,373.276,0.0305831,0.0,0.0
2132,532.75,68.3587,71.4508,165.972,101.101,100.856,0.00110355,0.192148,20.8172,370.784,0.0219006,0.0,0.0
2296,573.75,67.8775,71.5278,165.893,101.093,100.835,0.00125733,0.188532,20.8248,368.432,0.0230968,0.0,0.0
2460,614.75,67.7671,71.44,161.517,100.09,100.169,0.001453,0.183828,20.831,366.07,-0.00712976,0.0,0.0
2624,655.75,67.5217,70.6488,169.474,99.9235,99.5447,0.0015023,0.180941,20.8345,363.808,0.0342966,0.0,0.0
2788,696.75,66.8647,70.2342,163.296,99.975,99.8697,0.00147511,0.176906,20.8391,361.576,0.00951552,0.0,0.0
2952,737.75,66.7346,70.3438,163.997,100.479,100.505,0.00153406,0.176527,20.8446,359.474,-0.00234061,0.0,0.0
3116,778.75,66.3822,70.1261,171.907,101.164,100.867,0.0015664,0.174348,20.8473,357.503,0.026589,0.0,0.0
3280,819.75,66.2917,69.651,167.79,101.264,101.086,0.00159324,0.177887,20.8436,355.401,0.0158859,0.0,0.0
3444,860.75,66.5617,70.742,165.468,101.669,101.948,0.00167031,0.178777,20.8427,353.359,-0.0247751,0.0,0.0
3608,901.75,66.6498,70.6993,170.016,100.462,100.337,0.00140075,0.181378,20.8411,351.247,0.0112295,0.0,0.0
3772,942.75,67.261,70.7783,167.19,100.497,100.323,0.00171335,0.18231,20.8403,349.025,0.0157053,0.0,0.0
3936,983.75,67.1097,71.0984,163.412,100.799,100.594,0.0013847,0.182553,20.839,346.803,0.0183335,0.0,0.0
4100,1024.75,67.527,70.956,170.293,100.444,100.367,0.00140774,0.184417,20.8365,344.461,0.00691492,0.0,0.0
4264,1065.75,66.7982,70.7538,164.786,101.116,101.176,0.00150459,0.184882,20.8388,342.059,-0.00536685,0.0,0.0
4428,1106.75,67.7434,71.8357,163.961,100.249,100.208,0.0015264,0.188963,20.8343,339.637,0.00361523,0.0,0.0
4592,1147.75,67.5426,71.4397,163.812,100.793,100.732,0.00135546,0.190734,20.8333,337.035,0.00539702,0.0,0.0
4756,1188.75,67.9013,72.3257,171.121,101.424,101.608,0.0011637,0.194845,20.829,334.352,-0.0163463,0.0,0.0
4920,1229.75,68.336,73.1105,164.135,100.65,100.719,0.00139229,0.205068,20.8204,331.5,-0.00624961,0.0,0.0
5084,1270.75,69.8552,74.7009,161.705,101.052,100.965,0.00145019,0.22002,20.8013,328.497,0.00771196,0.0,0.0
5248,1311.75,69.5981,74.5885,162.403,100.735,100.739,0.00137304,0.211161,20.8076,325.575,-0.000370861,0.0,0.0
5412,1352.75,70.2296,74.9405,158.563,101.11,100.953,0.00215391,0.212172,20.8071,322.642,0.0139815,0.0,0.0
5576,1393.75,70.9423,75.2065,162.003,101.093,101.785,0.00131433,0.21854,20.8032,319.659,-0.0615827,0.0,0.0
5740,1434.75,71.5217,75.892,163.268,101.639,101.859,0.00105151,0.214814,20.8029,316.617,-0.0194673,0.0,0.0
5904,1475.75,71.1868,75.7063,161.851,99.9754,99.9978,0.000922207,0.213143,20.808,313.794,-0.00202242,0.0,0.0
6068,1516.75,70.973,75.6769,163.051,101.134,101.213,0.00134236,0.20914,20.8087,311.132,-0.00702687,0.0,0.0
6232,1557.75,70.6141,74.3312,168.64,100.893,101.215,0.00166425,0.201872,20.8154,308.56,-0.0288234,0.0,0.0
6396,1598.75,70.239,73.4191,163.37,101.034,101.098,0.00170916,0.189726,20.8253,306.218,-0.00572285,0.0,0.0
6560,1639.75,69.3764,73.0795,167.376,101.067,101.125,0.00157905,0.186744,20.8285,303.956,-0.0052516,0.0,0.0
6724,1680.75,69.3662,72.9063,165.544,100.124,99.696,0.00162305,0.181384,20.8366,301.774,0.0386752,0.0,0.0
6888,1721.75,68.4933,72.1398,165.013,100.698,100.68,0.00190865,0.182837,20.8388,299.582,0.00160491,0.0,0.0
7052,1762.75,68.9384,72.5332,164.652,101.709,101.539,0.0021636,0.178126,20.8383,297.62,0.0151089,0.0,0.0
7216,1803.75,68.0819,71.0613,162.697,100.922,100.916,0.00255063,0.176361,20.843,295.558,0.000539309,0.0,0.0
7380,1844.75,67.9323,71.2924,163.435,100.774,101.118,0.00234325,0.172071,20.8484,293.627,-0.0307956,0.0,0.0
7544,1885.75,67.3432,70.9724,162.066,101.087,101.083,0.00250941,0.167335,20.8535,291.765,0.000321867,0.0,0.0
7708,1926.75,66.3881,69.6872,167.918,99.9605,99.9399,0.00330722,0.159235,20.8654,289.963,0.00186322,0.0,0.0
7872,1967.75,66.6528,69.5526,163.138,100.79,100.692,0.00303374,0.15997,20.8635,288.232,0.00876596,0.0,0.0
8036,2008.75,65.948,69.6856,160.739,100.544,101.143,0.00316582,0.155672,20.8683,286.591,-0.0536404,0.0,0.0
8200,2049.75,65.33,69.1916,163.378,99.9622,100.136,0.00299814,0.151956,20.8676,284.949,-0.0156879,0.0,0.0
8364,2090.75,65.587,69.3673,165.327,101.156,101.541,0.00323818,0.151016,20.8732,283.358,-0.0343328,0.0,0.0
8528,2131.75,65.2851,68.4562,166.156,100.452,100.828,0.00365933,0.15006,20.8769,281.756,-0.033706,0.0,0.0
8692,2172.75,65.5054,68.9037,165.115,101.112,101.999,0.00400995,0.147414,20.8809,280.225,-0.0788978,0.0,0.0
8856,2213.75,65.0609,68.4024,169.096,101.291,101.841,0.00416914,0.148211,20.8814,278.684,-0.0488347,0.0,0.0
9020,2254.75,65.4799,68.7517,165.285,100.86,101.791,0.00430509,0.146401,20.8796,277.192,-0.0829454,0.0,0.0
9184,2295.75,64.3607,68.0409,163.723,101.284,102.25,0.00448387,0.146089,20.8822,275.651,-0.0856924,0.0,0.0
9348,2336.75,64.3681,67.8519,166.984,101.667,102.54,0.00516821,0.1439,20.8873,274.07,-0.0772153,0.0,0.0
9512,2377.75,64.7815,67.8945,168.307,100.797,101.498,0.00375079,0.147808,20.8811,272.528,-0.0625691,0.0,0.0
9676,2418.75,64.5695,67.9067,169.636,100.749,102.705,0.00469248,0.149558,20.8771,270.997,-0.173587,0.0,0.0
9840,2459.75,64.7733,67.4663,168.097,101.06,102.194,0.00396339,0.148714,20.8805,269.406,-0.100781,0.0,0.0
10004,2500.75,64.4476,67.8523,168.145,100.392,102.4,0.00445117,0.150851,20.8797,267.814,-0.178805,0.0,0.0
10168,2541.75,64.7942,68.4376,167.338,100.325,101.399,0.00447118,0.152898,20.8751,266.113,-0.0961476,0.0,0.0
10332,2582.75,64.8462,68.637,164.348,101.683,102.983,0.0038508,0.154606,20.8745,264.591,-0.114741,0.0,0.0
10496,2623.75,64.6409,68.3223,165.067,101.227,102.797,0.00419987,0.155208,20.8738,262.86,-0.139008,0.0,0.0
10660,2664.75,65.1132,68.7825,161.014,100.881,101.718,0.00397103,0.160114,20.868,260.988,-0.0746565,0.0,0.0
10824,2705.75,65.7279,69.5648,163.668,100.302,101.812,0.00356062,0.165979,20.8617,259.197,-0.134881,0.0,0.0
10988,2746.75,65.7329,69.7066,165.827,99.8223,101.055,0.00322275,0.168665,20.8594,257.295,-0.110855,0.0,0.0
11152,2787.75,66.3245,70.4404,161.094,100.383,101.945,0.00336219,0.173644,20.8521,255.243,-0.139449,0.0,0.0
11316,2828.75,67.056,70.8558,163.463,101.081,102.436,0.00262459,0.176324,20.8527,253.211,-0.120291,0.0,0.0
11480,2869.75,67.8416,71.9655,163.312,101.002,102.665,0.00265999,0.183338,20.843,250.959,-0.147427,0.0,0.0
11644,2910.75,68.0954,72.7349,160.362,101.454,102.616,0.00242831,0.188876,20.8379,248.787,-0.102831,0.0,0.0
11808,2951.75,68.8998,73.1967,170.407,100.23,101.435,0.00212739,0.194792,20.8376,246.415,-0.107914,0.0,0.0
11972,2992.75,69.5575,74.7798,163,101.093,101.895,0.00195119,0.197131,20.8276,243.993,-0.0712999,0.0,0.0
12136,3033.75,69.9375,74.8236,165.544,100.568,101.545,0.00232241,0.201364,20.8265,241.561,-0.0873199,0.0,0.0
12300,3074.75,70.5074,75.4891,163.645,100.644,101.746,0.00188043,0.20472,20.8217,239.069,-0.0983343,0.0,0.0
12464,3115.75,70.8382,75.8793,162.886,100.526,101.413,0.00183933,0.206114,20.8162,236.517,-0.079343,0.0,0.0
12628,3156.75,71.0412,75.3903,158.391,100.642,101.379,0.00226182,0.209723,20.8163,233.894,-0.0658216,0.0,0.0
12792,3197.75,70.9408,75.5524,160.128,101.085,101.875,0.00178111,0.209525,20.8117,231.342,-0.0702638,0.0,0.0
12956,3238.75,71.6264,76.0418,160.943,100.808,101.711,0.00188866,0.21163,20.8118,228.76,-0.0804899,0.0,0.0
13120,3279.75,71.3827,75.75,161.106,99.912,100.33,0.00181114,0.209873,20.8153,226.088,-0.0376994,0.0,0.0
13284,3320.75,71.3839,76.0325,160.917,100.623,101.438,0.00167091,0.212085,20.8073,223.405,-0.072825,0.0,0.0
13448,3361.75,72.2525,76.8315,162.539,101.654,102.338,0.00165454,0.215466,20.8075,220.673,-0.0605222,0.0,0.0
13612,3402.75,72.0429,76.6242,161.303,100.844,101.882,0.00165315,0.217634,20.8059,218.121,-0.0924415,0.0,0.0
13776,3443.75,72.0505,76.5297,159.575,100.484,101.114,0.0016267,0.216779,20.8012,215.508,-0.0564055,0.0,0.0
13940,3484.75,71.9914,76.7386,166.431,100.956,101.725,0.00154657,0.215501,20.8029,212.756,-0.0685986,0.0,0.0
14104,3525.75,72.1161,76.5581,162.377,99.7993,100.59,0.00169118,0.21491,20.8088,210.314,-0.0712511,0.0,0.0
14268,3566.75,71.9749,76.5312,163.764,101.52,102.422,0.0018294,0.21659,20.8021,207.682,-0.0798779,0.0,0.0
14432,3607.75,72.5466,76.5995,159.989,101.154,102.659,0.00149675,0.216943,20.8046,205.219,-0.133387,0.0,0.0
14596,3648.75,72.4071,77.8981,158.112,101.239,102.321,0.00138949,0.224807,20.7962,202.417,-0.0959757,0.0,0.0
14760,3689.75,73.4736,77.6569,161.912,100.417,100.853,0.00150161,0.228029,20.7926,199.695,-0.039187,0.0,0.0
14924,3730.75,73.3336,78.1235,161.818,100.997,102.076,0.00151044,0.235471,20.7819,196.712,-0.096016,0.0,0.0
15088,3771.75,72.7657,77.4152,159.154,100.066,101.101,0.00159198,0.234922,20.7807,193.879,-0.0929412,0.0,0.0
15252,3812.75,73.669,79.2492,158.848,99.7589,99.4347,0.00151798,0.241199,20.7772,190.887,0.0293911,0.0,0.0
15416,3853.75,73.5004,78.8563,160.021,100.271,101.176,0.00131336,0.250022,20.7659,187.754,-0.0811769,0.0,0.0
15458,3864.25,73.7768,78.3829,163.133,100.614,101.882,0.001434,0.247312,20.7685,187.033,-0.113101,0.0,0.0