File: 01_Data/Engineered_Wood_Table/Cone/Engineered_Wood_Table_Cone_HF50Scan_230626_R2.csv
Names,Time,Stack TC,Smoke TC,Exh Press,Smoke Comp,Smoke Meas,CO Meter,CO2 Meter,O2 Meter,Sample Mass,Ext Coeff,Start Test,Flame Verif
Chan Gain,,500,500,1,1,1,1,1,1,1,1,1.0,1.0
Offset,,0,0,0.132849,0,0,0,0,0,0,0,0.0,0.0
Gain,,1,1,25.011,13.9403,23.7162,1,1,1,1.00087,1.02946,1.0,1.0
Units,sec,C,C,Pa,%,%,%,%,%,g,/m,,
Baseline,,48.7098,51.4189,175.164,99.6343,104.135,0.000460398,0.0559748,20.9919,-444.458,-0.39897,,
156,38.75,59.5682,72.779,156.855,100.467,97.3525,0.00360254,0.416641,20.7088,411.28,0.284357,0.0,0.0
312,77.75,78.2067,92.8295,154.059,100.207,99.6251,0.00520011,0.523583,20.4289,403.583,0.052581,0.0,0.0
468,116.75,78.55,86.8099,155.729,100.928,102.171,0.00276929,0.349358,20.6293,398.328,-0.110526,0.0,0.0
624,155.75,75.8916,81.5703,159.946,100.65,101.907,0.00183257,0.288338,20.7149,394.325,-0.112075,0.0,0.0
780,194.75,74.1801,79.5596,156.599,101.122,102.397,0.0017251,0.261752,20.7486,390.631,-0.113122,0.0,0.0
936,233.75,72.8886,78.0025,158.812,99.2577,101.585,0.001399,0.243868,20.7731,387.359,-0.209289,0.0,0.0
1092,272.75,72.3671,77.4163,160.063,100.437,102.324,0.00173079,0.233165,20.7869,384.216,-0.168046,0.0,0.0
1248,311.75,71.4448,76.3494,166.069,100.216,102.311,0.00169963,0.222956,20.8013,381.193,-0.186808,0.0,0.0
1404,350.75,70.3583,75.4873,169.345,100.812,103.549,0.00161319,0.212085,20.8089,378.331,-0.241944,0.0,0.0
1560,389.75,69.7171,73.9337,162.494,100.809,102.425,0.0011828,0.204559,20.8229,375.598,-0.143552,0.0,0.0
1716,428.75,69.1917,72.8602,163.905,100.509,102.972,0.00154091,0.196864,20.8333,372.956,-0.218672,0.0,0.0
1872,467.75,68.672,72.3242,163.171,101.237,103.37,0.00164343,0.190497,20.8411,370.424,-0.188288,0.0,0.0
2028,506.75,68.5668,72.6271,163.793,100.787,103.065,0.00149802,0.185783,20.8441,367.882,-0.201829,0.0,0.0
2184,545.75,67.336,71.4851,163.982,99.4232,101.603,0.00171827,0.180072,20.8513,365.61,-0.195854,0.0,0.0
2340,584.75,67.0244,70.8836,166.682,99.2777,101.302,0.00150097,0.174167,20.8568,363.408,-0.182278,0.0,0.0
2496,623.75,66.4606,70.0259,164.58,99.8903,102.656,0.00189821,0.170892,20.8633,361.286,-0.24664,0.0,0.0
2652,662.75,66.2111,69.7117,164.931,100.387,102.632,0.0018061,0.166459,20.8667,359.254,-0.19973,0.0,0.0
2808,701.75,65.6412,69.1436,165.881,100.567,103.541,0.00197215,0.162873,20.8722,357.272,-0.263163,0.0,0.0
2964,740.75,65.0994,68.297,165.899,100.294,103.132,0.00185539,0.159327,20.8721,355.351,-0.25191,0.0,0.0
3120,779.75,64.9072,68.3658,166.761,100.057,101.922,0.00215294,0.161889,20.8753,353.529,-0.166761,0.0,0.0
3276,818.75,64.9206,67.8761,165.987,100.775,102.954,0.00210462,0.16169,20.8736,351.587,-0.193126,0.0,0.0
3432,857.75,64.182,68.2293,162.83,100.745,102.83,0.00236846,0.165971,20.8691,349.776,-0.184971,0.0,0.0
3588,896.75,65.1375,68.5643,165.725,100.519,103.084,0.00205554,0.164506,20.8709,347.884,-0.227563,0.0,0.0
3744,935.75,65.0635,68.7182,165.628,100.871,103.553,0.00221874,0.165836,20.8709,345.922,-0.236964,0.0,0.0
3900,974.75,65.0283,68.5983,166.708,101.157,103.448,0.00221934,0.165662,20.8728,343.901,-0.202213,0.0,0.0
4056,1013.75,65.5406,69.0823,169.59,101.273,103.679,0.00181124,0.168358,20.8672,341.899,-0.212058,0.0,0.0
4212,1052.75,65.1227,69.0566,166.33,101.207,103.524,0.0019453,0.168523,20.8691,339.767,-0.20444,0.0,0.0
4368,1091.75,65.0621,69.4499,162.385,101.147,103.069,0.0017921,0.173665,20.8639,337.515,-0.170058,0.0,0.0
4524,1130.75,65.9011,70.0422,163.561,101.241,103.016,0.00190319,0.177117,20.8596,335.253,-0.156899,0.0,0.0
4680,1169.75,65.9506,70.6841,164.88,101.231,103.045,0.00159011,0.183053,20.853,332.831,-0.160385,0.0,0.0
4836,1208.75,66.1198,69.691,164.599,100.919,102.581,0.00200945,0.187075,20.8502,330.149,-0.147535,0.0,0.0
4992,1247.75,67.1426,72.0465,166.359,100.395,101.801,0.00165933,0.196821,20.8394,327.506,-0.125636,0.0,0.0
5148,1286.75,68.5796,73.5698,160.381,99.9363,101.916,0.00191592,0.205214,20.829,324.614,-0.17712,0.0,0.0
5304,1325.75,68.107,72.4229,164.545,99.5117,101.46,0.001725,0.201332,20.8302,321.891,-0.175074,0.0,0.0
5460,1364.75,69.3094,74.2998,159.104,99.282,100.988,0.00230914,0.20905,20.8227,319.239,-0.153847,0.0,0.0
5616,1403.75,70.1851,75.2136,160.027,99.6678,100.765,0.00158843,0.21374,20.8115,316.286,-0.0988637,0.0,0.0
5772,1442.75,70.7469,75.0289,161.921,99.9929,101.652,0.00197837,0.208512,20.8192,313.574,-0.148572,0.0,0.0
5928,1481.75,69.9022,74.4463,164.23,100.274,102.223,0.00165437,0.200136,20.8265,311.042,-0.173863,0.0,0.0
6084,1520.75,69.3994,73.145,155.685,100.431,102.578,0.00165231,0.187727,20.8417,308.56,-0.191012,0.0,0.0
6240,1559.75,69.2885,72.9544,160.153,100.574,102.302,0.00212256,0.184899,20.8425,306.318,-0.153822,0.0,0.0
6396,1598.75,69.0168,72.7843,159.107,100.44,102.262,0.00210339,0.182375,20.8462,304.196,-0.162423,0.0,0.0
6552,1637.75,68.2071,72.0409,160.812,100.034,101.763,0.00184778,0.17793,20.8512,301.984,-0.154779,0.0,0.0
6708,1676.75,68.2289,72.3253,161.15,100.841,102.7,0.00226105,0.176288,20.8533,300.062,-0.164909,0.0,0.0
6864,1715.75,67.789,71.4163,160.105,100.516,102.427,0.00212014,0.171313,20.8616,297.69,-0.170076,0.0,0.0
7020,1754.75,67.2681,70.5672,164.494,100.827,102.986,0.00270158,0.166198,20.8659,296.069,-0.191371,0.0,0.0
7176,1793.75,66.9782,70.4431,161.643,101.247,103.439,0.00296033,0.161855,20.8715,294.377,-0.193382,0.0,0.0
7332,1832.75,66.6536,70.4109,165.071,101.078,102.999,0.0041944,0.164201,20.8678,292.556,-0.170023,0.0,0.0
7488,1871.75,66.2842,70.0736,161.013,100.036,102.103,0.00344791,0.153626,20.8796,290.984,-0.184621,0.0,0.0
7644,1910.75,65.643,70.1152,165.186,99.4866,101.754,0.00399905,0.150136,20.8821,289.373,-0.203468,0.0,0.0
7800,1949.75,65.8026,68.5021,163.436,99.4479,101.513,0.00451848,0.147603,20.8856,287.842,-0.185633,0.0,0.0
7956,1988.75,65.0956,68.8101,164.516,100.183,102.903,0.00428447,0.14418,20.8893,286.35,-0.241902,0.0,0.0
8112,2027.75,64.4382,67.4938,167.831,100.622,102.715,0.00473871,0.141547,20.8941,284.819,-0.185887,0.0,0.0
8268,2066.75,63.9626,66.8594,164.367,100.609,102.619,0.00507142,0.137351,20.8979,283.448,-0.178604,0.0,0.0
8424,2105.75,63.6262,67.2203,168.23,100.589,102.779,0.00553181,0.131227,20.9031,281.977,-0.194488,0.0,0.0
8580,2144.75,63.6716,66.9782,166.018,100.509,103.354,0.00493037,0.136607,20.8994,280.715,-0.252021,0.0,0.0
8736,2183.75,63.3176,67.1467,165.736,100.304,102.898,0.00494553,0.137702,20.9022,279.294,-0.230535,0.0,0.0
8892,2222.75,63.2642,66.4663,164.614,100.281,102.799,0.00492013,0.136392,20.9005,277.923,-0.223898,0.0,0.0
9048,2261.75,63.2336,66.5403,164.306,100.049,101.704,0.00525292,0.134105,20.9022,276.432,-0.148194,0.0,0.0
9204,2300.75,62.7457,66.3073,166.002,99.9992,102.43,0.00499733,0.133198,20.9038,275.231,-0.21685,0.0,0.0
9360,2339.75,62.7543,66.8421,167.754,100.396,102.64,0.0047719,0.134527,20.9011,273.979,-0.199563,0.0,0.0
9516,2378.75,62.7377,66.3499,167.073,100.576,102.402,0.0068223,0.131529,20.9059,272.568,-0.162519,0.0,0.0
9672,2417.75,62.5712,66.4314,171.019,100.639,102.721,0.00562248,0.131396,20.9048,271.327,-0.184869,0.0,0.0
9828,2456.75,62.7811,65.9206,166.495,100.29,102.123,0.00472318,0.133089,20.9015,269.906,-0.163579,0.0,0.0
9984,2495.75,62.5403,65.7834,161.43,100.558,102.441,0.00520435,0.134571,20.9024,268.545,-0.167569,0.0,0.0
10140,2534.75,62.9602,66.9251,164.254,100.576,102.777,0.00521329,0.135659,20.9009,267.113,-0.19552,0.0,0.0
10296,2573.75,63.2043,66.8747,167.127,100.731,103.181,0.00438254,0.136711,20.9036,265.772,-0.217004,0.0,0.0
10452,2612.75,63.154,67.4518,169.155,101.145,103.224,0.00422629,0.135823,20.9062,264.321,-0.183708,0.0,0.0
10608,2651.75,63.5353,66.6936,168.067,101.245,102.984,0.00412437,0.138011,20.8999,262.91,-0.153804,0.0,0.0
10764,2690.75,63.3826,67.3073,161.662,100.997,102.736,0.00402182,0.139081,20.8976,261.459,-0.15412,0.0,0.0
10920,2729.75,63.983,67.5272,163.128,100.18,102.22,0.0037451,0.140351,20.9001,260.047,-0.182052,0.0,0.0
11076,2768.75,63.8676,67.5403,164.343,99.453,101.652,0.00318124,0.143696,20.898,258.556,-0.197522,0.0,0.0
11232,2807.75,64.062,67.6091,164.073,99.6091,100.951,0.00331769,0.143835,20.8968,257.005,-0.120839,0.0,0.0
11388,2846.75,64.7252,68.1927,166.479,99.9703,101.403,0.00316316,0.146822,20.8929,255.523,-0.128527,0.0,0.0
11544,2885.75,64.8532,68.8755,162.434,100.142,101.615,0.00300423,0.149805,20.8929,253.852,-0.131855,0.0,0.0
11700,2924.75,64.8209,69.1691,166.851,100.406,102.383,0.00316384,0.153833,20.8838,252.2,-0.176075,0.0,0.0
11856,2963.75,65.3859,69.2828,160.253,100.626,102.273,0.00310243,0.15706,20.8815,250.449,-0.146543,0.0,0.0
12012,3002.75,65.4844,69.3601,161.149,100.674,102.288,0.00207805,0.158168,20.8801,248.757,-0.143571,0.0,0.0
12168,3041.75,66.5104,70.2075,166.667,100.6,101.892,0.0022161,0.163517,20.8732,246.856,-0.115195,0.0,0.0
12324,3080.75,66.737,70.3012,168.218,100.427,101.554,0.00246429,0.170322,20.8675,244.924,-0.100745,0.0,0.0
12480,3119.75,66.9832,71.3531,162.595,100.192,101.76,0.00185048,0.172858,20.8652,242.872,-0.14021,0.0,0.0
12636,3158.75,67.2735,71.8979,162.96,100.1,101.903,0.00160192,0.175219,20.8593,240.77,-0.161178,0.0,0.0
12792,3197.75,67.9541,72.9854,162.097,100.074,101.699,0.00129715,0.181528,20.8546,238.559,-0.145453,0.0,0.0
12948,3236.75,68.5296,72.7234,163.101,100.179,102.039,0.00159864,0.186854,20.8479,236.357,-0.166131,0.0,0.0
13104,3275.75,68.9715,73.6339,159.837,100.076,101.296,0.00118191,0.187765,20.8471,234.085,-0.109419,0.0,0.0
13260,3314.75,69.2207,73.9505,162.993,100.226,101.44,0.00145129,0.190158,20.8413,231.723,-0.108683,0.0,0.0
13416,3353.75,69.5527,74.2707,164.58,100.529,102.256,0.00154358,0.191923,20.8402,229.421,-0.153819,0.0,0.0
13572,3392.75,69.9306,73.9302,163.145,100.653,102.001,0.00135531,0.192878,20.8381,227.068,-0.12018,0.0,0.0
13728,3431.75,69.3089,73.9655,165.347,100.195,101.788,0.00170211,0.190432,20.8421,224.827,-0.142446,0.0,0.0
13884,3470.75,69.9504,73.8182,164.899,99.972,101.095,0.00125588,0.190983,20.8357,222.585,-0.100875,0.0,0.0
14040,3509.75,69.6509,74.0782,164.102,100.047,101.644,0.00137137,0.187109,20.8427,220.313,-0.143011,0.0,0.0
14196,3548.75,69.5453,73.3667,164.172,100.055,101.511,0.00178966,0.185261,20.8439,218.181,-0.130481,0.0,0.0
14352,3587.75,68.3199,71.8899,159.459,99.9427,101.152,0.00155873,0.181141,20.8501,216.199,-0.108632,0.0,0.0
14508,3626.75,68.4461,72.6073,163.254,100.034,101.361,0.00184544,0.177788,20.8514,214.127,-0.118961,0.0,0.0
14664,3665.75,68.0217,72.2467,160.981,100.211,101.678,0.00160647,0.175021,20.8541,212.155,-0.131236,0.0,0.0
14811,3702.5,68.3303,72.114,164.594,100.511,101.741,0.00192755,0.176317,20.8549,210.354,-0.109904,0.0,0.0