File: 01_Data/Engineered_Wood_Table/Cone/Engineered_Wood_Table_Cone_HF25Scan_230626_R4.csv
Names,Time,Stack TC,Smoke TC,Exh Press,Smoke Comp,Smoke Meas,CO Meter,CO2 Meter,O2 Meter,Sample Mass,Ext Coeff,Start Test,Flame Verif
Chan Gain,,500,500,1,1,1,1,1,1,1,1,1.0,1.0
Offset,,0,0,0.21304,0,0,0,0,0,0,0,0.0,0.0
Gain,,1,1,25.011,13.8152,15.2192,1,1,1,1.0009,1.0389,1.0,1.0
Units,sec,C,C,Pa,%,%,%,%,%,g,/m,,
Baseline,,43.2629,44.4403,161.611,99.7125,99.7424,0.000352759,0.0444263,20.9694,-445.299,-0.00272179,,
37,9,42.9545,44.1677,160.407,99.7616,99.788,0.000503415,0.0524836,20.9651,435.493,-0.0024099,0.0,0.0
74,18.25,42.8624,44.6143,156.853,99.8506,100.138,0.000471612,0.050621,20.9634,435.433,-0.0262128,0.0,0.0
111,27.5,43.2281,45.0311,159.193,99.9454,99.7717,0.000560006,0.0467099,20.9678,435.393,0.0158516,0.0,0.0
148,36.75,43.292,45.39,162.326,100.025,99.8242,0.00024256,0.0471288,20.968,435.293,0.0183218,0.0,0.0
185,46,43.768,45.5293,166.595,100.077,99.7323,0.00065356,0.045639,20.9679,435.263,0.0314841,0.0,0.0
222,55.25,44.0078,45.8752,162.037,100.064,99.8177,0.000534383,0.0460353,20.9669,435.203,0.0224484,0.0,0.0
259,64.5,44.2689,45.7621,161.275,100.038,99.5771,0.000470631,0.0476629,20.9662,435.113,0.0420985,0.0,0.0
296,73.75,44.3891,45.7485,161.479,100.033,99.5469,0.000493589,0.0478847,20.9644,435.053,0.0443626,0.0,0.0
333,83,43.9862,45.5269,159.081,100.035,99.1401,0.000376111,0.0482351,20.9687,434.933,0.0819161,0.0,0.0
370,92.25,44.1514,45.7512,164.829,100.058,99.0151,0.00051922,0.049389,20.97,434.783,0.0954815,0.0,0.0
407,101.5,44.3555,45.9398,158.62,100.066,98.3143,0.000885483,0.0515587,20.9679,434.632,0.160908,0.0,0.0
444,110.75,45.1621,46.5403,158.246,100.047,98.0658,0.00133743,0.053855,20.967,434.442,0.182319,0.0,0.0
481,120,47.957,53.9253,141.786,100.063,98.9585,0.00154559,0.0577468,20.9638,433.531,0.101159,0.0,1.0
518,129.25,52.7782,61.2258,145.263,100.062,98.4601,0.00292078,0.333109,20.8178,432.33,0.147054,0.0,0.0
555,138.5,57.1885,68.2377,137.1,100.068,97.9371,0.00376679,0.366466,20.5613,431.009,0.196164,0.0,0.0
592,147.75,60.4574,71.087,142.727,100.057,98.2395,0.00333492,0.399823,20.5192,429.668,0.167036,0.0,0.0
629,157,62.2627,72.0879,145.822,100.06,97.711,0.00361303,0.388305,20.5624,428.447,0.216468,0.0,0.0
666,166.25,63.381,72.1901,147.505,100.031,98.0946,0.00413213,0.362989,20.5748,427.246,0.178184,0.0,0.0
703,175.5,64.2694,71.6788,143.864,100.006,98.3343,0.00391184,0.336302,20.6193,426.085,0.153602,0.0,0.0
740,184.75,64.7589,72.1355,149.19,99.9712,99.0662,0.00354871,0.321069,20.6326,425.004,0.0828667,0.0,0.0
777,194,65.2647,71.5371,156.281,99.9497,99.0844,0.00302786,0.312352,20.6454,423.973,0.0792402,0.0,0.0
814,203.25,64.5571,70.8927,147.679,99.9425,99.2214,0.00281081,0.291243,20.6686,422.952,0.0659936,0.0,0.0
851,212.5,64.4517,69.9289,149.679,99.9935,99.1554,0.00276574,0.273606,20.6952,422.091,0.0767036,0.0,0.0
888,221.75,64.2159,68.9447,150.181,99.9965,99.3886,0.00239826,0.259308,20.7065,421.21,0.05557,0.0,0.0
925,231,63.2367,68.87,150.837,100.05,99.6018,0.00221972,0.248799,20.7189,420.38,0.0409598,0.0,0.0
962,240.25,63.6012,68.1449,151.348,100.079,99.4833,0.0021686,0.236991,20.7338,419.619,0.0544135,0.0,0.0
999,249.5,62.5276,66.9148,151.406,100.039,99.7141,0.00226843,0.225443,20.7472,418.928,0.0296825,0.0,0.0
1036,258.75,62.5155,66.3899,150.85,99.9235,99.3184,0.00213602,0.211694,20.768,418.168,0.0553519,0.0,0.0
1073,268,61.98,65.2251,151.687,99.6937,99.0449,0.00189969,0.204918,20.7742,417.597,0.0595082,0.0,0.0
1110,277.25,61.342,64.4904,150.579,99.6866,99.1317,0.00221338,0.19628,20.7897,416.926,0.0508653,0.0,0.0
1147,286.5,61.0625,64.028,149.249,99.8291,99.3296,0.00177703,0.189257,20.7978,416.376,0.0457128,0.0,0.0
1184,295.75,59.9976,62.8373,155.156,99.953,99.5144,0.00228275,0.182629,20.8028,415.725,0.0400772,0.0,0.0
1221,305,59.9722,62.9168,155.81,100.082,99.4935,0.00209963,0.177676,20.8102,415.195,0.0537072,0.0,0.0
1258,314.25,58.957,61.6783,152.01,100.107,99.4671,0.00210593,0.170421,20.8146,414.634,0.0584741,0.0,0.0
1295,323.5,58.5673,61.7314,157.874,100.189,99.6552,0.0021241,0.165961,20.8267,414.174,0.0486601,0.0,0.0
1332,332.75,58.4214,60.5506,153.631,100.277,99.8205,0.00233689,0.160455,20.8304,413.634,0.0416022,0.0,0.0
1369,342,57.6255,60.3292,154.092,100.376,100.008,0.00221453,0.156215,20.8341,413.173,0.03345,0.0,0.0
1406,351.25,57.5526,59.5575,154.846,100.455,100.139,0.00222805,0.153981,20.8406,412.703,0.0286775,0.0,0.0
1443,360.5,57.484,60.1746,151.735,100.493,100.094,0.00255588,0.152393,20.8404,412.242,0.0362205,0.0,0.0
1480,369.75,57.2555,59.7877,157.759,100.501,100.044,0.00241948,0.148401,20.8435,411.732,0.0414713,0.0,0.0
1517,379,56.9376,59.265,156.047,100.548,100.014,0.00249791,0.145852,20.8481,411.321,0.0485455,0.0,0.0
1554,388.25,56.8269,58.7282,155.746,100.542,100.006,0.00246434,0.145023,20.8499,410.831,0.0486925,0.0,0.0
1591,397.5,56.624,58.5181,156.681,100.566,99.9259,0.00229834,0.142858,20.8518,410.441,0.0582291,0.0,0.0
1628,406.75,56.2032,58.056,156.185,100.553,100.053,0.00264132,0.141254,20.8516,409.96,0.0454502,0.0,0.0
1665,416,55.8639,58.2793,157.982,100.555,100.265,0.00301082,0.140065,20.8538,409.58,0.0263283,0.0,0.0
1702,425.25,56.2575,58.0351,158.41,100.551,99.9677,0.00277466,0.138975,20.8554,409.079,0.0530041,0.0,0.0
1739,434.5,55.643,58.2392,153.856,100.558,99.9088,0.00279597,0.13774,20.8554,408.719,0.05907,0.0,0.0
1776,443.75,55.493,57.5921,152.102,100.54,100.153,0.00250669,0.137347,20.8579,408.239,0.0351751,0.0,0.0
1813,453,55.302,57.3699,156.159,100.531,99.9134,0.00308493,0.135748,20.8586,407.888,0.0561628,0.0,0.0
1850,462.25,55.1666,57.5024,155.04,100.45,100.01,0.00333992,0.135669,20.8609,407.398,0.0400145,0.0,0.0
1887,471.5,55.2347,57.2517,154.697,100.344,99.7234,0.00326119,0.134631,20.8598,407.018,0.0565202,0.0,0.0
1924,480.75,54.8612,57.0383,154.503,100.218,99.6723,0.00319489,0.133456,20.8594,406.567,0.0497352,0.0,0.0
1961,490,54.9805,57.228,153.115,100.104,99.2975,0.00341926,0.131794,20.8612,406.177,0.0737126,0.0,0.0
1998,499.25,54.4722,56.963,156.044,99.9779,99.4229,0.00353437,0.131602,20.8635,405.746,0.050727,0.0,0.0
2035,508.5,54.7055,56.7641,153.693,99.8704,99.1986,0.00368938,0.131296,20.8628,405.426,0.0615079,0.0,0.0
2072,517.75,54.3664,56.6062,157.68,99.687,99.0096,0.00361369,0.129941,20.8655,404.956,0.0621402,0.0,0.0
2109,527,54.4255,56.3507,157.008,99.5474,99.0365,0.00376776,0.12973,20.8668,404.615,0.0468942,0.0,0.0
2146,536.25,54.2003,56.4074,152.934,99.3995,98.8154,0.00372926,0.127915,20.8664,404.155,0.0537029,0.0,0.0
2183,545.5,54.3964,56.3261,152.374,99.316,98.7606,0.00407776,0.127432,20.868,403.815,0.051103,0.0,0.0
2220,554.75,54.3966,55.9832,154.336,99.219,98.5024,0.00388701,0.125185,20.8702,403.364,0.0660604,0.0,0.0
2257,564,53.8197,55.7731,155.444,99.1296,98.3231,0.00437861,0.123454,20.8707,403.014,0.0744486,0.0,0.0
2294,573.25,53.2532,55.5692,153.628,98.9947,98.5135,0.00490465,0.118853,20.8755,402.584,0.0444048,0.0,0.0
2331,582.5,53.4684,55.5685,154.032,98.9171,98.3175,0.00513419,0.118145,20.8753,402.263,0.0554102,0.0,0.0
2368,591.75,53.6031,54.8472,152.345,98.8514,98.2042,0.00543385,0.113845,20.8804,401.833,0.0598589,0.0,0.0
2405,601,53.2461,54.4002,151.087,98.8413,97.9413,0.00621287,0.112291,20.8845,401.533,0.0833533,0.0,0.0
2442,610.25,52.5978,53.6545,158.38,98.8366,97.1898,0.00595043,0.107914,20.8853,401.102,0.15312,0.0,0.0
2479,619.5,51.4559,52.9835,157.572,98.8881,97.1917,0.00717822,0.0953657,20.8919,400.782,0.157687,0.0,0.0
2516,628.75,51.1251,52.0956,160.647,98.9492,97.1188,0.00835531,0.0885537,20.9007,400.372,0.170159,0.0,0.0
2553,638,50.6996,51.7719,159.95,99.0618,97.4105,0.00818767,0.0866777,20.9164,400.051,0.153192,0.0,0.0
2590,647.25,50.6154,51.5048,160.825,99.1638,97.3761,0.00832685,0.0863205,20.9156,399.671,0.165789,0.0,0.0
2627,656.5,50.1814,51.3691,155.501,99.2591,97.3036,0.00785631,0.0868101,20.9152,399.431,0.181324,0.0,0.0
2664,665.75,49.9518,51.1427,158.609,99.3198,97.5846,0.00799678,0.087092,20.9164,399,0.160618,0.0,0.0
2701,675,50.1515,50.9914,162.548,99.2671,98.1689,0.00790379,0.0900458,20.9121,398.73,0.101378,0.0,0.0
2738,684.25,49.8093,50.84,156.684,99.2802,97.6613,0.0077694,0.0876746,20.9126,398.31,0.149827,0.0,0.0
2775,693.5,49.5319,50.8458,160.775,99.3088,97.8429,0.00793716,0.0868662,20.9152,398.029,0.135527,0.0,0.0
2812,702.75,49.6893,50.5658,154.48,99.3531,97.6627,0.00785872,0.08751,20.9141,397.629,0.156389,0.0,0.0
2849,712,49.3429,50.6026,157.52,99.4328,97.9683,0.00784994,0.0886846,20.9127,397.359,0.135222,0.0,0.0
2886,721.25,49.0677,50.4261,162.019,99.4762,97.8963,0.00786058,0.0881533,20.912,396.999,0.1459,0.0,0.0
2923,730.5,49.0756,50.729,159.557,99.5576,97.8057,0.00779001,0.0875705,20.913,396.708,0.161787,0.0,0.0
2960,739.75,49.1706,50.6499,157.215,99.6874,98.5451,0.00788065,0.0872677,20.9151,396.328,0.105028,0.0,0.0
2997,749,48.9145,51.0356,156.051,99.7781,98.566,0.00782113,0.0872075,20.9143,396.038,0.11138,0.0,0.0
3034,758.25,49.1436,50.1311,156.084,99.886,98.3649,0.00819569,0.0881112,20.9144,395.677,0.139844,0.0,0.0
3071,767.5,48.6662,49.7732,160.077,100.013,98.5372,0.00756852,0.0877402,20.9144,395.377,0.135465,0.0,0.0
3108,776.75,48.3893,49.4618,157.517,100.05,98.8758,0.00813468,0.0875374,20.9131,395.037,0.107585,0.0,0.0
3145,786,48.3296,49.6505,157.383,100.088,98.8294,0.0078357,0.0866711,20.9153,394.706,0.115284,0.0,0.0
3182,795.25,48.3825,49.8699,157.781,100.077,98.6129,0.00838977,0.0879762,20.9122,394.316,0.134342,0.0,0.0
3219,804.5,48.4716,49.6788,157.245,100.089,98.8322,0.00808148,0.0870952,20.9136,394.056,0.115142,0.0,0.0
3256,813.75,48.3416,49.4445,157.417,100.08,98.7741,0.00809399,0.0871529,20.9141,393.676,0.119691,0.0,0.0
3293,823,47.903,50.0511,158.918,100.106,98.7002,0.0082653,0.0870154,20.9125,393.375,0.128887,0.0,0.0
3330,832.25,48.6181,50.264,155.128,100.107,98.8442,0.00831597,0.0878544,20.9129,393.035,0.115717,0.0,0.0
3367,841.5,48.6477,50.3708,156.716,100.106,98.4522,0.0083435,0.0877021,20.9112,392.645,0.151855,0.0,0.0
3404,850.75,48.0928,50.1028,160.834,100.119,98.4188,0.00793318,0.0878879,20.9123,392.354,0.156063,0.0,0.0
3441,860,48.7181,49.8994,157.959,100.111,98.527,0.00814342,0.0876144,20.9122,392.034,0.145357,0.0,0.0
3478,869.25,48.4794,49.894,159.982,100.105,98.3937,0.00781104,0.0870632,20.9142,391.704,0.157119,0.0,0.0
3515,878.5,47.8935,49.6693,159.847,100.117,98.586,0.00808613,0.0878627,20.912,391.343,0.140478,0.0,0.0
3523,880.5,47.76,49.483,159.35,100.094,98.8396,0.00814379,0.0878567,20.9115,391.243,0.114918,0.0,0.0