File: 01_Data/Engineered_Wood_Table/Cone/Engineered_Wood_Table_HRRPUA_25.csv
Time after Ignition,Engineered_Wood_Table_R1,Engineered_Wood_Table_R2,Engineered_Wood_Table_R3,Engineered_Wood_Table_R4,Engineered_Wood_Table_R5,Mean,Std. Dev.
0.0,0.1,-0.0,-2.3,1.4,1.5,0.1,1.5
14.0,145.0,93.5,48.6,54.5,73.8,83.1,38.8
28.0,276.8,248.0,259.2,213.9,241.4,247.8,23.2
42.0,232.9,199.1,217.9,202.8,205.9,211.7,13.8
56.0,216.6,181.1,182.9,190.2,181.1,190.4,15.1
70.0,191.0,159.9,164.0,166.7,171.0,170.5,12.1
84.0,154.2,137.3,149.7,157.9,149.7,149.7,7.8
98.0,129.9,121.5,140.2,137.4,138.4,133.5,7.8
112.0,121.0,104.7,123.3,130.0,126.1,121.0,9.7
126.0,116.6,93.9,113.2,120.9,107.3,110.4,10.5
140.0,113.1,84.4,105.6,107.6,105.4,103.2,11.0
154.0,105.6,74.2,98.8,99.4,90.4,93.7,12.2
168.0,99.4,69.1,94.0,87.7,85.9,87.2,11.5
182.0,94.9,65.7,88.4,84.6,83.0,83.3,10.8
196.0,99.1,62.6,85.2,80.4,75.4,80.5,13.4
210.0,96.7,59.6,80.4,72.7,72.3,76.3,13.6
224.0,92.4,57.9,76.7,71.4,67.5,73.2,12.8
238.0,88.9,55.5,72.7,66.1,66.9,70.0,12.3
252.0,89.2,54.5,69.9,66.3,63.7,68.7,12.8
266.0,86.9,50.8,65.9,64.0,62.4,66.0,13.1
280.0,88.1,50.1,64.2,61.5,61.5,65.1,14.0
294.0,86.1,49.3,65.4,60.0,60.1,64.2,13.6
308.0,87.0,48.0,62.5,58.9,57.9,62.9,14.5
322.0,87.1,47.0,61.2,59.5,57.4,62.4,14.9
336.0,84.3,47.2,60.6,57.9,58.3,61.6,13.7
350.0,84.1,45.0,59.0,55.7,56.5,60.1,14.5
364.0,80.5,45.2,60.7,57.2,56.0,59.9,12.9
378.0,82.5,44.7,57.4,56.3,55.2,59.2,14.0
392.0,79.9,43.5,58.1,56.3,52.9,58.1,13.4
406.0,80.0,42.5,57.2,53.4,52.3,57.1,13.9
420.0,76.4,40.2,54.6,53.2,52.6,55.4,13.1
434.0,75.9,36.1,55.0,52.1,51.7,54.2,14.2
448.0,75.2,33.3,54.5,51.8,51.0,53.1,14.9
462.0,73.1,33.3,52.3,48.7,50.5,51.6,14.2
476.0,73.9,30.8,52.2,46.7,51.7,51.0,15.5
490.0,71.7,28.8,46.7,45.7,46.6,47.9,15.3
504.0,68.4,28.3,43.6,41.3,40.6,44.4,14.7
518.0,68.8,23.7,36.9,33.9,42.4,41.1,16.9
532.0,69.7,20.8,37.2,28.6,31.3,37.5,19.0
546.0,68.3,21.8,33.5,27.9,29.9,36.3,18.4
560.0,67.0,22.9,38.2,30.4,26.9,37.1,17.6
574.0,63.0,23.2,39.1,29.5,26.3,36.2,16.1
588.0,55.9,24.1,33.9,29.2,25.0,33.6,13.1
602.0,55.4,22.0,31.4,29.8,27.8,33.3,12.9
616.0,51.2,29.9,31.2,30.0,27.6,34.0,9.7
630.0,49.8,27.2,31.6,29.3,26.3,32.8,9.7
644.0,46.4,28.8,31.7,29.0,,34.0,8.4
658.0,46.5,23.9,32.1,,,34.2,11.4
672.0,45.4,23.7,30.2,,,33.1,11.2
686.0,43.1,24.0,31.9,,,33.0,9.6
700.0,45.6,25.8,29.9,,,33.8,10.5
714.0,44.4,24.8,29.6,,,32.9,10.2
728.0,43.4,23.8,28.3,,,31.8,10.2
742.0,41.2,23.0,28.0,,,30.7,9.4
756.0,33.3,,29.4,,,31.4,2.7
770.0,32.5,,27.5,,,30.0,3.6
784.0,31.6,,26.8,,,29.2,3.3
798.0,31.8,,28.0,,,29.9,2.7
812.0,30.7,,29.3,,,30.0,1.0
826.0,31.5,,28.4,,,30.0,2.2
840.0,33.3,,29.2,,,31.3,2.9
854.0,32.9,,27.6,,,30.2,3.7
868.0,34.0,,27.0,,,30.5,5.0
882.0,33.6,,29.4,,,31.5,2.9
896.0,33.9,,28.9,,,31.4,3.6
910.0,32.9,,29.3,,,31.1,2.6
924.0,32.8,,28.1,,,30.4,3.3
938.0,31.8,,28.4,,,30.1,2.4
952.0,33.0,,,,,33.0,
966.0,33.9,,,,,33.9,
980.0,33.8,,,,,33.8,
994.0,34.3,,,,,34.3,
1008.0,35.5,,,,,35.5,
1022.0,33.9,,,,,33.9,
1036.0,32.9,,,,,32.9,
1050.0,37.4,,,,,37.4,
1064.0,33.8,,,,,33.8,
1078.0,32.7,,,,,32.7,
1092.0,36.3,,,,,36.3,
1106.0,37.7,,,,,37.7,
1120.0,31.9,,,,,31.9,
1134.0,34.4,,,,,34.4,
1148.0,33.3,,,,,33.3,
1162.0,36.7,,,,,36.7,
1176.0,33.9,,,,,33.9,
1190.0,40.3,,,,,40.3,
1204.0,37.1,,,,,37.1,
1218.0,38.9,,,,,38.9,
1232.0,35.9,,,,,35.9,
1246.0,37.9,,,,,37.9,
1260.0,41.7,,,,,41.7,
1274.0,41.8,,,,,41.8,
1288.0,42.3,,,,,42.3,
1302.0,40.6,,,,,40.6,
1316.0,40.8,,,,,40.8,
1330.0,44.0,,,,,44.0,
1344.0,43.9,,,,,43.9,
1358.0,45.2,,,,,45.2,
1372.0,43.0,,,,,43.0,
1386.0,47.9,,,,,47.9,
1400.0,46.7,,,,,46.7,
1414.0,48.9,,,,,48.9,
1428.0,50.3,,,,,50.3,
1442.0,54.8,,,,,54.8,
1456.0,55.5,,,,,55.5,
1470.0,55.7,,,,,55.7,
1484.0,61.1,,,,,61.1,
1498.0,59.0,,,,,59.0,
1512.0,64.3,,,,,64.3,
1526.0,64.9,,,,,64.9,
1540.0,70.3,,,,,70.3,
1554.0,71.6,,,,,71.6,
1568.0,74.3,,,,,74.3,
1582.0,75.7,,,,,75.7,
1596.0,79.5,,,,,79.5,
1610.0,79.7,,,,,79.7,
1624.0,81.0,,,,,81.0,
1638.0,80.0,,,,,80.0,
1652.0,84.1,,,,,84.1,
1666.0,86.5,,,,,86.5,
1680.0,87.2,,,,,87.2,
1694.0,84.8,,,,,84.8,
1708.0,81.3,,,,,81.3,
1722.0,75.4,,,,,75.4,
1736.0,67.7,,,,,67.7,
1750.0,72.3,,,,,72.3,
1764.0,72.7,,,,,72.7,
1778.0,74.2,,,,,74.2,
1792.0,73.4,,,,,73.4,
1806.0,75.8,,,,,75.8,
1820.0,75.1,,,,,75.1,
1834.0,78.6,,,,,78.6,
1848.0,78.0,,,,,78.0,
1862.0,80.0,,,,,80.0,
1876.0,78.3,,,,,78.3,
1890.0,78.7,,,,,78.7,
1904.0,77.3,,,,,77.3,
1918.0,78.7,,,,,78.7,
1932.0,75.1,,,,,75.1,
1946.0,75.3,,,,,75.3,
1960.0,74.6,,,,,74.6,
1974.0,73.2,,,,,73.2,
1988.0,72.1,,,,,72.1,
2002.0,79.0,,,,,79.0,
2016.0,74.3,,,,,74.3,
2030.0,69.8,,,,,69.8,
2044.0,71.8,,,,,71.8,
2058.0,71.9,,,,,71.9,
2072.0,68.6,,,,,68.6,
2086.0,70.0,,,,,70.0,
2100.0,68.9,,,,,68.9,
2114.0,68.7,,,,,68.7,
2128.0,73.5,,,,,73.5,
2142.0,71.8,,,,,71.8,
2156.0,72.7,,,,,72.7,
2170.0,73.1,,,,,73.1,
2184.0,74.6,,,,,74.6,
2198.0,74.0,,,,,74.0,
2212.0,71.5,,,,,71.5,
2226.0,76.9,,,,,76.9,
2240.0,81.1,,,,,81.1,
2254.0,79.5,,,,,79.5,
2268.0,80.7,,,,,80.7,
2282.0,85.8,,,,,85.8,
2296.0,83.9,,,,,83.9,
2310.0,84.2,,,,,84.2,
2324.0,87.0,,,,,87.0,
2338.0,86.1,,,,,86.1,
2352.0,85.4,,,,,85.4,
2366.0,83.7,,,,,83.7,
2380.0,85.8,,,,,85.8,
2394.0,88.1,,,,,88.1,
2408.0,88.3,,,,,88.3,
2422.0,87.1,,,,,87.1,
2436.0,85.3,,,,,85.3,
2450.0,84.6,,,,,84.6,
2464.0,80.9,,,,,80.9,
2478.0,79.6,,,,,79.6,
2492.0,77.7,,,,,77.7,
2506.0,76.9,,,,,76.9,
2520.0,78.0,,,,,78.0,
2534.0,78.5,,,,,78.5,
2548.0,77.3,,,,,77.3,
2562.0,76.5,,,,,76.5,
2576.0,75.0,,,,,75.0,
2590.0,75.5,,,,,75.5,
2604.0,74.6,,,,,74.6,
2618.0,77.3,,,,,77.3,
2632.0,81.5,,,,,81.5,
2646.0,81.3,,,,,81.3,
2660.0,81.2,,,,,81.2,
2674.0,79.2,,,,,79.2,
2688.0,83.7,,,,,83.7,
2702.0,83.5,,,,,83.5,
2716.0,91.5,,,,,91.5,
2730.0,90.6,,,,,90.6,
2744.0,95.5,,,,,95.5,
2758.0,91.2,,,,,91.2,
2772.0,90.6,,,,,90.6,
2786.0,92.1,,,,,92.1,
2800.0,91.5,,,,,91.5,
2814.0,92.4,,,,,92.4,
2828.0,93.8,,,,,93.8,
2842.0,92.4,,,,,92.4,
2856.0,93.5,,,,,93.5,
2870.0,90.7,,,,,90.7,
2884.0,91.4,,,,,91.4,
2898.0,91.7,,,,,91.7,
2912.0,88.7,,,,,88.7,
2926.0,87.8,,,,,87.8,
2940.0,88.1,,,,,88.1,
2954.0,86.5,,,,,86.5,
2968.0,83.7,,,,,83.7,
2982.0,83.0,,,,,83.0,
2996.0,79.9,,,,,79.9,
3010.0,79.6,,,,,79.6,
3024.0,81.6,,,,,81.6,
3038.0,82.5,,,,,82.5,
3052.0,78.3,,,,,78.3,
3066.0,78.7,,,,,78.7,
3080.0,74.8,,,,,74.8,
3094.0,79.0,,,,,79.0,
3108.0,75.4,,,,,75.4,
3122.0,76.7,,,,,76.7,
3136.0,74.2,,,,,74.2,
3150.0,71.5,,,,,71.5,
3164.0,67.9,,,,,67.9,
3178.0,70.3,,,,,70.3,
3192.0,71.7,,,,,71.7,
3206.0,72.5,,,,,72.5,
3220.0,73.6,,,,,73.6,
3234.0,75.3,,,,,75.3,
3248.0,73.2,,,,,73.2,
3262.0,79.1,,,,,79.1,
3276.0,79.8,,,,,79.8,
3290.0,79.3,,,,,79.3,
3304.0,80.5,,,,,80.5,
3318.0,78.3,,,,,78.3,
3332.0,80.5,,,,,80.5,
3346.0,81.8,,,,,81.8,
3360.0,82.3,,,,,82.3,
3374.0,82.1,,,,,82.1,
3388.0,84.6,,,,,84.6,
3402.0,88.3,,,,,88.3,
3416.0,89.0,,,,,89.0,
3430.0,87.9,,,,,87.9,
3444.0,88.6,,,,,88.6,
3458.0,89.8,,,,,89.8,
3472.0,89.3,,,,,89.3,
3486.0,90.5,,,,,90.5,
3500.0,93.7,,,,,93.7,
3514.0,93.5,,,,,93.5,
3528.0,91.9,,,,,91.9,
3542.0,89.3,,,,,89.3,
3556.0,94.1,,,,,94.1,
3570.0,95.5,,,,,95.5,
3584.0,90.3,,,,,90.3,
3598.0,89.2,,,,,89.2,
3612.0,87.3,,,,,87.3,
3626.0,83.9,,,,,83.9,
3640.0,83.8,,,,,83.8,
3654.0,81.7,,,,,81.7,
3668.0,79.4,,,,,79.4,
3682.0,78.4,,,,,78.4,
3696.0,79.3,,,,,79.3,
3710.0,76.0,,,,,76.0,
3724.0,76.6,,,,,76.6,
3738.0,73.7,,,,,73.7,
3752.0,74.9,,,,,74.9,
3766.0,74.9,,,,,74.9,
3780.0,75.2,,,,,75.2,
3794.0,75.0,,,,,75.0,
3808.0,75.1,,,,,75.1,
3822.0,76.7,,,,,76.7,
3836.0,74.1,,,,,74.1,
3850.0,77.2,,,,,77.2,
3864.0,77.5,,,,,77.5,
3878.0,80.6,,,,,80.6,
3892.0,77.7,,,,,77.7,
3906.0,78.7,,,,,78.7,
3920.0,76.0,,,,,76.0,
3934.0,78.5,,,,,78.5,
3948.0,78.6,,,,,78.6,
3962.0,80.7,,,,,80.7,
3976.0,79.7,,,,,79.7,
3990.0,80.9,,,,,80.9,
4004.0,81.9,,,,,81.9,
4018.0,85.2,,,,,85.2,
4032.0,83.6,,,,,83.6,
4046.0,86.0,,,,,86.0,
4060.0,89.7,,,,,89.7,
4074.0,89.4,,,,,89.4,
4088.0,88.6,,,,,88.6,
4102.0,91.8,,,,,91.8,
4116.0,93.8,,,,,93.8,
4130.0,92.0,,,,,92.0,
4144.0,92.1,,,,,92.1,
4154.5,94.0,,,,,94.0,