File: 01_Data/Engineered_Wood_Table/Cone/Engineered_Wood_Table_Cone_HF75Scan_230626_R1.csv
Names,Time,Stack TC,Smoke TC,Exh Press,Smoke Comp,Smoke Meas,CO Meter,CO2 Meter,O2 Meter,Sample Mass,Ext Coeff,Start Test,Flame Verif
Chan Gain,,500,500,1,1,1,1,1,1,1,1,1.0,1.0
Offset,,0,0,0.135513,0,0,0,0,0,0,0,0.0,0.0
Gain,,1,1,25.011,12.9031,38.5876,1,1,1,1.00084,0.895081,1.0,1.0
Units,sec,C,C,Pa,%,%,%,%,%,g,/m,,
Baseline,,52.5107,55.3408,163.102,99.9875,99.9754,0.000970122,0.0541174,20.9356,-444.588,0.000963855,,
152,37.75,83.7651,108.086,130.149,100.42,91.7668,0.00798244,0.777521,20.1485,410.033,0.707523,0.0,0.0
304,75.75,93.3867,108.202,147.042,100.836,96.1616,0.00563453,0.55001,20.3292,402.076,0.372705,0.0,0.0
456,113.75,89.8887,99.0785,149.706,99.5657,96.9224,0.00448288,0.382032,20.5348,396.662,0.211265,0.0,0.0
608,151.75,87.6649,95.7129,146.061,99.359,96.3913,0.00361095,0.336318,20.5973,391.878,0.238088,0.0,0.0
760,189.75,85.9146,93.7165,144.633,100.203,97.8185,0.00247377,0.31136,20.6308,387.494,0.189115,0.0,0.0
912,227.75,85.2132,92.0249,144.766,100.283,98.571,0.00284933,0.294326,20.6504,383.351,0.135207,0.0,0.0
1064,265.75,85.0906,92.2536,147.304,100.2,98.823,0.00209339,0.284241,20.6605,379.457,0.108653,0.0,0.0
1216,303.75,85.1942,90.8321,144.232,100.667,99.5602,0.00235236,0.268763,20.6802,375.764,0.0868404,0.0,0.0
1368,341.75,84.05,89.8711,150.838,100.808,100.299,0.00224762,0.254472,20.6998,372.271,0.0397831,0.0,0.0
1520,379.75,82.6369,88.3333,147.654,100.834,100.274,0.00212919,0.240223,20.7134,369.049,0.043712,0.0,0.0
1672,417.75,81.7002,87.2371,147.773,100.111,99.4742,0.00181168,0.228066,20.7291,365.846,0.0501364,0.0,0.0
1824,455.75,81.2148,86.7605,147.556,99.0089,98.803,0.0016764,0.218912,20.7397,362.874,0.0163458,0.0,0.0
1976,493.75,80.3197,85.8328,151.193,99.7567,99.8122,0.00157159,0.210795,20.7494,360.011,-0.00436991,0.0,0.0
2128,531.75,80.4492,85.6781,148.198,100.263,99.9076,0.0014682,0.202574,20.7589,357.229,0.0278559,0.0,0.0
2280,569.75,79.8306,85.0978,151.132,99.8839,100.064,0.00135848,0.196543,20.7644,354.567,-0.0141634,0.0,0.0
2432,607.75,79.8946,84.1039,151.106,100.377,100.436,0.0016852,0.19416,20.7693,351.974,-0.00461949,0.0,0.0
2584,645.75,79.3104,84.1171,148.693,100.703,100.269,0.00129855,0.19194,20.7748,349.472,0.0339261,0.0,0.0
2736,683.75,79.8102,84.6367,148.156,99.6559,99.0939,0.00124484,0.196416,20.7708,346.97,0.0444035,0.0,0.0
2888,721.75,79.9455,85.4866,148.246,99.8138,99.4212,0.00182673,0.201902,20.7641,344.278,0.0309387,0.0,0.0
3040,759.75,80.3778,85.9134,153.68,99.7559,99.8899,0.00159273,0.204768,20.7631,341.556,-0.010543,0.0,0.0
3192,797.75,81.0598,85.9466,145.794,99.937,99.8063,0.00133814,0.208637,20.758,338.733,0.010276,0.0,0.0
3344,835.75,82.0826,87.9242,149.44,100.827,101.09,0.00154153,0.213654,20.7533,335.831,-0.0204812,0.0,0.0
3496,873.75,82.6437,88.5219,149.874,100.805,100.511,0.00146176,0.220054,20.7442,332.828,0.0229616,0.0,0.0
3648,911.75,83.468,89.9673,146.23,100.703,100.694,0.00146801,0.229085,20.7382,329.646,0.00070757,0.0,0.0
3800,949.75,83.8305,90.5009,147.183,100.334,99.4919,0.00152166,0.236928,20.7266,326.273,0.0662029,0.0,0.0
3952,987.75,85.0251,91.4784,145.554,100.718,99.8122,0.00186269,0.258288,20.7029,322.7,0.070921,0.0,0.0
4104,1025.75,85.4191,91.1241,147.067,100.415,100.2,0.00168593,0.242828,20.7114,319.157,0.0168315,0.0,0.0
4256,1063.75,84.5399,90.6713,151.913,99.0888,98.4038,0.00169152,0.229486,20.7335,315.864,0.0544701,0.0,0.0
4408,1101.75,86.3875,92.4755,145.938,100.206,98.7783,0.0017856,0.253003,20.7061,312.281,0.112639,0.0,0.0
4560,1139.75,86.6234,93.2745,147.487,99.6129,98.1412,0.00185758,0.257599,20.6979,308.638,0.116871,0.0,0.0
4712,1177.75,87.0088,93.0796,149.286,100.039,99.3459,0.00148976,0.24488,20.7088,305.245,0.0546207,0.0,0.0
4864,1215.75,86.2744,91.8182,146.64,100.798,100.154,0.00126647,0.230645,20.7229,302.203,0.0503634,0.0,0.0
5016,1253.75,85.2148,90.5286,146.183,99.2621,98.1812,0.0017501,0.217373,20.7387,299.42,0.0859656,0.0,0.0
5168,1291.75,84.6602,89.8106,147.793,99.8587,99.6238,0.00174458,0.208301,20.7519,296.718,0.0184891,0.0,0.0
5320,1329.75,83.6802,88.6886,146.547,100.386,99.7003,0.00162447,0.197697,20.7591,294.256,0.0538073,0.0,0.0
5472,1367.75,83.2883,88.5284,146.848,99.6401,98.9973,0.00141991,0.192061,20.7688,291.874,0.0508172,0.0,0.0
5624,1405.75,82.876,88.0276,147.96,99.8362,99.6732,0.00137097,0.18774,20.7718,289.652,0.0128274,0.0,0.0
5776,1443.75,82.6248,87.4537,152.936,99.6693,99.5237,0.00135513,0.1801,20.7835,287.48,0.0114761,0.0,0.0
5928,1481.75,81.6697,87.067,150.344,100.3,100.128,0.00136012,0.17358,20.7884,285.439,0.0134675,0.0,0.0
6080,1519.75,80.8144,85.5018,154.888,100.384,100.223,0.00147702,0.169601,20.7955,283.467,0.0125845,0.0,0.0
6232,1557.75,80.26,83.9109,148.896,100.38,100.057,0.00125063,0.166061,20.801,281.485,0.0253261,0.0,0.0
6384,1595.75,79.5376,84.2209,150.127,100.24,99.9853,0.00159708,0.162994,20.8063,279.524,0.0199924,0.0,0.0
6536,1633.75,79.19,84.3351,152.052,100.212,99.9217,0.00155832,0.163354,20.8054,277.632,0.0227973,0.0,0.0
6688,1671.75,79.3358,83.5529,149.07,99.7535,99.0668,0.00158938,0.161641,20.8083,275.721,0.0542405,0.0,0.0
6840,1709.75,78.9012,83.9484,148.054,100.278,99.7274,0.00136331,0.159964,20.8093,273.859,0.0432308,0.0,0.0
6992,1747.75,78.3176,83.5448,148.139,100.129,99.8593,0.00143372,0.158723,20.808,272.008,0.0211593,0.0,0.0
7144,1785.75,78.9849,83.63,153.695,100.869,100.508,0.00147876,0.161057,20.811,270.146,0.0281431,0.0,0.0
7296,1823.75,79.1772,83.5835,147.546,100.418,99.9971,0.001457,0.161345,20.8087,268.224,0.0329652,0.0,0.0
7448,1861.75,79.1331,84.167,149.876,99.3062,98.5816,0.00173006,0.161964,20.8115,266.283,0.0574997,0.0,0.0
7600,1899.75,79.5257,84.3937,148.709,99.1967,99.0491,0.00127718,0.164719,20.8067,264.431,0.0116929,0.0,0.0
7752,1937.75,79.8579,85.012,153.908,99.5511,99.6226,0.00129587,0.168518,20.8021,262.43,-0.0056357,0.0,0.0
7904,1975.75,79.7404,84.8377,150.546,100.662,100.191,0.00132477,0.169106,20.8011,260.368,0.0367597,0.0,0.0
8056,2013.75,80.0965,85.2798,148.125,100.629,99.5531,0.0016867,0.172653,20.7979,258.306,0.0844184,0.0,0.0
8208,2051.75,79.7735,84.6206,151.538,100.332,99.7875,0.00154334,0.172303,20.799,256.254,0.0427262,0.0,0.0
8360,2089.75,80.3979,85.7408,144.697,100.547,100.532,0.00127804,0.178309,20.7912,254.093,0.00119141,0.0,0.0
8512,2127.75,80.6032,86.0591,148.42,100.872,100.438,0.00151605,0.181735,20.792,251.901,0.0339103,0.0,0.0
8664,2165.75,80.7366,86.2568,150.51,100.588,99.9559,0.001486,0.183807,20.7851,249.649,0.0494612,0.0,0.0
8816,2203.75,81.2324,87.0837,148.979,99.6704,99.095,0.00166828,0.187684,20.7816,247.387,0.045458,0.0,0.0
8968,2241.75,81.3546,86.7189,150.446,99.207,98.6216,0.00160056,0.188475,20.7807,245.055,0.046462,0.0,0.0
9120,2279.75,81.7087,87.3736,145.74,99.6208,99.234,0.00140963,0.193314,20.7749,242.733,0.0305471,0.0,0.0
9272,2317.75,82.4793,87.8818,151.206,100.163,99.7922,0.00144635,0.192129,20.7768,240.391,0.0291251,0.0,0.0
9424,2355.75,82.3799,88.884,150.007,100.422,99.5484,0.00142033,0.198288,20.7707,237.949,0.0686119,0.0,0.0
9576,2393.75,83.1804,88.4226,146.469,100.205,99.8087,0.00146212,0.202385,20.7643,235.477,0.0311,0.0,0.0
9728,2431.75,83.7173,90.4265,146.482,100.384,99.8793,0.00173452,0.207097,20.76,232.865,0.0395996,0.0,0.0
9880,2469.75,84.4289,90.681,148.381,100.095,99.6674,0.00180783,0.207617,20.7572,230.333,0.0336111,0.0,0.0
10032,2507.75,84.0557,90.7113,147.768,99.1692,98.5722,0.00144504,0.212324,20.7521,227.67,0.0474073,0.0,0.0
10184,2545.75,84.5568,90.6294,150.254,99.4259,98.5121,0.00140552,0.217495,20.7483,224.968,0.072494,0.0,0.0
10336,2583.75,84.9357,91.3819,142.498,99.3204,98.3531,0.00153566,0.218637,20.7424,222.216,0.0768366,0.0,0.0
10488,2621.75,85.163,91.3486,145.793,99.2849,98.2012,0.0015013,0.22494,20.7389,219.484,0.0861711,0.0,0.0
10640,2659.75,86.0767,91.8111,146.082,99.216,98.6158,0.00164669,0.227635,20.7352,216.661,0.0476473,0.0,0.0
10792,2697.75,86.6125,93.3793,145.029,99.5732,98.7842,0.00142785,0.228483,20.732,213.819,0.0624635,0.0,0.0
10944,2735.75,87.0797,93.5227,146.061,100.36,99.5308,0.00179502,0.231095,20.7263,210.966,0.0651698,0.0,0.0
11096,2773.75,86.8091,93.5125,141.289,100.205,99.3812,0.00160681,0.228573,20.7329,208.244,0.0647994,0.0,0.0
11248,2811.75,86.5017,92.5964,151.202,99.6389,98.6358,0.0015679,0.226517,20.7321,205.442,0.07945,0.0,0.0
11400,2849.75,87.1063,92.6582,142.437,100.352,99.0562,0.00151961,0.229449,20.7297,202.74,0.102019,0.0,0.0
11552,2887.75,87.0525,93.0273,146.572,99.9878,98.9938,0.00165539,0.235876,20.7266,199.867,0.0784483,0.0,0.0
11704,2925.75,87.8681,95.2078,144.334,100.005,98.7653,0.00170524,0.243121,20.7131,196.935,0.0979186,0.0,0.0
11856,2963.75,88.7555,95.5609,147.999,100.321,99.1068,0.00162635,0.248539,20.7072,193.892,0.0956332,0.0,0.0
12008,3001.75,89.2845,95.9922,145.146,99.674,98.0199,0.00184995,0.25077,20.7041,190.78,0.13139,0.0,0.0
12160,3039.75,89.0866,95.5232,141.993,100.083,98.2142,0.00172541,0.249584,20.7017,187.767,0.148003,0.0,0.0
12312,3077.75,88.7826,94.8866,148.257,99.6917,97.9327,0.00168059,0.245197,20.7092,184.815,0.139769,0.0,0.0
12464,3115.75,88.7196,94.765,140.341,100.187,98.2036,0.00135327,0.241407,20.7141,181.972,0.157032,0.0,0.0
12616,3153.75,88.0111,94.0959,144.452,100.132,97.8303,0.00169407,0.238627,20.7114,179.07,0.182552,0.0,0.0
12768,3191.75,88.0689,94.1801,145.589,100.457,98.4662,0.00157322,0.233276,20.7143,176.327,0.157176,0.0,0.0
12920,3229.75,87.6342,92.8947,144.124,100.851,98.3461,0.00153998,0.222113,20.7278,173.805,0.197476,0.0,0.0
13072,3267.75,86.0398,90.2589,151.465,100.589,98.8218,0.00157438,0.193497,20.7508,171.834,0.139171,0.0,0.0
13224,3305.75,82.6742,85.7089,150.754,99.5169,99.0314,0.00161323,0.133155,20.8252,170.803,0.0383917,0.0,0.0
13376,3343.75,80.2773,83.2377,151.104,99.4267,99.4731,0.00246376,0.119195,20.8409,170.152,-0.00366054,0.0,0.0
13528,3381.75,78.6079,82.3472,152.968,100.284,100.044,0.0027259,0.112921,20.8504,169.542,0.0187926,0.0,0.0
13680,3419.75,78.3129,81.8554,151.736,100.447,100.243,0.00333132,0.113987,20.85,168.941,0.0159731,0.0,0.0
13832,3457.75,77.6619,81.628,153.7,100.288,100.415,0.00335359,0.111799,20.857,168.421,-0.00992628,0.0,0.0
13984,3495.75,76.7763,80.3049,153.771,99.6405,99.1292,0.00363185,0.109606,20.8589,167.78,0.0403958,0.0,0.0
14136,3533.75,76.3878,79.8231,150.86,99.8075,99.4589,0.00391593,0.10875,20.8605,167.31,0.027467,0.0,0.0
14288,3571.75,75.1891,78.8011,147.945,100.843,100.301,0.00431827,0.106443,20.86,166.82,0.0423278,0.0,0.0
14439,3609.5,74.8546,78.6037,153.464,100.877,99.8899,0.00389658,0.103516,20.8645,166.299,0.0772324,0.0,0.0