File: 01_Data/PVC/FTIR/IS/PVC_IS_S_220818_R3.dpt
7497.03,0.10575
7473.89,0.11736
7450.74,0.10022
7427.6,0.11460
7404.45,0.11537
7381.31,0.11095
7358.16,0.10724
7335.02,0.11209
7311.87,0.11100
7288.73,0.11186
7265.58,0.10293
7242.44,0.11107
7219.29,0.10695
7196.15,0.10198
7173,0.10758
7149.86,0.10174
7126.71,0.10114
7103.57,0.10529
7080.42,0.09992
7057.28,0.10424
7034.13,0.10559
7010.99,0.10347
6987.84,0.10558
6964.7,0.10290
6941.55,0.10136
6918.41,0.10671
6895.26,0.10638
6872.12,0.10681
6848.97,0.10210
6825.83,0.10444
6802.68,0.10426
6779.54,0.10614
6756.39,0.10066
6733.25,0.10319
6710.1,0.10405
6686.96,0.10058
6663.82,0.10291
6640.67,0.10321
6617.53,0.10052
6594.38,0.10216
6571.24,0.10117
6548.09,0.10069
6524.95,0.10531
6501.8,0.10452
6478.66,0.10127
6455.51,0.10242
6432.37,0.10011
6409.22,0.09837
6386.08,0.10122
6362.93,0.09776
6339.79,0.09843
6316.64,0.09903
6293.5,0.09266
6270.35,0.10008
6247.21,0.09973
6224.06,0.09768
6200.92,0.10049
6177.77,0.09690
6154.63,0.09766
6131.48,0.09455
6108.34,0.09721
6085.19,0.09621
6062.05,0.09821
6038.9,0.09334
6015.76,0.09281
5992.61,0.09099
5969.47,0.09440
5946.32,0.09203
5923.18,0.08948
5900.03,0.08586
5876.89,0.08084
5853.74,0.07863
5830.6,0.07282
5807.45,0.07671
5784.31,0.07677
5761.16,0.08016
5738.02,0.07848
5714.87,0.08016
5691.73,0.07951
5668.58,0.08197
5645.44,0.08189
5622.29,0.08091
5599.15,0.08264
5576,0.08389
5552.86,0.08406
5529.71,0.08412
5506.57,0.08520
5483.42,0.08314
5460.28,0.08241
5437.13,0.08525
5413.99,0.08265
5390.84,0.08494
5367.7,0.08355
5344.55,0.08386
5321.41,0.08329
5298.26,0.08436
5275.12,0.08329
5251.97,0.08350
5228.83,0.08222
5205.68,0.08198
5182.54,0.08344
5159.39,0.08221
5136.25,0.08294
5113.1,0.08262
5089.96,0.08162
5066.81,0.08255
5043.67,0.08305
5020.52,0.08242
4997.38,0.08208
4974.23,0.08140
4951.09,0.08244
4927.94,0.08220
4904.8,0.08176
4881.65,0.08098
4858.51,0.08092
4835.36,0.08068
4812.22,0.08098
4789.07,0.08037
4765.93,0.08097
4742.78,0.07998
4719.64,0.07958
4696.49,0.07993
4673.35,0.07895
4650.2,0.07908
4627.06,0.07903
4603.92,0.07889
4580.77,0.07862
4557.63,0.07796
4534.48,0.07752
4511.34,0.07618
4488.19,0.07586
4465.05,0.07366
4441.9,0.07095
4418.76,0.06956
4395.61,0.06682
4372.47,0.06304
4349.32,0.06110
4326.18,0.05972
4303.03,0.06177
4279.89,0.06176
4256.74,0.06239
4233.6,0.06110
4210.45,0.06133
4187.31,0.06190
4164.16,0.06159
4141.02,0.06263
4117.87,0.06312
4094.73,0.06360
4071.58,0.06297
4048.44,0.06349
4025.29,0.06402
4002.15,0.06392
3979,0.06463
3955.86,0.06479
3932.71,0.06417
3909.57,0.06473
3886.42,0.06465
3863.28,0.06439
3840.13,0.06405
3816.99,0.06405
3793.84,0.06473
3770.7,0.06508
3747.55,0.06536
3724.41,0.06536
3701.26,0.06390
3678.12,0.06143
3654.97,0.06132
3631.83,0.06220
3608.68,0.06139
3585.54,0.06070
3562.39,0.06066
3539.25,0.05992
3516.1,0.06025
3492.96,0.06046
3469.81,0.05850
3446.67,0.05950
3423.52,0.05873
3400.38,0.05862
3377.23,0.05868
3354.09,0.05880
3330.94,0.05844
3307.8,0.05879
3284.65,0.05833
3261.51,0.05813
3238.36,0.05763
3215.22,0.05947
3192.07,0.05826
3168.93,0.05873
3145.78,0.05761
3122.64,0.05787
3099.49,0.05765
3076.35,0.05691
3053.2,0.05676
3030.06,0.05580
3006.91,0.05553
2983.77,0.05504
2960.62,0.05453
2937.48,0.05518
2914.33,0.05688
2891.19,0.05712
2868.04,0.05654
2844.9,0.05744
2821.75,0.05708
2798.61,0.05699
2775.46,0.05730
2752.32,0.05722
2729.17,0.05720
2706.03,0.05670
2682.88,0.05731
2659.74,0.05663
2636.59,0.05679
2613.45,0.05654
2590.3,0.05655
2567.16,0.05620
2544.02,0.05641
2520.87,0.05626
2497.73,0.05683
2474.58,0.05652
2451.44,0.05608
2428.29,0.05629
2405.15,0.05648
2382,0.05665
2358.86,0.05671
2335.71,0.05622
2312.57,0.05641
2289.42,0.05624
2266.28,0.05656
2243.13,0.05654
2219.99,0.05622
2196.84,0.05655
2173.7,0.05669
2150.55,0.05685
2127.41,0.05720
2104.26,0.05730
2081.12,0.05700
2057.97,0.05725
2034.83,0.05746
2011.68,0.05722
1988.54,0.05776
1965.39,0.05805
1942.25,0.05861
1919.1,0.05903
1895.96,0.06002
1872.81,0.06059
1849.67,0.06171
1826.52,0.06211
1803.38,0.06102
1780.23,0.05840
1757.09,0.05532
1733.94,0.05399
1710.8,0.05710
1687.65,0.06049
1664.51,0.06679
1641.36,0.07149
1618.22,0.07312
1595.07,0.07423
1571.93,0.07363
1548.78,0.07984
1525.64,0.07942
1502.49,0.07000
1479.35,0.06079
1456.2,0.06016
1433.06,0.06610
1409.91,0.08642
1386.77,0.08469
1363.62,0.07608
1340.48,0.06361
1317.33,0.06311
1294.19,0.06197
1271.04,0.05670
1247.9,0.06054
1224.75,0.06293
1201.61,0.06039
1178.46,0.05989
1155.32,0.06083
1132.17,0.05999
1109.03,0.05768
1085.88,0.05871
1062.74,0.05842
1039.59,0.05916
1016.45,0.05751
993.304,0.05640
970.159,0.05661
947.014,0.05965
923.869,0.05887
900.724,0.05812
877.579,0.06075
854.434,0.05832
831.289,0.05907
808.144,0.05823
784.999,0.05756
761.854,0.05586
738.709,0.05407
715.565,0.05139
692.42,0.05453
669.275,0.05507
646.13,0.05226
622.985,0.05671
599.84,0.06587