File: 01_Data/PVC/FTIR/IS/PVC_IS_T_220818_R2.dpt
7497.03,0.02309
7473.89,0.01494
7450.74,0.02835
7427.6,0.02092
7404.45,0.02763
7381.31,0.02678
7358.16,0.02256
7335.02,0.02002
7311.87,0.02454
7288.73,0.01805
7265.58,0.02457
7242.44,0.01687
7219.29,0.01940
7196.15,0.02324
7173,0.02554
7149.86,0.02087
7126.71,0.02381
7103.57,0.01930
7080.42,0.01971
7057.28,0.02028
7034.13,0.02146
7010.99,0.02253
6987.84,0.02149
6964.7,0.02199
6941.55,0.01966
6918.41,0.01566
6895.26,0.02362
6872.12,0.02338
6848.97,0.02600
6825.83,0.02003
6802.68,0.01602
6779.54,0.01548
6756.39,0.01869
6733.25,0.01922
6710.1,0.02248
6686.96,0.01431
6663.82,0.02006
6640.67,0.02263
6617.53,0.01490
6594.38,0.02246
6571.24,0.01979
6548.09,0.02161
6524.95,0.02488
6501.8,0.02179
6478.66,0.01997
6455.51,0.01997
6432.37,0.01342
6409.22,0.01886
6386.08,0.01937
6362.93,0.01902
6339.79,0.01858
6316.64,0.01839
6293.5,0.01946
6270.35,0.01494
6247.21,0.02127
6224.06,0.01933
6200.92,0.01996
6177.77,0.01784
6154.63,0.01906
6131.48,0.01713
6108.34,0.01714
6085.19,0.02069
6062.05,0.01897
6038.9,0.02173
6015.76,0.01745
5992.61,0.02006
5969.47,0.01872
5946.32,0.01831
5923.18,0.01866
5900.03,0.01685
5876.89,0.01874
5853.74,0.01875
5830.6,0.02003
5807.45,0.01798
5784.31,0.01794
5761.16,0.02052
5738.02,0.01927
5714.87,0.01772
5691.73,0.01781
5668.58,0.01792
5645.44,0.01716
5622.29,0.01899
5599.15,0.02072
5576,0.01856
5552.86,0.01828
5529.71,0.01713
5506.57,0.01945
5483.42,0.01785
5460.28,0.01997
5437.13,0.01821
5413.99,0.01826
5390.84,0.01875
5367.7,0.01876
5344.55,0.02040
5321.41,0.02042
5298.26,0.01860
5275.12,0.01868
5251.97,0.01971
5228.83,0.01803
5205.68,0.01901
5182.54,0.02120
5159.39,0.01966
5136.25,0.02020
5113.1,0.01864
5089.96,0.01954
5066.81,0.01958
5043.67,0.01935
5020.52,0.01933
4997.38,0.02051
4974.23,0.01943
4951.09,0.02011
4927.94,0.02008
4904.8,0.01945
4881.65,0.01944
4858.51,0.01951
4835.36,0.01859
4812.22,0.01958
4789.07,0.01955
4765.93,0.01956
4742.78,0.01913
4719.64,0.01961
4696.49,0.01937
4673.35,0.02017
4650.2,0.01975
4627.06,0.01983
4603.92,0.01927
4580.77,0.01894
4557.63,0.01942
4534.48,0.01976
4511.34,0.01926
4488.19,0.02010
4465.05,0.01916
4441.9,0.01964
4418.76,0.01965
4395.61,0.01966
4372.47,0.01968
4349.32,0.01987
4326.18,0.01924
4303.03,0.01961
4279.89,0.01984
4256.74,0.01966
4233.6,0.01985
4210.45,0.01987
4187.31,0.02006
4164.16,0.02041
4141.02,0.02032
4117.87,0.01960
4094.73,0.01992
4071.58,0.01921
4048.44,0.02043
4025.29,0.02030
4002.15,0.01984
3979,0.01970
3955.86,0.01995
3932.71,0.01966
3909.57,0.01961
3886.42,0.02001
3863.28,0.01977
3840.13,0.01961
3816.99,0.02026
3793.84,0.01971
3770.7,0.02042
3747.55,0.02083
3724.41,0.01987
3701.26,0.01997
3678.12,0.01975
3654.97,0.01980
3631.83,0.01933
3608.68,0.01947
3585.54,0.01910
3562.39,0.01899
3539.25,0.01902
3516.1,0.01812
3492.96,0.01830
3469.81,0.01825
3446.67,0.01794
3423.52,0.01869
3400.38,0.01813
3377.23,0.01726
3354.09,0.01860
3330.94,0.01750
3307.8,0.01691
3284.65,0.01725
3261.51,0.01728
3238.36,0.01877
3215.22,0.01779
3192.07,0.01825
3168.93,0.01852
3145.78,0.01891
3122.64,0.01788
3099.49,0.01805
3076.35,0.01765
3053.2,0.01788
3030.06,0.01789
3006.91,0.01740
2983.77,0.01714
2960.62,0.01681
2937.48,0.01730
2914.33,0.01763
2891.19,0.01811
2868.04,0.01727
2844.9,0.01834
2821.75,0.01869
2798.61,0.01837
2775.46,0.01871
2752.32,0.01824
2729.17,0.01869
2706.03,0.01821
2682.88,0.01869
2659.74,0.01859
2636.59,0.01856
2613.45,0.01864
2590.3,0.01855
2567.16,0.01878
2544.02,0.01867
2520.87,0.01921
2497.73,0.01897
2474.58,0.01850
2451.44,0.01887
2428.29,0.01864
2405.15,0.01900
2382,0.01853
2358.86,0.01874
2335.71,0.01893
2312.57,0.01844
2289.42,0.01878
2266.28,0.01866
2243.13,0.01854
2219.99,0.01823
2196.84,0.01847
2173.7,0.01851
2150.55,0.01845
2127.41,0.01848
2104.26,0.01819
2081.12,0.01824
2057.97,0.01861
2034.83,0.01842
2011.68,0.01844
1988.54,0.01812
1965.39,0.01802
1942.25,0.01816
1919.1,0.01796
1895.96,0.01802
1872.81,0.01778
1849.67,0.01783
1826.52,0.01782
1803.38,0.01727
1780.23,0.01618
1757.09,0.01481
1733.94,0.01752
1710.8,0.01819
1687.65,0.01656
1664.51,0.01608
1641.36,0.01622
1618.22,0.01646
1595.07,0.01653
1571.93,0.01566
1548.78,0.01553
1525.64,0.01612
1502.49,0.01602
1479.35,0.01580
1456.2,0.01615
1433.06,0.01594
1409.91,0.01560
1386.77,0.01534
1363.62,0.01544
1340.48,0.01543
1317.33,0.01433
1294.19,0.01520
1271.04,0.01687
1247.9,0.01780
1224.75,0.01659
1201.61,0.01551
1178.46,0.01537
1155.32,0.01466
1132.17,0.01524
1109.03,0.01578
1085.88,0.01539
1062.74,0.01757
1039.59,0.01720
1016.45,0.01738
993.304,0.01910
970.159,0.01751
947.014,0.01721
923.869,0.01657
900.724,0.01602
877.579,0.01597
854.434,0.01607
831.289,0.01512
808.144,0.01522
784.999,0.01553
761.854,0.01539
738.709,0.01648
715.565,0.01476
692.42,0.01460
669.275,0.01493
646.13,0.01423
622.985,0.01211
599.84,0.01498