File: 01_Data/PVC/FTIR/IS/PVC_IS_T_220818_R3.dpt
7497.03,0.02696
7473.89,0.01866
7450.74,0.02490
7427.6,0.02226
7404.45,0.01868
7381.31,0.01952
7358.16,0.02871
7335.02,0.02851
7311.87,0.02293
7288.73,0.01867
7265.58,0.02446
7242.44,0.02557
7219.29,0.01864
7196.15,0.01980
7173,0.02208
7149.86,0.01757
7126.71,0.01830
7103.57,0.02703
7080.42,0.01815
7057.28,0.02322
7034.13,0.02574
7010.99,0.02258
6987.84,0.02193
6964.7,0.02031
6941.55,0.01995
6918.41,0.01753
6895.26,0.01995
6872.12,0.02015
6848.97,0.02276
6825.83,0.01731
6802.68,0.01920
6779.54,0.02485
6756.39,0.02077
6733.25,0.02374
6710.1,0.01923
6686.96,0.02132
6663.82,0.02166
6640.67,0.02262
6617.53,0.02287
6594.38,0.01972
6571.24,0.01527
6548.09,0.02400
6524.95,0.02403
6501.8,0.02438
6478.66,0.01898
6455.51,0.01779
6432.37,0.01869
6409.22,0.02126
6386.08,0.01978
6362.93,0.02147
6339.79,0.01936
6316.64,0.01845
6293.5,0.01744
6270.35,0.01960
6247.21,0.01720
6224.06,0.01853
6200.92,0.01677
6177.77,0.02033
6154.63,0.01944
6131.48,0.01688
6108.34,0.01846
6085.19,0.01908
6062.05,0.01801
6038.9,0.01741
6015.76,0.01694
5992.61,0.01892
5969.47,0.01936
5946.32,0.01915
5923.18,0.01933
5900.03,0.01761
5876.89,0.01914
5853.74,0.02009
5830.6,0.02054
5807.45,0.01906
5784.31,0.01696
5761.16,0.01780
5738.02,0.01891
5714.87,0.01799
5691.73,0.01907
5668.58,0.02241
5645.44,0.01864
5622.29,0.01917
5599.15,0.02065
5576,0.01846
5552.86,0.01977
5529.71,0.01914
5506.57,0.01947
5483.42,0.01990
5460.28,0.02109
5437.13,0.01853
5413.99,0.01957
5390.84,0.01697
5367.7,0.01882
5344.55,0.01821
5321.41,0.01906
5298.26,0.01950
5275.12,0.01801
5251.97,0.01857
5228.83,0.02047
5205.68,0.01888
5182.54,0.01931
5159.39,0.01929
5136.25,0.02076
5113.1,0.01855
5089.96,0.01977
5066.81,0.01997
5043.67,0.01871
5020.52,0.01963
4997.38,0.01793
4974.23,0.01990
4951.09,0.01874
4927.94,0.01872
4904.8,0.02033
4881.65,0.01964
4858.51,0.02016
4835.36,0.01846
4812.22,0.01878
4789.07,0.01939
4765.93,0.01926
4742.78,0.01912
4719.64,0.01926
4696.49,0.01971
4673.35,0.01811
4650.2,0.02024
4627.06,0.01950
4603.92,0.01917
4580.77,0.01962
4557.63,0.02064
4534.48,0.02005
4511.34,0.01916
4488.19,0.01883
4465.05,0.01900
4441.9,0.01956
4418.76,0.02016
4395.61,0.01885
4372.47,0.01987
4349.32,0.02029
4326.18,0.01975
4303.03,0.01918
4279.89,0.02021
4256.74,0.01994
4233.6,0.01943
4210.45,0.02015
4187.31,0.01985
4164.16,0.01966
4141.02,0.01971
4117.87,0.01968
4094.73,0.01961
4071.58,0.01902
4048.44,0.02009
4025.29,0.01988
4002.15,0.01923
3979,0.01984
3955.86,0.02031
3932.71,0.01915
3909.57,0.01943
3886.42,0.01966
3863.28,0.01977
3840.13,0.01912
3816.99,0.02007
3793.84,0.01965
3770.7,0.02011
3747.55,0.01929
3724.41,0.01942
3701.26,0.01885
3678.12,0.01920
3654.97,0.01878
3631.83,0.01966
3608.68,0.01883
3585.54,0.01856
3562.39,0.01916
3539.25,0.01806
3516.1,0.01844
3492.96,0.01792
3469.81,0.01724
3446.67,0.01804
3423.52,0.01806
3400.38,0.01791
3377.23,0.01771
3354.09,0.01746
3330.94,0.01782
3307.8,0.01736
3284.65,0.01723
3261.51,0.01723
3238.36,0.01696
3215.22,0.01809
3192.07,0.01756
3168.93,0.01736
3145.78,0.01802
3122.64,0.01718
3099.49,0.01767
3076.35,0.01747
3053.2,0.01773
3030.06,0.01802
3006.91,0.01729
2983.77,0.01738
2960.62,0.01668
2937.48,0.01701
2914.33,0.01739
2891.19,0.01776
2868.04,0.01723
2844.9,0.01809
2821.75,0.01836
2798.61,0.01806
2775.46,0.01819
2752.32,0.01822
2729.17,0.01842
2706.03,0.01823
2682.88,0.01818
2659.74,0.01800
2636.59,0.01867
2613.45,0.01854
2590.3,0.01819
2567.16,0.01818
2544.02,0.01783
2520.87,0.01804
2497.73,0.01819
2474.58,0.01825
2451.44,0.01849
2428.29,0.01840
2405.15,0.01800
2382,0.01832
2358.86,0.01812
2335.71,0.01823
2312.57,0.01805
2289.42,0.01823
2266.28,0.01804
2243.13,0.01806
2219.99,0.01834
2196.84,0.01819
2173.7,0.01779
2150.55,0.01820
2127.41,0.01798
2104.26,0.01795
2081.12,0.01781
2057.97,0.01816
2034.83,0.01803
2011.68,0.01795
1988.54,0.01778
1965.39,0.01823
1942.25,0.01787
1919.1,0.01799
1895.96,0.01774
1872.81,0.01726
1849.67,0.01731
1826.52,0.01733
1803.38,0.01683
1780.23,0.01625
1757.09,0.01479
1733.94,0.01698
1710.8,0.01769
1687.65,0.01592
1664.51,0.01543
1641.36,0.01583
1618.22,0.01614
1595.07,0.01645
1571.93,0.01552
1548.78,0.01620
1525.64,0.01573
1502.49,0.01546
1479.35,0.01583
1456.2,0.01558
1433.06,0.01585
1409.91,0.01532
1386.77,0.01523
1363.62,0.01543
1340.48,0.01484
1317.33,0.01441
1294.19,0.01522
1271.04,0.01669
1247.9,0.01722
1224.75,0.01633
1201.61,0.01621
1178.46,0.01523
1155.32,0.01501
1132.17,0.01471
1109.03,0.01597
1085.88,0.01461
1062.74,0.01754
1039.59,0.01682
1016.45,0.01642
993.304,0.01870
970.159,0.01795
947.014,0.01698
923.869,0.01635
900.724,0.01599
877.579,0.01615
854.434,0.01654
831.289,0.01596
808.144,0.01642
784.999,0.01636
761.854,0.01454
738.709,0.01522
715.565,0.01539
692.42,0.01492
669.275,0.01374
646.13,0.01316
622.985,0.01395
599.84,0.01214