File: 01_Data/PVC/FTIR/IS/PVC_IS_T_220818_R6.dpt
7497.03,0.02303
7473.89,0.02616
7450.74,0.02152
7427.6,0.01966
7404.45,0.02767
7381.31,0.01855
7358.16,0.02569
7335.02,0.02174
7311.87,0.02091
7288.73,0.02657
7265.58,0.02259
7242.44,0.02118
7219.29,0.02502
7196.15,0.03404
7173,0.01747
7149.86,0.02479
7126.71,0.02624
7103.57,0.01954
7080.42,0.02044
7057.28,0.02181
7034.13,0.01941
7010.99,0.02598
6987.84,0.02292
6964.7,0.02565
6941.55,0.01989
6918.41,0.01791
6895.26,0.02252
6872.12,0.01972
6848.97,0.01829
6825.83,0.01867
6802.68,0.01724
6779.54,0.02168
6756.39,0.01820
6733.25,0.01861
6710.1,0.02170
6686.96,0.02114
6663.82,0.01921
6640.67,0.02108
6617.53,0.01951
6594.38,0.01939
6571.24,0.01768
6548.09,0.01968
6524.95,0.01652
6501.8,0.02104
6478.66,0.01981
6455.51,0.01761
6432.37,0.01632
6409.22,0.01776
6386.08,0.02004
6362.93,0.01964
6339.79,0.01862
6316.64,0.01787
6293.5,0.01677
6270.35,0.02105
6247.21,0.01719
6224.06,0.02103
6200.92,0.01678
6177.77,0.01983
6154.63,0.01919
6131.48,0.02027
6108.34,0.01589
6085.19,0.01767
6062.05,0.01684
6038.9,0.01855
6015.76,0.02162
5992.61,0.01644
5969.47,0.02201
5946.32,0.01777
5923.18,0.02030
5900.03,0.02007
5876.89,0.01554
5853.74,0.01852
5830.6,0.01776
5807.45,0.01950
5784.31,0.01853
5761.16,0.01687
5738.02,0.01836
5714.87,0.01714
5691.73,0.01963
5668.58,0.01913
5645.44,0.01975
5622.29,0.01715
5599.15,0.01964
5576,0.01646
5552.86,0.01640
5529.71,0.02012
5506.57,0.01818
5483.42,0.01865
5460.28,0.01968
5437.13,0.01851
5413.99,0.01953
5390.84,0.01858
5367.7,0.01808
5344.55,0.01871
5321.41,0.01732
5298.26,0.01865
5275.12,0.01891
5251.97,0.01958
5228.83,0.01988
5205.68,0.01975
5182.54,0.01932
5159.39,0.01932
5136.25,0.01924
5113.1,0.01957
5089.96,0.01764
5066.81,0.01823
5043.67,0.02020
5020.52,0.01964
4997.38,0.01969
4974.23,0.01838
4951.09,0.01985
4927.94,0.01880
4904.8,0.01943
4881.65,0.01829
4858.51,0.02028
4835.36,0.01837
4812.22,0.01936
4789.07,0.01960
4765.93,0.01917
4742.78,0.01880
4719.64,0.01976
4696.49,0.01877
4673.35,0.01900
4650.2,0.01972
4627.06,0.01896
4603.92,0.01840
4580.77,0.01867
4557.63,0.01913
4534.48,0.01982
4511.34,0.01897
4488.19,0.01893
4465.05,0.01867
4441.9,0.01934
4418.76,0.01929
4395.61,0.01913
4372.47,0.02018
4349.32,0.01949
4326.18,0.01918
4303.03,0.01960
4279.89,0.01975
4256.74,0.01911
4233.6,0.01913
4210.45,0.01930
4187.31,0.01877
4164.16,0.01894
4141.02,0.01898
4117.87,0.01888
4094.73,0.01925
4071.58,0.01938
4048.44,0.01935
4025.29,0.01899
4002.15,0.01946
3979,0.01952
3955.86,0.01909
3932.71,0.01948
3909.57,0.01962
3886.42,0.01945
3863.28,0.01982
3840.13,0.02015
3816.99,0.01930
3793.84,0.01943
3770.7,0.01964
3747.55,0.01904
3724.41,0.01964
3701.26,0.01896
3678.12,0.01865
3654.97,0.01894
3631.83,0.01904
3608.68,0.01889
3585.54,0.01825
3562.39,0.01794
3539.25,0.01761
3516.1,0.01813
3492.96,0.01798
3469.81,0.01698
3446.67,0.01763
3423.52,0.01757
3400.38,0.01662
3377.23,0.01813
3354.09,0.01673
3330.94,0.01711
3307.8,0.01597
3284.65,0.01723
3261.51,0.01584
3238.36,0.01665
3215.22,0.01763
3192.07,0.01802
3168.93,0.01720
3145.78,0.01737
3122.64,0.01737
3099.49,0.01739
3076.35,0.01704
3053.2,0.01727
3030.06,0.01752
3006.91,0.01691
2983.77,0.01719
2960.62,0.01623
2937.48,0.01639
2914.33,0.01717
2891.19,0.01731
2868.04,0.01757
2844.9,0.01809
2821.75,0.01827
2798.61,0.01812
2775.46,0.01783
2752.32,0.01775
2729.17,0.01825
2706.03,0.01822
2682.88,0.01838
2659.74,0.01793
2636.59,0.01829
2613.45,0.01802
2590.3,0.01785
2567.16,0.01805
2544.02,0.01786
2520.87,0.01794
2497.73,0.01806
2474.58,0.01803
2451.44,0.01817
2428.29,0.01828
2405.15,0.01841
2382,0.01800
2358.86,0.01803
2335.71,0.01810
2312.57,0.01804
2289.42,0.01805
2266.28,0.01839
2243.13,0.01796
2219.99,0.01782
2196.84,0.01777
2173.7,0.01763
2150.55,0.01761
2127.41,0.01805
2104.26,0.01784
2081.12,0.01752
2057.97,0.01797
2034.83,0.01791
2011.68,0.01756
1988.54,0.01751
1965.39,0.01770
1942.25,0.01752
1919.1,0.01746
1895.96,0.01758
1872.81,0.01750
1849.67,0.01714
1826.52,0.01698
1803.38,0.01674
1780.23,0.01601
1757.09,0.01416
1733.94,0.01640
1710.8,0.01794
1687.65,0.01625
1664.51,0.01576
1641.36,0.01527
1618.22,0.01590
1595.07,0.01627
1571.93,0.01511
1548.78,0.01508
1525.64,0.01589
1502.49,0.01584
1479.35,0.01517
1456.2,0.01606
1433.06,0.01574
1409.91,0.01520
1386.77,0.01515
1363.62,0.01497
1340.48,0.01513
1317.33,0.01420
1294.19,0.01453
1271.04,0.01642
1247.9,0.01715
1224.75,0.01630
1201.61,0.01560
1178.46,0.01448
1155.32,0.01459
1132.17,0.01501
1109.03,0.01558
1085.88,0.01457
1062.74,0.01673
1039.59,0.01659
1016.45,0.01670
993.304,0.01772
970.159,0.01743
947.014,0.01696
923.869,0.01576
900.724,0.01631
877.579,0.01586
854.434,0.01549
831.289,0.01547
808.144,0.01556
784.999,0.01600
761.854,0.01617
738.709,0.01535
715.565,0.01445
692.42,0.01432
669.275,0.01489
646.13,0.01389
622.985,0.01469
599.84,0.01269