File: 01_Data/PVC/FTIR/IS/PVC_IS_T_220818_R4.dpt
7497.03,0.02671
7473.89,0.01798
7450.74,0.01492
7427.6,0.02326
7404.45,0.01663
7381.31,0.02554
7358.16,0.02940
7335.02,0.01736
7311.87,0.02068
7288.73,0.02625
7265.58,0.01283
7242.44,0.02175
7219.29,0.02629
7196.15,0.02241
7173,0.02915
7149.86,0.01840
7126.71,0.02323
7103.57,0.02387
7080.42,0.01519
7057.28,0.02467
7034.13,0.01643
7010.99,0.01906
6987.84,0.02420
6964.7,0.01833
6941.55,0.01754
6918.41,0.02831
6895.26,0.02297
6872.12,0.01921
6848.97,0.02160
6825.83,0.02365
6802.68,0.02087
6779.54,0.02105
6756.39,0.01587
6733.25,0.02188
6710.1,0.02143
6686.96,0.01780
6663.82,0.01889
6640.67,0.01784
6617.53,0.01866
6594.38,0.01855
6571.24,0.02199
6548.09,0.02128
6524.95,0.01930
6501.8,0.01615
6478.66,0.01893
6455.51,0.01903
6432.37,0.01932
6409.22,0.01463
6386.08,0.02094
6362.93,0.02120
6339.79,0.01581
6316.64,0.02002
6293.5,0.01976
6270.35,0.02168
6247.21,0.01697
6224.06,0.02147
6200.92,0.01889
6177.77,0.01912
6154.63,0.01796
6131.48,0.02276
6108.34,0.01797
6085.19,0.01915
6062.05,0.01578
6038.9,0.02125
6015.76,0.01742
5992.61,0.01724
5969.47,0.01940
5946.32,0.01884
5923.18,0.01946
5900.03,0.01841
5876.89,0.01939
5853.74,0.01875
5830.6,0.01649
5807.45,0.02048
5784.31,0.01775
5761.16,0.01725
5738.02,0.01917
5714.87,0.01998
5691.73,0.01964
5668.58,0.01885
5645.44,0.01763
5622.29,0.02160
5599.15,0.01694
5576,0.01897
5552.86,0.01919
5529.71,0.01945
5506.57,0.01834
5483.42,0.01954
5460.28,0.01934
5437.13,0.01848
5413.99,0.01810
5390.84,0.01897
5367.7,0.01955
5344.55,0.01921
5321.41,0.02034
5298.26,0.02001
5275.12,0.01827
5251.97,0.02027
5228.83,0.01879
5205.68,0.01902
5182.54,0.02073
5159.39,0.01829
5136.25,0.02046
5113.1,0.01861
5089.96,0.01934
5066.81,0.01835
5043.67,0.01790
5020.52,0.01998
4997.38,0.02004
4974.23,0.01880
4951.09,0.01940
4927.94,0.02032
4904.8,0.01930
4881.65,0.01907
4858.51,0.01913
4835.36,0.01891
4812.22,0.01809
4789.07,0.01939
4765.93,0.01931
4742.78,0.01920
4719.64,0.01942
4696.49,0.01878
4673.35,0.01925
4650.2,0.01966
4627.06,0.01979
4603.92,0.01998
4580.77,0.02062
4557.63,0.01928
4534.48,0.01902
4511.34,0.01922
4488.19,0.01986
4465.05,0.01927
4441.9,0.01997
4418.76,0.01934
4395.61,0.01938
4372.47,0.01843
4349.32,0.01909
4326.18,0.01966
4303.03,0.01945
4279.89,0.01927
4256.74,0.01992
4233.6,0.01952
4210.45,0.01935
4187.31,0.02018
4164.16,0.01974
4141.02,0.01924
4117.87,0.01981
4094.73,0.01929
4071.58,0.01941
4048.44,0.01862
4025.29,0.02032
4002.15,0.01997
3979,0.02005
3955.86,0.01962
3932.71,0.01964
3909.57,0.01990
3886.42,0.01974
3863.28,0.01951
3840.13,0.01925
3816.99,0.01980
3793.84,0.01976
3770.7,0.02011
3747.55,0.01940
3724.41,0.01939
3701.26,0.01962
3678.12,0.01972
3654.97,0.01935
3631.83,0.01930
3608.68,0.01929
3585.54,0.01919
3562.39,0.01882
3539.25,0.01851
3516.1,0.01823
3492.96,0.01805
3469.81,0.01757
3446.67,0.01798
3423.52,0.01815
3400.38,0.01792
3377.23,0.01739
3354.09,0.01757
3330.94,0.01714
3307.8,0.01811
3284.65,0.01802
3261.51,0.01754
3238.36,0.01856
3215.22,0.01716
3192.07,0.01755
3168.93,0.01823
3145.78,0.01723
3122.64,0.01771
3099.49,0.01758
3076.35,0.01783
3053.2,0.01817
3030.06,0.01801
3006.91,0.01729
2983.77,0.01739
2960.62,0.01732
2937.48,0.01708
2914.33,0.01763
2891.19,0.01801
2868.04,0.01782
2844.9,0.01843
2821.75,0.01825
2798.61,0.01806
2775.46,0.01809
2752.32,0.01866
2729.17,0.01851
2706.03,0.01828
2682.88,0.01804
2659.74,0.01842
2636.59,0.01850
2613.45,0.01836
2590.3,0.01847
2567.16,0.01866
2544.02,0.01870
2520.87,0.01821
2497.73,0.01876
2474.58,0.01884
2451.44,0.01870
2428.29,0.01836
2405.15,0.01852
2382,0.01841
2358.86,0.01873
2335.71,0.01850
2312.57,0.01836
2289.42,0.01820
2266.28,0.01841
2243.13,0.01814
2219.99,0.01845
2196.84,0.01818
2173.7,0.01851
2150.55,0.01831
2127.41,0.01819
2104.26,0.01828
2081.12,0.01814
2057.97,0.01801
2034.83,0.01778
2011.68,0.01802
1988.54,0.01797
1965.39,0.01781
1942.25,0.01810
1919.1,0.01790
1895.96,0.01764
1872.81,0.01774
1849.67,0.01751
1826.52,0.01744
1803.38,0.01685
1780.23,0.01632
1757.09,0.01481
1733.94,0.01711
1710.8,0.01786
1687.65,0.01641
1664.51,0.01616
1641.36,0.01564
1618.22,0.01629
1595.07,0.01607
1571.93,0.01549
1548.78,0.01577
1525.64,0.01597
1502.49,0.01586
1479.35,0.01568
1456.2,0.01559
1433.06,0.01614
1409.91,0.01543
1386.77,0.01533
1363.62,0.01559
1340.48,0.01504
1317.33,0.01403
1294.19,0.01522
1271.04,0.01672
1247.9,0.01754
1224.75,0.01691
1201.61,0.01620
1178.46,0.01559
1155.32,0.01439
1132.17,0.01492
1109.03,0.01561
1085.88,0.01545
1062.74,0.01727
1039.59,0.01694
1016.45,0.01593
993.304,0.01815
970.159,0.01746
947.014,0.01732
923.869,0.01578
900.724,0.01582
877.579,0.01657
854.434,0.01572
831.289,0.01585
808.144,0.01579
784.999,0.01606
761.854,0.01508
738.709,0.01495
715.565,0.01583
692.42,0.01457
669.275,0.01339
646.13,0.01258
622.985,0.01156
599.84,0.01013