File: 01_Data/PVC/FTIR/IS/PVC_IS_S_220818_R6.dpt
7497.03,0.11408
7473.89,0.11656
7450.74,0.10602
7427.6,0.11727
7404.45,0.10775
7381.31,0.11959
7358.16,0.10843
7335.02,0.11185
7311.87,0.11598
7288.73,0.10631
7265.58,0.10645
7242.44,0.10478
7219.29,0.10256
7196.15,0.10576
7173,0.10466
7149.86,0.10684
7126.71,0.10330
7103.57,0.11226
7080.42,0.10271
7057.28,0.10170
7034.13,0.10039
7010.99,0.10544
6987.84,0.10588
6964.7,0.10704
6941.55,0.10524
6918.41,0.09868
6895.26,0.10629
6872.12,0.10289
6848.97,0.10118
6825.83,0.10379
6802.68,0.10158
6779.54,0.10453
6756.39,0.10355
6733.25,0.10129
6710.1,0.10398
6686.96,0.10480
6663.82,0.10285
6640.67,0.09952
6617.53,0.10062
6594.38,0.10170
6571.24,0.10195
6548.09,0.09951
6524.95,0.10177
6501.8,0.10083
6478.66,0.10134
6455.51,0.09986
6432.37,0.09683
6409.22,0.09787
6386.08,0.09987
6362.93,0.09818
6339.79,0.09807
6316.64,0.09857
6293.5,0.09791
6270.35,0.09964
6247.21,0.09788
6224.06,0.09679
6200.92,0.09297
6177.77,0.09573
6154.63,0.09819
6131.48,0.09581
6108.34,0.09710
6085.19,0.09437
6062.05,0.09500
6038.9,0.09447
6015.76,0.09189
5992.61,0.09143
5969.47,0.09240
5946.32,0.09296
5923.18,0.09149
5900.03,0.08439
5876.89,0.08103
5853.74,0.07760
5830.6,0.07632
5807.45,0.07642
5784.31,0.08074
5761.16,0.07893
5738.02,0.08004
5714.87,0.08026
5691.73,0.07919
5668.58,0.07980
5645.44,0.08112
5622.29,0.08183
5599.15,0.08297
5576,0.08130
5552.86,0.08380
5529.71,0.08347
5506.57,0.08416
5483.42,0.08290
5460.28,0.08231
5437.13,0.08317
5413.99,0.08545
5390.84,0.08364
5367.7,0.08412
5344.55,0.08358
5321.41,0.08319
5298.26,0.08403
5275.12,0.08252
5251.97,0.08257
5228.83,0.08379
5205.68,0.08371
5182.54,0.08268
5159.39,0.08193
5136.25,0.08353
5113.1,0.08210
5089.96,0.08338
5066.81,0.08219
5043.67,0.08129
5020.52,0.08248
4997.38,0.08242
4974.23,0.08153
4951.09,0.08184
4927.94,0.08100
4904.8,0.08155
4881.65,0.08030
4858.51,0.08064
4835.36,0.08084
4812.22,0.08068
4789.07,0.08019
4765.93,0.07967
4742.78,0.07978
4719.64,0.07955
4696.49,0.07960
4673.35,0.07842
4650.2,0.07933
4627.06,0.07982
4603.92,0.07849
4580.77,0.07895
4557.63,0.07760
4534.48,0.07711
4511.34,0.07658
4488.19,0.07583
4465.05,0.07321
4441.9,0.07100
4418.76,0.06950
4395.61,0.06767
4372.47,0.06292
4349.32,0.06112
4326.18,0.06038
4303.03,0.06138
4279.89,0.06221
4256.74,0.06166
4233.6,0.06138
4210.45,0.06031
4187.31,0.06186
4164.16,0.06172
4141.02,0.06194
4117.87,0.06256
4094.73,0.06246
4071.58,0.06307
4048.44,0.06235
4025.29,0.06395
4002.15,0.06407
3979,0.06399
3955.86,0.06432
3932.71,0.06434
3909.57,0.06474
3886.42,0.06387
3863.28,0.06444
3840.13,0.06430
3816.99,0.06433
3793.84,0.06482
3770.7,0.06442
3747.55,0.06458
3724.41,0.06561
3701.26,0.06402
3678.12,0.06191
3654.97,0.06203
3631.83,0.06239
3608.68,0.06073
3585.54,0.06006
3562.39,0.05989
3539.25,0.06011
3516.1,0.05995
3492.96,0.05996
3469.81,0.05935
3446.67,0.05887
3423.52,0.05936
3400.38,0.05858
3377.23,0.05821
3354.09,0.05817
3330.94,0.05796
3307.8,0.05857
3284.65,0.05902
3261.51,0.05769
3238.36,0.05905
3215.22,0.05864
3192.07,0.05879
3168.93,0.05799
3145.78,0.05759
3122.64,0.05770
3099.49,0.05746
3076.35,0.05703
3053.2,0.05656
3030.06,0.05589
3006.91,0.05539
2983.77,0.05387
2960.62,0.05467
2937.48,0.05477
2914.33,0.05699
2891.19,0.05695
2868.04,0.05656
2844.9,0.05748
2821.75,0.05602
2798.61,0.05733
2775.46,0.05756
2752.32,0.05697
2729.17,0.05658
2706.03,0.05714
2682.88,0.05683
2659.74,0.05675
2636.59,0.05678
2613.45,0.05642
2590.3,0.05654
2567.16,0.05620
2544.02,0.05601
2520.87,0.05605
2497.73,0.05669
2474.58,0.05643
2451.44,0.05643
2428.29,0.05659
2405.15,0.05609
2382,0.05654
2358.86,0.05628
2335.71,0.05585
2312.57,0.05619
2289.42,0.05602
2266.28,0.05611
2243.13,0.05615
2219.99,0.05620
2196.84,0.05661
2173.7,0.05647
2150.55,0.05674
2127.41,0.05679
2104.26,0.05710
2081.12,0.05730
2057.97,0.05699
2034.83,0.05711
2011.68,0.05730
1988.54,0.05781
1965.39,0.05800
1942.25,0.05824
1919.1,0.05911
1895.96,0.05972
1872.81,0.06082
1849.67,0.06141
1826.52,0.06208
1803.38,0.06083
1780.23,0.05868
1757.09,0.05546
1733.94,0.05338
1710.8,0.05747
1687.65,0.06030
1664.51,0.06674
1641.36,0.07122
1618.22,0.07373
1595.07,0.07384
1571.93,0.07295
1548.78,0.07958
1525.64,0.07908
1502.49,0.07029
1479.35,0.06075
1456.2,0.06016
1433.06,0.06612
1409.91,0.08620
1386.77,0.08419
1363.62,0.07543
1340.48,0.06334
1317.33,0.06335
1294.19,0.06214
1271.04,0.05663
1247.9,0.06030
1224.75,0.06339
1201.61,0.06086
1178.46,0.05999
1155.32,0.06022
1132.17,0.05916
1109.03,0.05777
1085.88,0.05851
1062.74,0.05870
1039.59,0.05820
1016.45,0.05738
993.304,0.05691
970.159,0.05698
947.014,0.05946
923.869,0.05902
900.724,0.05862
877.579,0.06030
854.434,0.05840
831.289,0.05962
808.144,0.05843
784.999,0.05660
761.854,0.05558
738.709,0.05404
715.565,0.05114
692.42,0.05478
669.275,0.05615
646.13,0.05190
622.985,0.05771
599.84,0.06621