File: 01_Data/PVC/FTIR/IS/PVC_IS_S_220818_R5.dpt
7497.03,0.11640
7473.89,0.11427
7450.74,0.11243
7427.6,0.11150
7404.45,0.10999
7381.31,0.11528
7358.16,0.11252
7335.02,0.10997
7311.87,0.11163
7288.73,0.10893
7265.58,0.10743
7242.44,0.10866
7219.29,0.10252
7196.15,0.10724
7173,0.11165
7149.86,0.10978
7126.71,0.10413
7103.57,0.10318
7080.42,0.09973
7057.28,0.10936
7034.13,0.10492
7010.99,0.10617
6987.84,0.10725
6964.7,0.10066
6941.55,0.10323
6918.41,0.10418
6895.26,0.10721
6872.12,0.10477
6848.97,0.10609
6825.83,0.10419
6802.68,0.10671
6779.54,0.10188
6756.39,0.10426
6733.25,0.10499
6710.1,0.10213
6686.96,0.10153
6663.82,0.10293
6640.67,0.10102
6617.53,0.10175
6594.38,0.10005
6571.24,0.10176
6548.09,0.10068
6524.95,0.09761
6501.8,0.09785
6478.66,0.09679
6455.51,0.10071
6432.37,0.09541
6409.22,0.09841
6386.08,0.09764
6362.93,0.10245
6339.79,0.09718
6316.64,0.09853
6293.5,0.09600
6270.35,0.09795
6247.21,0.09726
6224.06,0.09667
6200.92,0.09648
6177.77,0.09576
6154.63,0.09665
6131.48,0.09708
6108.34,0.09504
6085.19,0.09637
6062.05,0.09407
6038.9,0.09403
6015.76,0.09342
5992.61,0.09421
5969.47,0.09080
5946.32,0.09020
5923.18,0.08793
5900.03,0.08546
5876.89,0.08069
5853.74,0.07855
5830.6,0.07164
5807.45,0.07389
5784.31,0.07909
5761.16,0.08241
5738.02,0.07917
5714.87,0.08018
5691.73,0.07950
5668.58,0.08182
5645.44,0.08153
5622.29,0.08150
5599.15,0.08209
5576,0.08254
5552.86,0.08308
5529.71,0.08368
5506.57,0.08493
5483.42,0.08320
5460.28,0.08322
5437.13,0.08326
5413.99,0.08116
5390.84,0.08248
5367.7,0.08414
5344.55,0.08310
5321.41,0.08355
5298.26,0.08292
5275.12,0.08222
5251.97,0.08228
5228.83,0.08263
5205.68,0.08280
5182.54,0.08370
5159.39,0.08230
5136.25,0.08294
5113.1,0.08331
5089.96,0.08236
5066.81,0.08196
5043.67,0.08333
5020.52,0.08159
4997.38,0.08218
4974.23,0.08237
4951.09,0.08201
4927.94,0.08068
4904.8,0.08094
4881.65,0.08139
4858.51,0.07971
4835.36,0.08024
4812.22,0.08041
4789.07,0.08092
4765.93,0.07972
4742.78,0.08025
4719.64,0.07950
4696.49,0.07891
4673.35,0.07878
4650.2,0.07879
4627.06,0.07953
4603.92,0.07828
4580.77,0.07820
4557.63,0.07776
4534.48,0.07698
4511.34,0.07684
4488.19,0.07476
4465.05,0.07429
4441.9,0.07114
4418.76,0.06879
4395.61,0.06615
4372.47,0.06318
4349.32,0.06071
4326.18,0.06029
4303.03,0.06078
4279.89,0.06163
4256.74,0.06167
4233.6,0.06090
4210.45,0.06095
4187.31,0.06146
4164.16,0.06186
4141.02,0.06245
4117.87,0.06301
4094.73,0.06268
4071.58,0.06279
4048.44,0.06328
4025.29,0.06275
4002.15,0.06355
3979,0.06396
3955.86,0.06471
3932.71,0.06472
3909.57,0.06449
3886.42,0.06364
3863.28,0.06409
3840.13,0.06453
3816.99,0.06424
3793.84,0.06414
3770.7,0.06448
3747.55,0.06478
3724.41,0.06489
3701.26,0.06415
3678.12,0.06268
3654.97,0.06160
3631.83,0.06173
3608.68,0.06085
3585.54,0.05975
3562.39,0.06016
3539.25,0.06013
3516.1,0.05981
3492.96,0.05928
3469.81,0.05933
3446.67,0.05878
3423.52,0.05801
3400.38,0.05861
3377.23,0.05900
3354.09,0.05772
3330.94,0.05856
3307.8,0.05809
3284.65,0.05803
3261.51,0.05860
3238.36,0.05864
3215.22,0.05817
3192.07,0.05821
3168.93,0.05807
3145.78,0.05757
3122.64,0.05795
3099.49,0.05750
3076.35,0.05673
3053.2,0.05712
3030.06,0.05584
3006.91,0.05514
2983.77,0.05384
2960.62,0.05470
2937.48,0.05494
2914.33,0.05719
2891.19,0.05664
2868.04,0.05628
2844.9,0.05717
2821.75,0.05649
2798.61,0.05688
2775.46,0.05720
2752.32,0.05657
2729.17,0.05689
2706.03,0.05663
2682.88,0.05675
2659.74,0.05701
2636.59,0.05653
2613.45,0.05623
2590.3,0.05664
2567.16,0.05629
2544.02,0.05601
2520.87,0.05621
2497.73,0.05670
2474.58,0.05626
2451.44,0.05643
2428.29,0.05628
2405.15,0.05624
2382,0.05633
2358.86,0.05642
2335.71,0.05619
2312.57,0.05599
2289.42,0.05624
2266.28,0.05623
2243.13,0.05599
2219.99,0.05639
2196.84,0.05637
2173.7,0.05619
2150.55,0.05703
2127.41,0.05691
2104.26,0.05701
2081.12,0.05691
2057.97,0.05735
2034.83,0.05730
2011.68,0.05755
1988.54,0.05803
1965.39,0.05801
1942.25,0.05853
1919.1,0.05920
1895.96,0.05989
1872.81,0.06078
1849.67,0.06155
1826.52,0.06198
1803.38,0.06038
1780.23,0.05843
1757.09,0.05526
1733.94,0.05356
1710.8,0.05684
1687.65,0.06017
1664.51,0.06696
1641.36,0.07154
1618.22,0.07293
1595.07,0.07420
1571.93,0.07302
1548.78,0.07974
1525.64,0.07924
1502.49,0.06992
1479.35,0.06006
1456.2,0.06016
1433.06,0.06609
1409.91,0.08601
1386.77,0.08412
1363.62,0.07556
1340.48,0.06342
1317.33,0.06327
1294.19,0.06184
1271.04,0.05660
1247.9,0.06029
1224.75,0.06327
1201.61,0.06012
1178.46,0.06009
1155.32,0.06005
1132.17,0.05935
1109.03,0.05793
1085.88,0.05860
1062.74,0.05822
1039.59,0.05821
1016.45,0.05759
993.304,0.05596
970.159,0.05691
947.014,0.05935
923.869,0.05846
900.724,0.05819
877.579,0.06046
854.434,0.05858
831.289,0.05865
808.144,0.05861
784.999,0.05672
761.854,0.05526
738.709,0.05449
715.565,0.05197
692.42,0.05418
669.275,0.05519
646.13,0.05219
622.985,0.05731
599.84,0.06118