File: 01_Data/PVC/FTIR/IS/PVC_IS_S_220818_R2.dpt
7497.03,0.11096
7473.89,0.11335
7450.74,0.11459
7427.6,0.10009
7404.45,0.10337
7381.31,0.11422
7358.16,0.11663
7335.02,0.11672
7311.87,0.11036
7288.73,0.10423
7265.58,0.10358
7242.44,0.11162
7219.29,0.10476
7196.15,0.10356
7173,0.10682
7149.86,0.10804
7126.71,0.11059
7103.57,0.11373
7080.42,0.10368
7057.28,0.10065
7034.13,0.10778
7010.99,0.10678
6987.84,0.10435
6964.7,0.10379
6941.55,0.10234
6918.41,0.10498
6895.26,0.10289
6872.12,0.10703
6848.97,0.10540
6825.83,0.10244
6802.68,0.10280
6779.54,0.10380
6756.39,0.10468
6733.25,0.10550
6710.1,0.09926
6686.96,0.10699
6663.82,0.10340
6640.67,0.10176
6617.53,0.09879
6594.38,0.10163
6571.24,0.10319
6548.09,0.09930
6524.95,0.10142
6501.8,0.09856
6478.66,0.10308
6455.51,0.10129
6432.37,0.09589
6409.22,0.09629
6386.08,0.10068
6362.93,0.09687
6339.79,0.09790
6316.64,0.09864
6293.5,0.09798
6270.35,0.09540
6247.21,0.10088
6224.06,0.09748
6200.92,0.09674
6177.77,0.09765
6154.63,0.09652
6131.48,0.09643
6108.34,0.09624
6085.19,0.09510
6062.05,0.09466
6038.9,0.09291
6015.76,0.09143
5992.61,0.09440
5969.47,0.09349
5946.32,0.09088
5923.18,0.09016
5900.03,0.08749
5876.89,0.08212
5853.74,0.07720
5830.6,0.07232
5807.45,0.07589
5784.31,0.08019
5761.16,0.08219
5738.02,0.07743
5714.87,0.08082
5691.73,0.08006
5668.58,0.08391
5645.44,0.07984
5622.29,0.08177
5599.15,0.08407
5576,0.08337
5552.86,0.08486
5529.71,0.08431
5506.57,0.08395
5483.42,0.08327
5460.28,0.08270
5437.13,0.08448
5413.99,0.08225
5390.84,0.08366
5367.7,0.08434
5344.55,0.08350
5321.41,0.08307
5298.26,0.08459
5275.12,0.08336
5251.97,0.08355
5228.83,0.08176
5205.68,0.08379
5182.54,0.08346
5159.39,0.08238
5136.25,0.08160
5113.1,0.08245
5089.96,0.08227
5066.81,0.08255
5043.67,0.08286
5020.52,0.08228
4997.38,0.08243
4974.23,0.08102
4951.09,0.08165
4927.94,0.08157
4904.8,0.08126
4881.65,0.08258
4858.51,0.08162
4835.36,0.08050
4812.22,0.08111
4789.07,0.08109
4765.93,0.08035
4742.78,0.07892
4719.64,0.07981
4696.49,0.07897
4673.35,0.07859
4650.2,0.07930
4627.06,0.07924
4603.92,0.07860
4580.77,0.07867
4557.63,0.07810
4534.48,0.07766
4511.34,0.07640
4488.19,0.07562
4465.05,0.07392
4441.9,0.07132
4418.76,0.06924
4395.61,0.06652
4372.47,0.06277
4349.32,0.06063
4326.18,0.06048
4303.03,0.06115
4279.89,0.06171
4256.74,0.06175
4233.6,0.06100
4210.45,0.06164
4187.31,0.06190
4164.16,0.06178
4141.02,0.06238
4117.87,0.06300
4094.73,0.06265
4071.58,0.06265
4048.44,0.06320
4025.29,0.06332
4002.15,0.06366
3979,0.06431
3955.86,0.06428
3932.71,0.06400
3909.57,0.06415
3886.42,0.06411
3863.28,0.06486
3840.13,0.06439
3816.99,0.06408
3793.84,0.06440
3770.7,0.06506
3747.55,0.06474
3724.41,0.06592
3701.26,0.06365
3678.12,0.06171
3654.97,0.06265
3631.83,0.06210
3608.68,0.06121
3585.54,0.06032
3562.39,0.06044
3539.25,0.05932
3516.1,0.05982
3492.96,0.05950
3469.81,0.05944
3446.67,0.05939
3423.52,0.05906
3400.38,0.05891
3377.23,0.05898
3354.09,0.05922
3330.94,0.05873
3307.8,0.05769
3284.65,0.05833
3261.51,0.05818
3238.36,0.05900
3215.22,0.05820
3192.07,0.05871
3168.93,0.05823
3145.78,0.05882
3122.64,0.05846
3099.49,0.05793
3076.35,0.05725
3053.2,0.05651
3030.06,0.05594
3006.91,0.05484
2983.77,0.05422
2960.62,0.05495
2937.48,0.05480
2914.33,0.05705
2891.19,0.05673
2868.04,0.05641
2844.9,0.05714
2821.75,0.05653
2798.61,0.05721
2775.46,0.05752
2752.32,0.05699
2729.17,0.05705
2706.03,0.05677
2682.88,0.05716
2659.74,0.05693
2636.59,0.05677
2613.45,0.05627
2590.3,0.05630
2567.16,0.05613
2544.02,0.05644
2520.87,0.05583
2497.73,0.05637
2474.58,0.05682
2451.44,0.05650
2428.29,0.05660
2405.15,0.05657
2382,0.05587
2358.86,0.05592
2335.71,0.05627
2312.57,0.05649
2289.42,0.05642
2266.28,0.05578
2243.13,0.05610
2219.99,0.05649
2196.84,0.05694
2173.7,0.05671
2150.55,0.05711
2127.41,0.05703
2104.26,0.05724
2081.12,0.05710
2057.97,0.05719
2034.83,0.05720
2011.68,0.05739
1988.54,0.05765
1965.39,0.05825
1942.25,0.05855
1919.1,0.05919
1895.96,0.05995
1872.81,0.06085
1849.67,0.06175
1826.52,0.06202
1803.38,0.06061
1780.23,0.05846
1757.09,0.05546
1733.94,0.05424
1710.8,0.05744
1687.65,0.06071
1664.51,0.06674
1641.36,0.07134
1618.22,0.07297
1595.07,0.07387
1571.93,0.07304
1548.78,0.07953
1525.64,0.07960
1502.49,0.07044
1479.35,0.06016
1456.2,0.06037
1433.06,0.06609
1409.91,0.08623
1386.77,0.08440
1363.62,0.07530
1340.48,0.06367
1317.33,0.06299
1294.19,0.06219
1271.04,0.05660
1247.9,0.06053
1224.75,0.06348
1201.61,0.06023
1178.46,0.05968
1155.32,0.06089
1132.17,0.05975
1109.03,0.05784
1085.88,0.05908
1062.74,0.05915
1039.59,0.05856
1016.45,0.05796
993.304,0.05649
970.159,0.05626
947.014,0.05993
923.869,0.05905
900.724,0.05889
877.579,0.06009
854.434,0.05897
831.289,0.05836
808.144,0.05874
784.999,0.05719
761.854,0.05614
738.709,0.05379
715.565,0.05153
692.42,0.05319
669.275,0.05664
646.13,0.05195
622.985,0.05685
599.84,0.06748