File: 01_Data/PVC/FTIR/IS/PVC_IS_S_220818_R8.dpt
7497.03,0.10816
7473.89,0.10559
7450.74,0.11638
7427.6,0.11164
7404.45,0.10976
7381.31,0.11045
7358.16,0.10373
7335.02,0.10426
7311.87,0.11226
7288.73,0.10667
7265.58,0.10647
7242.44,0.10219
7219.29,0.10039
7196.15,0.10863
7173,0.10886
7149.86,0.10597
7126.71,0.10549
7103.57,0.10385
7080.42,0.09966
7057.28,0.10590
7034.13,0.09973
7010.99,0.10491
6987.84,0.10301
6964.7,0.10610
6941.55,0.10413
6918.41,0.10392
6895.26,0.10554
6872.12,0.10502
6848.97,0.10539
6825.83,0.10261
6802.68,0.10269
6779.54,0.10095
6756.39,0.09997
6733.25,0.10377
6710.1,0.10300
6686.96,0.10009
6663.82,0.10360
6640.67,0.10006
6617.53,0.10156
6594.38,0.10073
6571.24,0.10402
6548.09,0.09762
6524.95,0.10210
6501.8,0.09971
6478.66,0.10082
6455.51,0.09886
6432.37,0.10286
6409.22,0.09857
6386.08,0.09948
6362.93,0.09999
6339.79,0.09684
6316.64,0.09899
6293.5,0.09825
6270.35,0.09943
6247.21,0.09736
6224.06,0.09634
6200.92,0.09725
6177.77,0.09526
6154.63,0.09612
6131.48,0.09458
6108.34,0.09674
6085.19,0.09658
6062.05,0.09238
6038.9,0.09636
6015.76,0.09536
5992.61,0.09235
5969.47,0.09350
5946.32,0.08889
5923.18,0.08963
5900.03,0.08644
5876.89,0.08027
5853.74,0.07442
5830.6,0.07414
5807.45,0.07672
5784.31,0.08098
5761.16,0.08029
5738.02,0.08116
5714.87,0.07966
5691.73,0.08131
5668.58,0.07996
5645.44,0.08223
5622.29,0.08079
5599.15,0.08253
5576,0.08285
5552.86,0.08395
5529.71,0.08378
5506.57,0.08354
5483.42,0.08451
5460.28,0.08308
5437.13,0.08300
5413.99,0.08363
5390.84,0.08315
5367.7,0.08217
5344.55,0.08271
5321.41,0.08323
5298.26,0.08447
5275.12,0.08443
5251.97,0.08253
5228.83,0.08360
5205.68,0.08302
5182.54,0.08229
5159.39,0.08187
5136.25,0.08208
5113.1,0.08249
5089.96,0.08213
5066.81,0.08365
5043.67,0.08344
5020.52,0.08213
4997.38,0.08319
4974.23,0.08320
4951.09,0.08181
4927.94,0.08169
4904.8,0.08149
4881.65,0.08094
4858.51,0.08086
4835.36,0.07999
4812.22,0.07997
4789.07,0.08013
4765.93,0.07916
4742.78,0.08042
4719.64,0.07991
4696.49,0.07916
4673.35,0.07860
4650.2,0.07977
4627.06,0.07891
4603.92,0.07822
4580.77,0.07819
4557.63,0.07752
4534.48,0.07839
4511.34,0.07735
4488.19,0.07550
4465.05,0.07405
4441.9,0.07228
4418.76,0.06866
4395.61,0.06695
4372.47,0.06306
4349.32,0.06140
4326.18,0.05999
4303.03,0.06164
4279.89,0.06175
4256.74,0.06167
4233.6,0.06099
4210.45,0.06116
4187.31,0.06160
4164.16,0.06194
4141.02,0.06285
4117.87,0.06265
4094.73,0.06316
4071.58,0.06329
4048.44,0.06401
4025.29,0.06397
4002.15,0.06323
3979,0.06455
3955.86,0.06484
3932.71,0.06496
3909.57,0.06477
3886.42,0.06385
3863.28,0.06428
3840.13,0.06419
3816.99,0.06477
3793.84,0.06483
3770.7,0.06506
3747.55,0.06526
3724.41,0.06591
3701.26,0.06406
3678.12,0.06186
3654.97,0.06214
3631.83,0.06200
3608.68,0.06042
3585.54,0.06034
3562.39,0.06031
3539.25,0.05960
3516.1,0.05947
3492.96,0.05969
3469.81,0.05932
3446.67,0.05839
3423.52,0.05894
3400.38,0.05849
3377.23,0.05912
3354.09,0.05919
3330.94,0.05793
3307.8,0.05824
3284.65,0.05851
3261.51,0.05775
3238.36,0.05867
3215.22,0.05881
3192.07,0.05872
3168.93,0.05815
3145.78,0.05894
3122.64,0.05801
3099.49,0.05752
3076.35,0.05731
3053.2,0.05693
3030.06,0.05610
3006.91,0.05541
2983.77,0.05395
2960.62,0.05489
2937.48,0.05536
2914.33,0.05672
2891.19,0.05716
2868.04,0.05610
2844.9,0.05750
2821.75,0.05657
2798.61,0.05740
2775.46,0.05720
2752.32,0.05672
2729.17,0.05659
2706.03,0.05698
2682.88,0.05691
2659.74,0.05708
2636.59,0.05659
2613.45,0.05623
2590.3,0.05613
2567.16,0.05625
2544.02,0.05615
2520.87,0.05581
2497.73,0.05645
2474.58,0.05658
2451.44,0.05651
2428.29,0.05631
2405.15,0.05632
2382,0.05615
2358.86,0.05596
2335.71,0.05649
2312.57,0.05640
2289.42,0.05649
2266.28,0.05626
2243.13,0.05621
2219.99,0.05648
2196.84,0.05662
2173.7,0.05644
2150.55,0.05649
2127.41,0.05699
2104.26,0.05736
2081.12,0.05711
2057.97,0.05736
2034.83,0.05704
2011.68,0.05783
1988.54,0.05757
1965.39,0.05795
1942.25,0.05840
1919.1,0.05933
1895.96,0.05986
1872.81,0.06088
1849.67,0.06177
1826.52,0.06200
1803.38,0.06082
1780.23,0.05828
1757.09,0.05546
1733.94,0.05401
1710.8,0.05732
1687.65,0.06071
1664.51,0.06668
1641.36,0.07134
1618.22,0.07344
1595.07,0.07427
1571.93,0.07337
1548.78,0.07973
1525.64,0.07936
1502.49,0.07050
1479.35,0.06061
1456.2,0.05998
1433.06,0.06621
1409.91,0.08573
1386.77,0.08424
1363.62,0.07553
1340.48,0.06323
1317.33,0.06305
1294.19,0.06201
1271.04,0.05645
1247.9,0.06017
1224.75,0.06328
1201.61,0.06027
1178.46,0.06032
1155.32,0.06079
1132.17,0.05949
1109.03,0.05777
1085.88,0.05881
1062.74,0.05909
1039.59,0.05856
1016.45,0.05757
993.304,0.05660
970.159,0.05670
947.014,0.05956
923.869,0.05878
900.724,0.05867
877.579,0.06002
854.434,0.05890
831.289,0.05834
808.144,0.05848
784.999,0.05699
761.854,0.05572
738.709,0.05355
715.565,0.05190
692.42,0.05513
669.275,0.05412
646.13,0.05189
622.985,0.05827
599.84,0.06544