File: 01_Data/PVC/FTIR/IS/PVC_IS_S_220818_R4.dpt
7497.03,0.11005
7473.89,0.10984
7450.74,0.11731
7427.6,0.11513
7404.45,0.09891
7381.31,0.10453
7358.16,0.10328
7335.02,0.10931
7311.87,0.11281
7288.73,0.10914
7265.58,0.10510
7242.44,0.10490
7219.29,0.10735
7196.15,0.10930
7173,0.10361
7149.86,0.10478
7126.71,0.10948
7103.57,0.09909
7080.42,0.10629
7057.28,0.09943
7034.13,0.10590
7010.99,0.11016
6987.84,0.10339
6964.7,0.10375
6941.55,0.10679
6918.41,0.10626
6895.26,0.10708
6872.12,0.10440
6848.97,0.10097
6825.83,0.10366
6802.68,0.10344
6779.54,0.10269
6756.39,0.10348
6733.25,0.10563
6710.1,0.09995
6686.96,0.10445
6663.82,0.10076
6640.67,0.10107
6617.53,0.09788
6594.38,0.10170
6571.24,0.10273
6548.09,0.10368
6524.95,0.09906
6501.8,0.10053
6478.66,0.10064
6455.51,0.09941
6432.37,0.09809
6409.22,0.09960
6386.08,0.10084
6362.93,0.09698
6339.79,0.09792
6316.64,0.10138
6293.5,0.09898
6270.35,0.09651
6247.21,0.09534
6224.06,0.09757
6200.92,0.09360
6177.77,0.09650
6154.63,0.09680
6131.48,0.09739
6108.34,0.09516
6085.19,0.09606
6062.05,0.09382
6038.9,0.09424
6015.76,0.09497
5992.61,0.09283
5969.47,0.09468
5946.32,0.09171
5923.18,0.08872
5900.03,0.08438
5876.89,0.08319
5853.74,0.07816
5830.6,0.07500
5807.45,0.07375
5784.31,0.07953
5761.16,0.08027
5738.02,0.07771
5714.87,0.07851
5691.73,0.08201
5668.58,0.08277
5645.44,0.08267
5622.29,0.08410
5599.15,0.08292
5576,0.08280
5552.86,0.08487
5529.71,0.08439
5506.57,0.08318
5483.42,0.08227
5460.28,0.08313
5437.13,0.08358
5413.99,0.08240
5390.84,0.08528
5367.7,0.08377
5344.55,0.08532
5321.41,0.08486
5298.26,0.08475
5275.12,0.08356
5251.97,0.08362
5228.83,0.08251
5205.68,0.08276
5182.54,0.08369
5159.39,0.08305
5136.25,0.08230
5113.1,0.08302
5089.96,0.08218
5066.81,0.08230
5043.67,0.08266
5020.52,0.08246
4997.38,0.08175
4974.23,0.08216
4951.09,0.08187
4927.94,0.08143
4904.8,0.08164
4881.65,0.08166
4858.51,0.08158
4835.36,0.08126
4812.22,0.08093
4789.07,0.08048
4765.93,0.08071
4742.78,0.07950
4719.64,0.07906
4696.49,0.07998
4673.35,0.07923
4650.2,0.07917
4627.06,0.07855
4603.92,0.07861
4580.77,0.07884
4557.63,0.07755
4534.48,0.07739
4511.34,0.07661
4488.19,0.07504
4465.05,0.07375
4441.9,0.07156
4418.76,0.06920
4395.61,0.06679
4372.47,0.06300
4349.32,0.06228
4326.18,0.06013
4303.03,0.06202
4279.89,0.06231
4256.74,0.06154
4233.6,0.06164
4210.45,0.06088
4187.31,0.06166
4164.16,0.06171
4141.02,0.06226
4117.87,0.06250
4094.73,0.06307
4071.58,0.06296
4048.44,0.06331
4025.29,0.06325
4002.15,0.06301
3979,0.06371
3955.86,0.06422
3932.71,0.06476
3909.57,0.06439
3886.42,0.06465
3863.28,0.06474
3840.13,0.06449
3816.99,0.06443
3793.84,0.06459
3770.7,0.06422
3747.55,0.06506
3724.41,0.06558
3701.26,0.06484
3678.12,0.06158
3654.97,0.06118
3631.83,0.06204
3608.68,0.06059
3585.54,0.06021
3562.39,0.06070
3539.25,0.06005
3516.1,0.05956
3492.96,0.05965
3469.81,0.05920
3446.67,0.05867
3423.52,0.05861
3400.38,0.05917
3377.23,0.05808
3354.09,0.05903
3330.94,0.05829
3307.8,0.05897
3284.65,0.05813
3261.51,0.05840
3238.36,0.05807
3215.22,0.05785
3192.07,0.05843
3168.93,0.05786
3145.78,0.05872
3122.64,0.05769
3099.49,0.05780
3076.35,0.05759
3053.2,0.05661
3030.06,0.05612
3006.91,0.05536
2983.77,0.05442
2960.62,0.05425
2937.48,0.05542
2914.33,0.05679
2891.19,0.05695
2868.04,0.05638
2844.9,0.05750
2821.75,0.05621
2798.61,0.05696
2775.46,0.05735
2752.32,0.05698
2729.17,0.05702
2706.03,0.05731
2682.88,0.05647
2659.74,0.05678
2636.59,0.05679
2613.45,0.05597
2590.3,0.05651
2567.16,0.05634
2544.02,0.05603
2520.87,0.05629
2497.73,0.05653
2474.58,0.05655
2451.44,0.05657
2428.29,0.05632
2405.15,0.05622
2382,0.05638
2358.86,0.05589
2335.71,0.05627
2312.57,0.05616
2289.42,0.05603
2266.28,0.05633
2243.13,0.05628
2219.99,0.05658
2196.84,0.05635
2173.7,0.05668
2150.55,0.05679
2127.41,0.05678
2104.26,0.05685
2081.12,0.05712
2057.97,0.05732
2034.83,0.05751
2011.68,0.05760
1988.54,0.05764
1965.39,0.05826
1942.25,0.05839
1919.1,0.05923
1895.96,0.06010
1872.81,0.06066
1849.67,0.06182
1826.52,0.06209
1803.38,0.06055
1780.23,0.05854
1757.09,0.05543
1733.94,0.05382
1710.8,0.05742
1687.65,0.06058
1664.51,0.06695
1641.36,0.07135
1618.22,0.07290
1595.07,0.07410
1571.93,0.07326
1548.78,0.07967
1525.64,0.07932
1502.49,0.07035
1479.35,0.06030
1456.2,0.06016
1433.06,0.06604
1409.91,0.08578
1386.77,0.08433
1363.62,0.07576
1340.48,0.06358
1317.33,0.06324
1294.19,0.06219
1271.04,0.05692
1247.9,0.06020
1224.75,0.06281
1201.61,0.06017
1178.46,0.06065
1155.32,0.06098
1132.17,0.05913
1109.03,0.05788
1085.88,0.05955
1062.74,0.05869
1039.59,0.05854
1016.45,0.05759
993.304,0.05694
970.159,0.05672
947.014,0.05979
923.869,0.05889
900.724,0.05799
877.579,0.05997
854.434,0.05920
831.289,0.05848
808.144,0.05767
784.999,0.05698
761.854,0.05600
738.709,0.05364
715.565,0.05171
692.42,0.05366
669.275,0.05450
646.13,0.05125
622.985,0.05494
599.84,0.06447