File: 01_Data/PVC/FTIR/IS/PVC_IS_S_220818_R1.dpt
7497.03,0.10613
7473.89,0.11130
7450.74,0.11195
7427.6,0.10213
7404.45,0.11279
7381.31,0.10844
7358.16,0.11180
7335.02,0.11540
7311.87,0.10950
7288.73,0.11358
7265.58,0.11245
7242.44,0.10470
7219.29,0.10944
7196.15,0.10154
7173,0.10586
7149.86,0.11061
7126.71,0.10358
7103.57,0.10306
7080.42,0.10587
7057.28,0.10311
7034.13,0.10465
7010.99,0.10185
6987.84,0.10308
6964.7,0.10498
6941.55,0.10279
6918.41,0.10144
6895.26,0.10613
6872.12,0.10488
6848.97,0.10670
6825.83,0.10441
6802.68,0.10355
6779.54,0.10325
6756.39,0.11061
6733.25,0.10258
6710.1,0.10334
6686.96,0.10347
6663.82,0.10031
6640.67,0.09825
6617.53,0.10079
6594.38,0.10097
6571.24,0.09909
6548.09,0.10064
6524.95,0.09849
6501.8,0.09995
6478.66,0.10240
6455.51,0.10065
6432.37,0.09612
6409.22,0.09918
6386.08,0.10082
6362.93,0.09868
6339.79,0.09789
6316.64,0.09712
6293.5,0.09915
6270.35,0.09849
6247.21,0.10012
6224.06,0.09692
6200.92,0.09811
6177.77,0.09753
6154.63,0.09596
6131.48,0.09568
6108.34,0.09621
6085.19,0.09524
6062.05,0.09574
6038.9,0.09662
6015.76,0.09492
5992.61,0.09223
5969.47,0.09386
5946.32,0.09321
5923.18,0.09034
5900.03,0.08661
5876.89,0.08194
5853.74,0.07809
5830.6,0.07429
5807.45,0.07568
5784.31,0.08065
5761.16,0.08105
5738.02,0.07929
5714.87,0.07951
5691.73,0.07989
5668.58,0.08152
5645.44,0.08428
5622.29,0.08284
5599.15,0.08143
5576,0.08210
5552.86,0.08433
5529.71,0.08361
5506.57,0.08455
5483.42,0.08474
5460.28,0.08422
5437.13,0.08242
5413.99,0.08314
5390.84,0.08300
5367.7,0.08454
5344.55,0.08469
5321.41,0.08278
5298.26,0.08443
5275.12,0.08438
5251.97,0.08242
5228.83,0.08349
5205.68,0.08367
5182.54,0.08396
5159.39,0.08352
5136.25,0.08213
5113.1,0.08202
5089.96,0.08216
5066.81,0.08240
5043.67,0.08186
5020.52,0.08191
4997.38,0.08267
4974.23,0.08320
4951.09,0.08075
4927.94,0.08191
4904.8,0.08103
4881.65,0.08024
4858.51,0.08085
4835.36,0.08052
4812.22,0.08105
4789.07,0.08054
4765.93,0.08054
4742.78,0.07989
4719.64,0.08052
4696.49,0.07947
4673.35,0.07929
4650.2,0.07890
4627.06,0.07967
4603.92,0.07974
4580.77,0.07901
4557.63,0.07801
4534.48,0.07779
4511.34,0.07621
4488.19,0.07555
4465.05,0.07400
4441.9,0.07145
4418.76,0.06873
4395.61,0.06653
4372.47,0.06318
4349.32,0.06101
4326.18,0.06004
4303.03,0.06146
4279.89,0.06212
4256.74,0.06255
4233.6,0.06120
4210.45,0.06135
4187.31,0.06204
4164.16,0.06209
4141.02,0.06297
4117.87,0.06283
4094.73,0.06365
4071.58,0.06297
4048.44,0.06333
4025.29,0.06379
4002.15,0.06359
3979,0.06468
3955.86,0.06462
3932.71,0.06441
3909.57,0.06470
3886.42,0.06409
3863.28,0.06404
3840.13,0.06387
3816.99,0.06434
3793.84,0.06458
3770.7,0.06528
3747.55,0.06490
3724.41,0.06485
3701.26,0.06384
3678.12,0.06239
3654.97,0.06179
3631.83,0.06225
3608.68,0.06163
3585.54,0.06079
3562.39,0.06027
3539.25,0.06048
3516.1,0.06024
3492.96,0.05970
3469.81,0.05946
3446.67,0.05836
3423.52,0.05870
3400.38,0.05858
3377.23,0.05905
3354.09,0.05913
3330.94,0.05885
3307.8,0.05838
3284.65,0.05881
3261.51,0.05893
3238.36,0.05896
3215.22,0.05921
3192.07,0.05801
3168.93,0.05822
3145.78,0.05833
3122.64,0.05795
3099.49,0.05837
3076.35,0.05755
3053.2,0.05671
3030.06,0.05598
3006.91,0.05572
2983.77,0.05445
2960.62,0.05466
2937.48,0.05466
2914.33,0.05746
2891.19,0.05728
2868.04,0.05619
2844.9,0.05714
2821.75,0.05717
2798.61,0.05712
2775.46,0.05743
2752.32,0.05749
2729.17,0.05683
2706.03,0.05716
2682.88,0.05720
2659.74,0.05696
2636.59,0.05667
2613.45,0.05660
2590.3,0.05673
2567.16,0.05631
2544.02,0.05625
2520.87,0.05612
2497.73,0.05675
2474.58,0.05664
2451.44,0.05664
2428.29,0.05652
2405.15,0.05637
2382,0.05634
2358.86,0.05645
2335.71,0.05664
2312.57,0.05645
2289.42,0.05675
2266.28,0.05647
2243.13,0.05627
2219.99,0.05658
2196.84,0.05684
2173.7,0.05709
2150.55,0.05690
2127.41,0.05709
2104.26,0.05731
2081.12,0.05729
2057.97,0.05746
2034.83,0.05713
2011.68,0.05754
1988.54,0.05796
1965.39,0.05851
1942.25,0.05876
1919.1,0.05955
1895.96,0.05996
1872.81,0.06103
1849.67,0.06201
1826.52,0.06218
1803.38,0.06094
1780.23,0.05848
1757.09,0.05567
1733.94,0.05397
1710.8,0.05730
1687.65,0.06026
1664.51,0.06701
1641.36,0.07126
1618.22,0.07325
1595.07,0.07369
1571.93,0.07321
1548.78,0.08001
1525.64,0.07948
1502.49,0.07033
1479.35,0.06067
1456.2,0.06023
1433.06,0.06603
1409.91,0.08618
1386.77,0.08442
1363.62,0.07567
1340.48,0.06394
1317.33,0.06335
1294.19,0.06196
1271.04,0.05660
1247.9,0.06028
1224.75,0.06344
1201.61,0.06051
1178.46,0.06090
1155.32,0.06062
1132.17,0.05984
1109.03,0.05820
1085.88,0.05890
1062.74,0.05890
1039.59,0.05817
1016.45,0.05796
993.304,0.05655
970.159,0.05680
947.014,0.06011
923.869,0.05943
900.724,0.05852
877.579,0.06020
854.434,0.05874
831.289,0.05950
808.144,0.05890
784.999,0.05731
761.854,0.05674
738.709,0.05402
715.565,0.05123
692.42,0.05317
669.275,0.05496
646.13,0.05200
622.985,0.05623
599.84,0.06392