File: 01_Data/PVC/FTIR/IS/PVC_IS_S_220818_R7.dpt
7497.03,0.10336
7473.89,0.11143
7450.74,0.11659
7427.6,0.09929
7404.45,0.11022
7381.31,0.10603
7358.16,0.10781
7335.02,0.11104
7311.87,0.10853
7288.73,0.11210
7265.58,0.10810
7242.44,0.10541
7219.29,0.10707
7196.15,0.11185
7173,0.10316
7149.86,0.10835
7126.71,0.10245
7103.57,0.10973
7080.42,0.10402
7057.28,0.10599
7034.13,0.10509
7010.99,0.10571
6987.84,0.10613
6964.7,0.10289
6941.55,0.10664
6918.41,0.10575
6895.26,0.10174
6872.12,0.10544
6848.97,0.10502
6825.83,0.10418
6802.68,0.10753
6779.54,0.10469
6756.39,0.10449
6733.25,0.10753
6710.1,0.10445
6686.96,0.10136
6663.82,0.10099
6640.67,0.10284
6617.53,0.10238
6594.38,0.10006
6571.24,0.10342
6548.09,0.10187
6524.95,0.09909
6501.8,0.10325
6478.66,0.10088
6455.51,0.09798
6432.37,0.10364
6409.22,0.09823
6386.08,0.09726
6362.93,0.09712
6339.79,0.10051
6316.64,0.09600
6293.5,0.09825
6270.35,0.09611
6247.21,0.09724
6224.06,0.09552
6200.92,0.09701
6177.77,0.09687
6154.63,0.09637
6131.48,0.09784
6108.34,0.09494
6085.19,0.09558
6062.05,0.09406
6038.9,0.09328
6015.76,0.09405
5992.61,0.09216
5969.47,0.09271
5946.32,0.08981
5923.18,0.09175
5900.03,0.08845
5876.89,0.08235
5853.74,0.07677
5830.6,0.07266
5807.45,0.07640
5784.31,0.08051
5761.16,0.08032
5738.02,0.07708
5714.87,0.07905
5691.73,0.08017
5668.58,0.08084
5645.44,0.08183
5622.29,0.08177
5599.15,0.08148
5576,0.08270
5552.86,0.08448
5529.71,0.08490
5506.57,0.08466
5483.42,0.08414
5460.28,0.08232
5437.13,0.08191
5413.99,0.08364
5390.84,0.08415
5367.7,0.08393
5344.55,0.08360
5321.41,0.08404
5298.26,0.08372
5275.12,0.08295
5251.97,0.08345
5228.83,0.08269
5205.68,0.08340
5182.54,0.08319
5159.39,0.08308
5136.25,0.08233
5113.1,0.08253
5089.96,0.08258
5066.81,0.08104
5043.67,0.08231
5020.52,0.08223
4997.38,0.08185
4974.23,0.08140
4951.09,0.08220
4927.94,0.08036
4904.8,0.08100
4881.65,0.08090
4858.51,0.08053
4835.36,0.07931
4812.22,0.07987
4789.07,0.08024
4765.93,0.08025
4742.78,0.07930
4719.64,0.07933
4696.49,0.07850
4673.35,0.07879
4650.2,0.07849
4627.06,0.07819
4603.92,0.07797
4580.77,0.07815
4557.63,0.07688
4534.48,0.07598
4511.34,0.07575
4488.19,0.07496
4465.05,0.07317
4441.9,0.07199
4418.76,0.06875
4395.61,0.06615
4372.47,0.06301
4349.32,0.06042
4326.18,0.05924
4303.03,0.06130
4279.89,0.06159
4256.74,0.06148
4233.6,0.06080
4210.45,0.06046
4187.31,0.06102
4164.16,0.06138
4141.02,0.06209
4117.87,0.06259
4094.73,0.06341
4071.58,0.06228
4048.44,0.06350
4025.29,0.06283
4002.15,0.06311
3979,0.06363
3955.86,0.06420
3932.71,0.06418
3909.57,0.06423
3886.42,0.06429
3863.28,0.06389
3840.13,0.06433
3816.99,0.06437
3793.84,0.06393
3770.7,0.06425
3747.55,0.06474
3724.41,0.06523
3701.26,0.06392
3678.12,0.06127
3654.97,0.06180
3631.83,0.06146
3608.68,0.06069
3585.54,0.06054
3562.39,0.06009
3539.25,0.05955
3516.1,0.05941
3492.96,0.05994
3469.81,0.05884
3446.67,0.05850
3423.52,0.05885
3400.38,0.05816
3377.23,0.05879
3354.09,0.05857
3330.94,0.05823
3307.8,0.05777
3284.65,0.05846
3261.51,0.05818
3238.36,0.05772
3215.22,0.05844
3192.07,0.05765
3168.93,0.05787
3145.78,0.05802
3122.64,0.05804
3099.49,0.05788
3076.35,0.05660
3053.2,0.05651
3030.06,0.05568
3006.91,0.05528
2983.77,0.05375
2960.62,0.05434
2937.48,0.05436
2914.33,0.05671
2891.19,0.05695
2868.04,0.05617
2844.9,0.05701
2821.75,0.05675
2798.61,0.05674
2775.46,0.05710
2752.32,0.05659
2729.17,0.05656
2706.03,0.05671
2682.88,0.05648
2659.74,0.05638
2636.59,0.05645
2613.45,0.05617
2590.3,0.05591
2567.16,0.05620
2544.02,0.05591
2520.87,0.05590
2497.73,0.05600
2474.58,0.05595
2451.44,0.05591
2428.29,0.05620
2405.15,0.05614
2382,0.05609
2358.86,0.05597
2335.71,0.05609
2312.57,0.05582
2289.42,0.05567
2266.28,0.05573
2243.13,0.05588
2219.99,0.05598
2196.84,0.05607
2173.7,0.05636
2150.55,0.05662
2127.41,0.05667
2104.26,0.05644
2081.12,0.05690
2057.97,0.05685
2034.83,0.05670
2011.68,0.05726
1988.54,0.05747
1965.39,0.05791
1942.25,0.05824
1919.1,0.05885
1895.96,0.05966
1872.81,0.06089
1849.67,0.06126
1826.52,0.06157
1803.38,0.06044
1780.23,0.05787
1757.09,0.05497
1733.94,0.05343
1710.8,0.05699
1687.65,0.06072
1664.51,0.06677
1641.36,0.07096
1618.22,0.07293
1595.07,0.07371
1571.93,0.07278
1548.78,0.07928
1525.64,0.07877
1502.49,0.06982
1479.35,0.06007
1456.2,0.05985
1433.06,0.06555
1409.91,0.08574
1386.77,0.08371
1363.62,0.07481
1340.48,0.06300
1317.33,0.06295
1294.19,0.06168
1271.04,0.05635
1247.9,0.06005
1224.75,0.06273
1201.61,0.06045
1178.46,0.05995
1155.32,0.06054
1132.17,0.05926
1109.03,0.05761
1085.88,0.05868
1062.74,0.05828
1039.59,0.05747
1016.45,0.05737
993.304,0.05632
970.159,0.05659
947.014,0.05893
923.869,0.05869
900.724,0.05792
877.579,0.06011
854.434,0.05830
831.289,0.05817
808.144,0.05839
784.999,0.05646
761.854,0.05579
738.709,0.05359
715.565,0.05009
692.42,0.05354
669.275,0.05364
646.13,0.05125
622.985,0.05570
599.84,0.06587