File: 01_Data/PVC/FTIR/IS/PVC_IS_T_220818_R8.dpt
7497.03,0.02334
7473.89,0.02949
7450.74,0.02551
7427.6,0.01928
7404.45,0.01760
7381.31,0.02276
7358.16,0.02126
7335.02,0.02452
7311.87,0.02654
7288.73,0.02647
7265.58,0.02315
7242.44,0.02716
7219.29,0.01711
7196.15,0.01831
7173,0.01981
7149.86,0.01783
7126.71,0.01871
7103.57,0.01622
7080.42,0.01975
7057.28,0.02214
7034.13,0.02434
7010.99,0.01628
6987.84,0.02277
6964.7,0.01870
6941.55,0.02240
6918.41,0.01494
6895.26,0.02148
6872.12,0.01882
6848.97,0.01826
6825.83,0.02676
6802.68,0.02220
6779.54,0.01643
6756.39,0.01944
6733.25,0.02252
6710.1,0.02200
6686.96,0.02105
6663.82,0.01818
6640.67,0.01628
6617.53,0.01871
6594.38,0.01878
6571.24,0.01837
6548.09,0.01880
6524.95,0.02297
6501.8,0.01844
6478.66,0.01679
6455.51,0.01582
6432.37,0.01845
6409.22,0.01629
6386.08,0.01838
6362.93,0.01962
6339.79,0.02234
6316.64,0.01912
6293.5,0.01974
6270.35,0.01682
6247.21,0.02045
6224.06,0.01955
6200.92,0.01945
6177.77,0.01674
6154.63,0.02029
6131.48,0.01855
6108.34,0.02071
6085.19,0.01859
6062.05,0.01727
6038.9,0.01852
6015.76,0.01998
5992.61,0.02097
5969.47,0.01723
5946.32,0.01778
5923.18,0.01806
5900.03,0.01860
5876.89,0.01890
5853.74,0.01965
5830.6,0.02006
5807.45,0.01973
5784.31,0.01921
5761.16,0.02039
5738.02,0.01736
5714.87,0.01833
5691.73,0.01980
5668.58,0.01978
5645.44,0.01866
5622.29,0.01652
5599.15,0.01913
5576,0.02091
5552.86,0.01874
5529.71,0.01795
5506.57,0.01777
5483.42,0.01967
5460.28,0.01894
5437.13,0.01822
5413.99,0.01957
5390.84,0.01937
5367.7,0.02014
5344.55,0.01914
5321.41,0.01893
5298.26,0.01967
5275.12,0.01860
5251.97,0.01927
5228.83,0.01844
5205.68,0.01918
5182.54,0.01857
5159.39,0.01905
5136.25,0.01960
5113.1,0.01883
5089.96,0.01852
5066.81,0.01871
5043.67,0.01996
5020.52,0.01906
4997.38,0.01854
4974.23,0.01736
4951.09,0.01803
4927.94,0.01897
4904.8,0.01930
4881.65,0.01945
4858.51,0.01961
4835.36,0.01926
4812.22,0.01948
4789.07,0.01925
4765.93,0.01886
4742.78,0.01956
4719.64,0.01875
4696.49,0.01992
4673.35,0.01850
4650.2,0.01953
4627.06,0.01875
4603.92,0.01981
4580.77,0.01924
4557.63,0.01928
4534.48,0.01876
4511.34,0.01966
4488.19,0.01961
4465.05,0.01946
4441.9,0.01976
4418.76,0.01923
4395.61,0.01919
4372.47,0.01973
4349.32,0.01910
4326.18,0.01952
4303.03,0.01952
4279.89,0.01973
4256.74,0.01889
4233.6,0.01967
4210.45,0.01961
4187.31,0.01953
4164.16,0.01912
4141.02,0.01965
4117.87,0.01927
4094.73,0.01971
4071.58,0.01927
4048.44,0.01962
4025.29,0.01988
4002.15,0.01942
3979,0.01967
3955.86,0.01918
3932.71,0.02005
3909.57,0.01958
3886.42,0.01952
3863.28,0.01945
3840.13,0.01928
3816.99,0.01976
3793.84,0.01971
3770.7,0.01982
3747.55,0.02015
3724.41,0.01962
3701.26,0.01972
3678.12,0.01933
3654.97,0.01928
3631.83,0.01888
3608.68,0.01849
3585.54,0.01906
3562.39,0.01876
3539.25,0.01869
3516.1,0.01818
3492.96,0.01827
3469.81,0.01793
3446.67,0.01721
3423.52,0.01742
3400.38,0.01803
3377.23,0.01744
3354.09,0.01754
3330.94,0.01728
3307.8,0.01702
3284.65,0.01745
3261.51,0.01740
3238.36,0.01734
3215.22,0.01789
3192.07,0.01767
3168.93,0.01742
3145.78,0.01789
3122.64,0.01868
3099.49,0.01862
3076.35,0.01704
3053.2,0.01735
3030.06,0.01734
3006.91,0.01732
2983.77,0.01670
2960.62,0.01706
2937.48,0.01678
2914.33,0.01706
2891.19,0.01744
2868.04,0.01742
2844.9,0.01807
2821.75,0.01859
2798.61,0.01818
2775.46,0.01864
2752.32,0.01812
2729.17,0.01829
2706.03,0.01821
2682.88,0.01795
2659.74,0.01833
2636.59,0.01810
2613.45,0.01859
2590.3,0.01828
2567.16,0.01789
2544.02,0.01817
2520.87,0.01821
2497.73,0.01814
2474.58,0.01811
2451.44,0.01820
2428.29,0.01824
2405.15,0.01825
2382,0.01804
2358.86,0.01835
2335.71,0.01828
2312.57,0.01801
2289.42,0.01819
2266.28,0.01837
2243.13,0.01807
2219.99,0.01845
2196.84,0.01815
2173.7,0.01810
2150.55,0.01828
2127.41,0.01792
2104.26,0.01807
2081.12,0.01810
2057.97,0.01800
2034.83,0.01802
2011.68,0.01753
1988.54,0.01756
1965.39,0.01780
1942.25,0.01795
1919.1,0.01782
1895.96,0.01773
1872.81,0.01763
1849.67,0.01743
1826.52,0.01726
1803.38,0.01640
1780.23,0.01581
1757.09,0.01479
1733.94,0.01680
1710.8,0.01790
1687.65,0.01636
1664.51,0.01584
1641.36,0.01583
1618.22,0.01624
1595.07,0.01618
1571.93,0.01533
1548.78,0.01538
1525.64,0.01548
1502.49,0.01570
1479.35,0.01562
1456.2,0.01580
1433.06,0.01605
1409.91,0.01544
1386.77,0.01513
1363.62,0.01577
1340.48,0.01474
1317.33,0.01451
1294.19,0.01519
1271.04,0.01631
1247.9,0.01789
1224.75,0.01650
1201.61,0.01542
1178.46,0.01580
1155.32,0.01519
1132.17,0.01560
1109.03,0.01590
1085.88,0.01540
1062.74,0.01726
1039.59,0.01634
1016.45,0.01639
993.304,0.01806
970.159,0.01715
947.014,0.01734
923.869,0.01672
900.724,0.01653
877.579,0.01603
854.434,0.01619
831.289,0.01587
808.144,0.01586
784.999,0.01530
761.854,0.01503
738.709,0.01554
715.565,0.01484
692.42,0.01445
669.275,0.01430
646.13,0.01217
622.985,0.01272
599.84,0.01256