File: 01_Data/PVC/FTIR/IS/PVC_IS_T_220818_R7.dpt
7497.03,0.02924
7473.89,0.02355
7450.74,0.02189
7427.6,0.02301
7404.45,0.02469
7381.31,0.02242
7358.16,0.02154
7335.02,0.02314
7311.87,0.02318
7288.73,0.02037
7265.58,0.02365
7242.44,0.02242
7219.29,0.02594
7196.15,0.02236
7173,0.02147
7149.86,0.02291
7126.71,0.02225
7103.57,0.02658
7080.42,0.02557
7057.28,0.01512
7034.13,0.01643
7010.99,0.02120
6987.84,0.02595
6964.7,0.02122
6941.55,0.02126
6918.41,0.01907
6895.26,0.02284
6872.12,0.01670
6848.97,0.01853
6825.83,0.01489
6802.68,0.02575
6779.54,0.02337
6756.39,0.01729
6733.25,0.01972
6710.1,0.02159
6686.96,0.01662
6663.82,0.02306
6640.67,0.01900
6617.53,0.02055
6594.38,0.01905
6571.24,0.01981
6548.09,0.01809
6524.95,0.01948
6501.8,0.01703
6478.66,0.02112
6455.51,0.01743
6432.37,0.01765
6409.22,0.01836
6386.08,0.01801
6362.93,0.01727
6339.79,0.01951
6316.64,0.02061
6293.5,0.01867
6270.35,0.01851
6247.21,0.02034
6224.06,0.01496
6200.92,0.01957
6177.77,0.01818
6154.63,0.02170
6131.48,0.01969
6108.34,0.02043
6085.19,0.01993
6062.05,0.01914
6038.9,0.01702
6015.76,0.01961
5992.61,0.01936
5969.47,0.01868
5946.32,0.01767
5923.18,0.02037
5900.03,0.01952
5876.89,0.02009
5853.74,0.01990
5830.6,0.02023
5807.45,0.01981
5784.31,0.01764
5761.16,0.01832
5738.02,0.01902
5714.87,0.01797
5691.73,0.01730
5668.58,0.01940
5645.44,0.01778
5622.29,0.01965
5599.15,0.01827
5576,0.02033
5552.86,0.02041
5529.71,0.01854
5506.57,0.01917
5483.42,0.01970
5460.28,0.02026
5437.13,0.01810
5413.99,0.01832
5390.84,0.01966
5367.7,0.01997
5344.55,0.01817
5321.41,0.01946
5298.26,0.02038
5275.12,0.01908
5251.97,0.02017
5228.83,0.02030
5205.68,0.02001
5182.54,0.01950
5159.39,0.01902
5136.25,0.02025
5113.1,0.01969
5089.96,0.01959
5066.81,0.01989
5043.67,0.01900
5020.52,0.01950
4997.38,0.01843
4974.23,0.01901
4951.09,0.01915
4927.94,0.01973
4904.8,0.01871
4881.65,0.01861
4858.51,0.02075
4835.36,0.01959
4812.22,0.01955
4789.07,0.01930
4765.93,0.01979
4742.78,0.01969
4719.64,0.01903
4696.49,0.01952
4673.35,0.01961
4650.2,0.01960
4627.06,0.02012
4603.92,0.02009
4580.77,0.02010
4557.63,0.01888
4534.48,0.01958
4511.34,0.01978
4488.19,0.01943
4465.05,0.01990
4441.9,0.01959
4418.76,0.01947
4395.61,0.01922
4372.47,0.01998
4349.32,0.01997
4326.18,0.01966
4303.03,0.01948
4279.89,0.02007
4256.74,0.01985
4233.6,0.01984
4210.45,0.02080
4187.31,0.01996
4164.16,0.01988
4141.02,0.01984
4117.87,0.01932
4094.73,0.02046
4071.58,0.01973
4048.44,0.01963
4025.29,0.01997
4002.15,0.02009
3979,0.01919
3955.86,0.01979
3932.71,0.02053
3909.57,0.01951
3886.42,0.02009
3863.28,0.02002
3840.13,0.02053
3816.99,0.01991
3793.84,0.01932
3770.7,0.02039
3747.55,0.01994
3724.41,0.01967
3701.26,0.01998
3678.12,0.01992
3654.97,0.02008
3631.83,0.01916
3608.68,0.01891
3585.54,0.01836
3562.39,0.01874
3539.25,0.01844
3516.1,0.01872
3492.96,0.01854
3469.81,0.01873
3446.67,0.01795
3423.52,0.01719
3400.38,0.01707
3377.23,0.01739
3354.09,0.01766
3330.94,0.01724
3307.8,0.01708
3284.65,0.01824
3261.51,0.01821
3238.36,0.01811
3215.22,0.01844
3192.07,0.01831
3168.93,0.01821
3145.78,0.01801
3122.64,0.01803
3099.49,0.01828
3076.35,0.01784
3053.2,0.01768
3030.06,0.01802
3006.91,0.01743
2983.77,0.01725
2960.62,0.01639
2937.48,0.01709
2914.33,0.01745
2891.19,0.01794
2868.04,0.01793
2844.9,0.01840
2821.75,0.01861
2798.61,0.01866
2775.46,0.01872
2752.32,0.01804
2729.17,0.01857
2706.03,0.01857
2682.88,0.01902
2659.74,0.01894
2636.59,0.01856
2613.45,0.01845
2590.3,0.01840
2567.16,0.01841
2544.02,0.01833
2520.87,0.01835
2497.73,0.01879
2474.58,0.01854
2451.44,0.01840
2428.29,0.01843
2405.15,0.01825
2382,0.01828
2358.86,0.01820
2335.71,0.01867
2312.57,0.01839
2289.42,0.01836
2266.28,0.01883
2243.13,0.01848
2219.99,0.01836
2196.84,0.01834
2173.7,0.01864
2150.55,0.01821
2127.41,0.01850
2104.26,0.01846
2081.12,0.01805
2057.97,0.01824
2034.83,0.01867
2011.68,0.01797
1988.54,0.01805
1965.39,0.01809
1942.25,0.01821
1919.1,0.01803
1895.96,0.01810
1872.81,0.01801
1849.67,0.01748
1826.52,0.01753
1803.38,0.01688
1780.23,0.01646
1757.09,0.01508
1733.94,0.01732
1710.8,0.01831
1687.65,0.01642
1664.51,0.01584
1641.36,0.01579
1618.22,0.01669
1595.07,0.01628
1571.93,0.01645
1548.78,0.01557
1525.64,0.01593
1502.49,0.01620
1479.35,0.01590
1456.2,0.01573
1433.06,0.01618
1409.91,0.01573
1386.77,0.01548
1363.62,0.01550
1340.48,0.01535
1317.33,0.01416
1294.19,0.01530
1271.04,0.01630
1247.9,0.01759
1224.75,0.01663
1201.61,0.01584
1178.46,0.01564
1155.32,0.01497
1132.17,0.01529
1109.03,0.01607
1085.88,0.01580
1062.74,0.01679
1039.59,0.01702
1016.45,0.01674
993.304,0.01851
970.159,0.01762
947.014,0.01721
923.869,0.01631
900.724,0.01669
877.579,0.01646
854.434,0.01632
831.289,0.01577
808.144,0.01573
784.999,0.01638
761.854,0.01538
738.709,0.01472
715.565,0.01588
692.42,0.01549
669.275,0.01461
646.13,0.01252
622.985,0.01490
599.84,0.01153