File: 01_Data/Vinyl_Plank_Flooring/Cone/Vinyl_Plank_Flooring_HRRPUA_25.csv
Time after Ignition,Vinyl_Plank_Flooring_R1,Vinyl_Plank_Flooring_R2,Vinyl_Plank_Flooring_R3,Mean,Std. Dev.
0.0,18.5,14.7,5.8,13.0,6.5
0.5,25.4,23.1,8.3,18.9,9.3
1.0,35.9,34.7,14.7,28.4,11.9
1.5,50.1,63.3,20.1,44.5,22.1
2.0,61.1,86.4,26.3,57.9,30.1
2.5,86.6,116.8,35.5,79.6,41.1
3.0,105.6,149.5,50.8,101.9,49.5
3.5,132.8,177.2,69.7,126.6,54.0
4.0,157.8,202.8,93.8,151.5,54.8
4.5,171.1,235.5,117.2,174.6,59.3
5.0,194.5,254.0,138.6,195.7,57.7
5.5,218.6,266.5,168.2,217.7,49.1
6.0,231.8,284.5,197.2,237.8,43.9
6.5,247.5,294.9,218.5,253.6,38.6
7.0,256.6,304.0,238.9,266.5,33.7
7.5,267.6,302.6,250.1,273.4,26.7
8.0,267.9,307.1,263.8,279.6,23.9
8.5,275.9,303.3,275.7,285.0,15.9
9.0,272.2,294.3,284.4,283.6,11.1
9.5,271.0,287.5,287.9,282.1,9.6
10.0,267.0,285.4,284.6,279.0,10.4
10.5,265.9,286.8,279.1,277.3,10.6
11.0,270.3,277.2,271.8,273.1,3.6
11.5,264.0,278.7,278.4,273.7,8.4
12.0,266.3,270.9,266.4,267.9,2.7
12.5,262.2,268.4,268.6,266.4,3.7
13.0,264.3,269.7,260.5,264.8,4.6
13.5,260.7,271.0,258.5,263.4,6.7
14.0,262.3,272.5,260.4,265.0,6.5
14.5,265.2,271.9,261.4,266.2,5.3
15.0,268.2,274.7,260.3,267.8,7.2
15.5,270.0,284.5,257.3,270.6,13.6
16.0,270.7,287.5,263.9,274.0,12.1
16.5,274.7,290.8,263.5,276.4,13.7
17.0,278.3,299.1,262.1,279.8,18.6
17.5,274.9,301.7,261.8,279.5,20.4
18.0,282.2,304.9,272.3,286.5,16.7
18.5,276.0,311.4,268.5,285.3,22.9
19.0,278.6,316.2,268.6,287.8,25.1
19.5,278.2,312.7,278.5,289.8,19.9
20.0,282.2,311.5,275.8,289.9,19.0
20.5,282.6,324.8,276.9,294.8,26.2
21.0,274.6,318.9,282.2,291.9,23.7
21.5,279.6,322.3,273.6,291.8,26.5
22.0,279.3,330.1,282.5,297.3,28.4
22.5,272.4,325.9,281.1,293.1,28.7
23.0,276.6,338.1,285.0,299.9,33.4
23.5,279.2,337.5,277.5,298.1,34.1
24.0,281.9,332.8,285.8,300.2,28.3
24.5,268.9,338.4,292.6,299.9,35.3
25.0,271.0,339.5,290.7,300.4,35.3
25.5,269.9,332.0,298.2,300.1,31.1
26.0,267.4,338.9,295.6,300.6,36.0
26.5,264.5,329.3,296.2,296.7,32.4
27.0,261.1,327.7,297.9,295.5,33.4
27.5,262.3,328.9,296.6,295.9,33.3
28.0,261.7,320.7,303.4,295.3,30.3
28.5,257.9,330.4,303.8,297.4,36.7
29.0,256.2,324.8,297.6,292.9,34.6
29.5,254.4,319.4,300.4,291.4,33.4
30.0,251.9,324.3,301.7,292.6,37.1
30.5,249.0,309.6,305.7,288.1,33.9
31.0,250.4,302.3,300.3,284.3,29.4
31.5,252.3,291.8,294.6,279.5,23.6
32.0,258.8,300.9,293.9,284.5,22.6
32.5,249.3,300.8,296.6,282.2,28.6
33.0,254.3,297.3,288.1,279.9,22.6
33.5,249.2,289.8,288.5,275.8,23.0
34.0,248.3,285.9,284.8,273.0,21.4
34.5,244.9,290.5,281.6,272.4,24.1
35.0,241.0,289.0,279.3,269.8,25.4
35.5,245.7,282.3,275.1,267.7,19.4
36.0,237.1,281.6,274.7,264.4,23.9
36.5,233.4,288.3,269.4,263.7,27.9
37.0,238.1,289.3,271.0,266.1,25.9
37.5,231.2,283.8,267.2,260.8,26.9
38.0,227.4,284.3,263.4,258.4,28.8
38.5,231.0,284.7,264.2,260.0,27.1
39.0,233.1,288.1,262.2,261.1,27.5
39.5,226.3,274.3,262.2,254.2,25.0
40.0,223.7,284.1,272.2,260.0,32.0
40.5,226.7,278.7,272.0,259.1,28.3
41.0,221.7,282.3,271.3,258.5,32.3
41.5,223.4,277.8,265.8,255.7,28.6
42.0,220.6,276.0,265.6,254.1,29.5
42.5,220.8,277.6,273.6,257.3,31.7
43.0,221.6,272.9,270.0,254.8,28.8
43.5,225.9,270.7,270.3,255.6,25.8
44.0,223.4,266.3,266.5,252.1,24.8
44.5,220.6,258.4,267.4,248.8,24.9
45.0,224.7,262.5,268.3,251.8,23.7
45.5,222.3,257.3,263.1,247.6,22.1
46.0,225.0,254.8,263.6,247.8,20.2
46.5,224.3,255.8,259.1,246.4,19.2
47.0,220.4,252.1,255.2,242.6,19.2
47.5,217.5,251.2,254.7,241.1,20.5
48.0,218.4,242.1,252.1,237.5,17.3
48.5,223.1,237.1,248.0,236.1,12.5
49.0,218.1,232.5,242.8,231.1,12.4
49.5,215.6,228.4,241.1,228.4,12.7
50.0,218.7,218.6,237.3,224.9,10.8
50.5,213.2,211.7,229.2,218.1,9.7
51.0,212.3,211.8,231.0,218.4,10.9
51.5,212.3,199.2,225.3,212.3,13.0
52.0,204.8,196.7,216.9,206.1,10.2
52.5,204.2,190.8,218.0,204.3,13.6
53.0,204.5,183.5,218.0,202.0,17.4
53.5,200.3,180.1,213.5,197.9,16.8
54.0,198.6,175.2,204.9,192.9,15.6
54.5,198.0,168.0,203.3,189.8,19.1
55.0,193.0,163.1,198.4,184.8,19.0
55.5,189.1,161.9,195.4,182.1,17.8
56.0,188.6,158.0,192.0,179.5,18.8
56.5,182.1,149.7,187.8,173.2,20.5
57.0,179.3,146.9,181.6,169.3,19.4
57.5,174.9,142.7,180.4,166.0,20.4
58.0,172.9,138.2,172.9,161.3,20.1
58.5,168.4,134.6,167.9,156.9,19.3
59.0,162.1,132.6,161.7,152.1,16.9
59.5,161.7,129.7,154.6,148.6,16.8
60.0,157.2,128.2,148.4,144.6,14.9
60.5,154.7,125.6,144.5,141.6,14.7
61.0,151.1,125.1,140.3,138.9,13.1
61.5,144.9,120.9,137.9,134.6,12.4
62.0,143.3,119.2,135.5,132.7,12.3
62.5,140.8,119.0,133.9,131.2,11.1
63.0,138.4,114.4,129.6,127.5,12.2
63.5,132.6,112.6,128.3,124.5,10.6
64.0,133.8,110.4,128.3,124.2,12.2
64.5,132.5,106.6,123.4,120.8,13.2
65.0,134.2,102.7,120.7,119.2,15.8
65.5,129.3,99.2,118.7,115.7,15.3
66.0,128.3,97.6,116.8,114.2,15.5
66.5,126.8,93.1,115.7,111.9,17.2
67.0,126.6,88.5,109.3,108.1,19.1
67.5,125.9,86.6,108.6,107.0,19.7
68.0,124.3,84.6,105.7,104.9,19.8
68.5,121.0,81.2,105.0,102.4,20.0
69.0,118.9,78.2,101.1,99.4,20.4
69.5,120.4,76.0,101.8,99.4,22.3
70.0,118.5,71.6,97.3,95.8,23.5
70.5,115.7,70.2,95.9,93.9,22.8
71.0,112.8,68.0,92.0,90.9,22.4
71.5,113.1,66.5,91.7,90.4,23.3
72.0,109.4,63.2,87.3,86.7,23.1
72.5,107.0,61.9,83.8,84.2,22.5
73.0,105.5,58.4,82.4,82.1,23.6
73.5,102.7,57.2,78.6,79.5,22.8
74.0,103.6,55.6,77.3,78.8,24.1
74.5,100.4,53.9,73.6,76.0,23.3
75.0,99.5,51.1,73.2,74.6,24.2
75.5,98.4,48.9,70.8,72.7,24.8
76.0,96.3,45.8,68.2,70.1,25.3
76.5,97.3,43.7,66.0,69.0,27.0
77.0,94.5,41.2,64.1,66.6,26.7
77.5,94.2,38.6,62.8,65.2,27.9
78.0,93.3,,61.0,77.2,22.8
78.5,89.9,,58.6,74.2,22.1
79.0,86.2,,56.6,71.4,20.9
79.5,84.1,,54.3,69.2,21.1
80.0,81.5,,52.4,66.9,20.6
80.5,78.8,,50.4,64.6,20.1
81.0,77.2,,48.3,62.7,20.4
81.5,71.9,,46.4,59.1,18.0
82.0,70.8,,44.1,57.4,18.8
82.5,68.4,,43.2,55.8,17.8
83.0,66.7,,41.0,53.9,18.2
83.5,64.8,,40.2,52.5,17.4
84.0,63.1,,38.7,50.9,17.2
84.5,60.4,,37.5,48.9,16.2
85.0,58.7,,35.5,47.1,16.4
85.5,57.8,,34.1,46.0,16.7
86.0,54.9,,33.3,44.1,15.2
86.5,52.6,,31.8,42.2,14.7
87.0,50.4,,,50.4,
87.5,48.9,,,48.9,
88.0,47.0,,,47.0,
88.5,45.0,,,45.0,
89.0,44.6,,,44.6,
89.5,42.2,,,42.2,
90.0,41.5,,,41.5,
90.5,39.7,,,39.7,
91.0,37.9,,,37.9,
91.5,36.5,,,36.5,
92.0,34.9,,,34.9,
92.5,33.2,,,33.2,
93.0,32.0,,,32.0,
93.5,30.6,,,30.6,
94.0,29.1,,,29.1,
94.5,28.1,,,28.1,
95.0,26.7,,,26.7,
95.5,26.1,,,26.1,
96.0,25.6,,,25.6,
96.5,24.3,,,24.3,
97.0,24.3,,,24.3,
97.5,23.5,,,23.5,
98.0,23.1,,,23.1,
98.5,22.8,,,22.8,
99.0,22.6,,,22.6,
99.5,22.2,,,22.2,
100.0,22.6,,,22.6,
100.5,21.9,,,21.9,
101.0,20.8,,,20.8,
101.5,20.2,,,20.2,
102.0,19.5,,,19.5,
102.5,19.2,,,19.2,
103.0,19.0,,,19.0,
103.5,18.2,,,18.2,
104.0,18.2,,,18.2,
104.5,17.9,,,17.9,
105.0,17.9,,,17.9,
105.5,17.1,,,17.1,
106.0,16.8,,,16.8,
106.5,16.1,,,16.1,
106.75,15.8,,,15.8,