File: 01_Data/Pine_Lap_Siding/FTIR/IS/Pine_Lap_Siding_IS_S_220916_R7.dpt
7497.03,0.82482
7473.89,0.83093
7450.74,0.82178
7427.6,0.81557
7404.45,0.80959
7381.31,0.80069
7358.16,0.80707
7335.02,0.80150
7311.87,0.80181
7288.73,0.79001
7265.58,0.79191
7242.44,0.78695
7219.29,0.78975
7196.15,0.77714
7173,0.76527
7149.86,0.76927
7126.71,0.75802
7103.57,0.75759
7080.42,0.74410
7057.28,0.73391
7034.13,0.74378
7010.99,0.73491
6987.84,0.73339
6964.7,0.73403
6941.55,0.72586
6918.41,0.73279
6895.26,0.73385
6872.12,0.73202
6848.97,0.73019
6825.83,0.73168
6802.68,0.73444
6779.54,0.73268
6756.39,0.72704
6733.25,0.73038
6710.1,0.73004
6686.96,0.73244
6663.82,0.72812
6640.67,0.73639
6617.53,0.73768
6594.38,0.74126
6571.24,0.73522
6548.09,0.73893
6524.95,0.73748
6501.8,0.73827
6478.66,0.74166
6455.51,0.73648
6432.37,0.73851
6409.22,0.73880
6386.08,0.74050
6362.93,0.74009
6339.79,0.74295
6316.64,0.74402
6293.5,0.74272
6270.35,0.74183
6247.21,0.74966
6224.06,0.74882
6200.92,0.75188
6177.77,0.75423
6154.63,0.75679
6131.48,0.75833
6108.34,0.75903
6085.19,0.75842
6062.05,0.75743
6038.9,0.75547
6015.76,0.75137
5992.61,0.74299
5969.47,0.73582
5946.32,0.73658
5923.18,0.73542
5900.03,0.73548
5876.89,0.73105
5853.74,0.73349
5830.6,0.73346
5807.45,0.73045
5784.31,0.73040
5761.16,0.73208
5738.02,0.73416
5714.87,0.73293
5691.73,0.73097
5668.58,0.73196
5645.44,0.73187
5622.29,0.73165
5599.15,0.73239
5576,0.73095
5552.86,0.73378
5529.71,0.73340
5506.57,0.73647
5483.42,0.73419
5460.28,0.73678
5437.13,0.73833
5413.99,0.73984
5390.84,0.74240
5367.7,0.74206
5344.55,0.73869
5321.41,0.73328
5298.26,0.71957
5275.12,0.70004
5251.97,0.67735
5228.83,0.66137
5205.68,0.65547
5182.54,0.65341
5159.39,0.65595
5136.25,0.65844
5113.1,0.66792
5089.96,0.67021
5066.81,0.67566
5043.67,0.68021
5020.52,0.68188
4997.38,0.68416
4974.23,0.68142
4951.09,0.67594
4927.94,0.66540
4904.8,0.65646
4881.65,0.64564
4858.51,0.63558
4835.36,0.62850
4812.22,0.62082
4789.07,0.61651
4765.93,0.61401
4742.78,0.61205
4719.64,0.61182
4696.49,0.61024
4673.35,0.60278
4650.2,0.60400
4627.06,0.59916
4603.92,0.60258
4580.77,0.60938
4557.63,0.60946
4534.48,0.60051
4511.34,0.61744
4488.19,0.61831
4465.05,0.60344
4441.9,0.58160
4418.76,0.55979
4395.61,0.54572
4372.47,0.54043
4349.32,0.53257
4326.18,0.52854
4303.03,0.52405
4279.89,0.51643
4256.74,0.51461
4233.6,0.52178
4210.45,0.52217
4187.31,0.52289
4164.16,0.52901
4141.02,0.52493
4117.87,0.51258
4094.73,0.49522
4071.58,0.47506
4048.44,0.45981
4025.29,0.45334
4002.15,0.45366
3979,0.45527
3955.86,0.45586
3932.71,0.45952
3909.57,0.47224
3886.42,0.47630
3863.28,0.47870
3840.13,0.48068
3816.99,0.47921
3793.84,0.47089
3770.7,0.45563
3747.55,0.42179
3724.41,0.33298
3701.26,0.12883
3678.12,0.11772
3654.97,0.10216
3631.83,0.11244
3608.68,0.12086
3585.54,0.12397
3562.39,0.12072
3539.25,0.11934
3516.1,0.11525
3492.96,0.11163
3469.81,0.10689
3446.67,0.10237
3423.52,0.10137
3400.38,0.10238
3377.23,0.10423
3354.09,0.10808
3330.94,0.11083
3307.8,0.11397
3284.65,0.11827
3261.51,0.12405
3238.36,0.12995
3215.22,0.13479
3192.07,0.14114
3168.93,0.14834
3145.78,0.15547
3122.64,0.16253
3099.49,0.16469
3076.35,0.16354
3053.2,0.16413
3030.06,0.14184
3006.91,0.15776
2983.77,0.11322
2960.62,0.07974
2937.48,0.08094
2914.33,0.08950
2891.19,0.10398
2868.04,0.09254
2844.9,0.12494
2821.75,0.18562
2798.61,0.20928
2775.46,0.22494
2752.32,0.23168
2729.17,0.23389
2706.03,0.24196
2682.88,0.24898
2659.74,0.25207
2636.59,0.24346
2613.45,0.20963
2590.3,0.18594
2567.16,0.17962
2544.02,0.16199
2520.87,0.10053
2497.73,0.13818
2474.58,0.23749
2451.44,0.27711
2428.29,0.29190
2405.15,0.30194
2382,0.30875
2358.86,0.31230
2335.71,0.31124
2312.57,0.31174
2289.42,0.31129
2266.28,0.30612
2243.13,0.29760
2219.99,0.28865
2196.84,0.28572
2173.7,0.27194
2150.55,0.25273
2127.41,0.25057
2104.26,0.26236
2081.12,0.26174
2057.97,0.25358
2034.83,0.24649
2011.68,0.24329
1988.54,0.23796
1965.39,0.23193
1942.25,0.22952
1919.1,0.23508
1895.96,0.21462
1872.81,0.19791
1849.67,0.20336
1826.52,0.17425
1803.38,0.08979
1780.23,0.11850
1757.09,0.08055
1733.94,0.03677
1710.8,0.07061
1687.65,0.07434
1664.51,0.06530
1641.36,0.06290
1618.22,0.05769
1595.07,0.05841
1571.93,0.08020
1548.78,0.10369
1525.64,0.09857
1502.49,0.09280
1479.35,0.09351
1456.2,0.09537
1433.06,0.10003
1409.91,0.10616
1386.77,0.09194
1363.62,0.10041
1340.48,0.11571
1317.33,0.11988
1294.19,0.12733
1271.04,0.11078
1247.9,0.09885
1224.75,0.10217
1201.61,0.09517
1178.46,0.08021
1155.32,0.07518
1132.17,0.08498
1109.03,0.07388
1085.88,0.08273
1062.74,0.08008
1039.59,0.07804
1016.45,0.07502
993.304,0.07160
970.159,0.06624
947.014,0.06158
923.869,0.05803
900.724,0.06206
877.579,0.06686
854.434,0.06052
831.289,0.05235
808.144,0.04456
784.999,0.04355
761.854,0.04130
738.709,0.03839
715.565,0.03866
692.42,0.04480
669.275,0.04509
646.13,0.04660
622.985,0.04495
599.84,0.04305