File: 01_Data/Pine_Lap_Siding/FTIR/IS/Pine_Lap_Siding_IS_S_220916_R5.dpt
7497.03,0.83336
7473.89,0.83013
7450.74,0.83008
7427.6,0.80853
7404.45,0.82312
7381.31,0.80815
7358.16,0.81069
7335.02,0.79707
7311.87,0.80972
7288.73,0.78893
7265.58,0.79589
7242.44,0.79266
7219.29,0.78501
7196.15,0.77354
7173,0.76454
7149.86,0.75426
7126.71,0.76065
7103.57,0.75338
7080.42,0.73576
7057.28,0.73392
7034.13,0.73771
7010.99,0.73845
6987.84,0.73401
6964.7,0.73210
6941.55,0.73604
6918.41,0.73176
6895.26,0.73026
6872.12,0.73179
6848.97,0.73133
6825.83,0.72510
6802.68,0.72982
6779.54,0.72474
6756.39,0.72220
6733.25,0.72681
6710.1,0.73158
6686.96,0.72979
6663.82,0.73593
6640.67,0.73100
6617.53,0.73435
6594.38,0.73467
6571.24,0.73508
6548.09,0.73933
6524.95,0.73595
6501.8,0.73983
6478.66,0.73846
6455.51,0.73935
6432.37,0.74402
6409.22,0.74164
6386.08,0.73844
6362.93,0.73852
6339.79,0.74273
6316.64,0.73980
6293.5,0.74187
6270.35,0.74350
6247.21,0.74367
6224.06,0.75071
6200.92,0.75460
6177.77,0.75152
6154.63,0.75510
6131.48,0.75808
6108.34,0.75676
6085.19,0.75863
6062.05,0.76054
6038.9,0.75239
6015.76,0.74694
5992.61,0.74431
5969.47,0.73960
5946.32,0.73479
5923.18,0.73730
5900.03,0.73260
5876.89,0.73217
5853.74,0.73519
5830.6,0.73171
5807.45,0.72981
5784.31,0.73580
5761.16,0.73342
5738.02,0.73199
5714.87,0.73330
5691.73,0.73199
5668.58,0.73184
5645.44,0.73309
5622.29,0.73336
5599.15,0.73287
5576,0.73240
5552.86,0.73376
5529.71,0.73567
5506.57,0.73604
5483.42,0.73523
5460.28,0.73469
5437.13,0.73843
5413.99,0.74009
5390.84,0.74207
5367.7,0.74008
5344.55,0.73911
5321.41,0.73126
5298.26,0.71934
5275.12,0.69910
5251.97,0.67650
5228.83,0.65954
5205.68,0.65132
5182.54,0.65166
5159.39,0.65334
5136.25,0.65877
5113.1,0.66532
5089.96,0.66898
5066.81,0.67461
5043.67,0.67801
5020.52,0.68200
4997.38,0.68310
4974.23,0.68277
4951.09,0.67627
4927.94,0.66635
4904.8,0.65664
4881.65,0.64689
4858.51,0.63686
4835.36,0.62843
4812.22,0.62245
4789.07,0.61752
4765.93,0.61480
4742.78,0.61402
4719.64,0.61259
4696.49,0.61029
4673.35,0.60475
4650.2,0.60546
4627.06,0.59921
4603.92,0.60392
4580.77,0.61046
4557.63,0.61012
4534.48,0.60137
4511.34,0.61719
4488.19,0.61967
4465.05,0.60462
4441.9,0.58237
4418.76,0.56058
4395.61,0.54698
4372.47,0.54120
4349.32,0.53332
4326.18,0.52980
4303.03,0.52510
4279.89,0.51729
4256.74,0.51490
4233.6,0.52232
4210.45,0.52384
4187.31,0.52412
4164.16,0.52938
4141.02,0.52580
4117.87,0.51293
4094.73,0.49493
4071.58,0.47610
4048.44,0.46074
4025.29,0.45366
4002.15,0.45504
3979,0.45605
3955.86,0.45624
3932.71,0.45969
3909.57,0.47212
3886.42,0.47664
3863.28,0.47932
3840.13,0.48104
3816.99,0.47901
3793.84,0.47140
3770.7,0.45504
3747.55,0.42172
3724.41,0.33331
3701.26,0.12886
3678.12,0.11725
3654.97,0.10262
3631.83,0.11316
3608.68,0.12032
3585.54,0.12394
3562.39,0.12103
3539.25,0.11941
3516.1,0.11535
3492.96,0.11195
3469.81,0.10700
3446.67,0.10331
3423.52,0.10152
3400.38,0.10247
3377.23,0.10430
3354.09,0.10730
3330.94,0.11025
3307.8,0.11390
3284.65,0.11819
3261.51,0.12337
3238.36,0.12874
3215.22,0.13450
3192.07,0.14156
3168.93,0.14734
3145.78,0.15541
3122.64,0.16206
3099.49,0.16443
3076.35,0.16381
3053.2,0.16334
3030.06,0.14186
3006.91,0.15784
2983.77,0.11375
2960.62,0.07932
2937.48,0.08120
2914.33,0.08938
2891.19,0.10344
2868.04,0.09258
2844.9,0.12526
2821.75,0.18563
2798.61,0.20935
2775.46,0.22498
2752.32,0.23174
2729.17,0.23425
2706.03,0.24166
2682.88,0.24989
2659.74,0.25244
2636.59,0.24323
2613.45,0.20980
2590.3,0.18611
2567.16,0.17994
2544.02,0.16203
2520.87,0.10100
2497.73,0.13860
2474.58,0.23735
2451.44,0.27720
2428.29,0.29237
2405.15,0.30276
2382,0.30865
2358.86,0.31226
2335.71,0.31118
2312.57,0.31123
2289.42,0.31034
2266.28,0.30529
2243.13,0.29710
2219.99,0.28828
2196.84,0.28500
2173.7,0.27180
2150.55,0.25182
2127.41,0.25005
2104.26,0.26178
2081.12,0.26093
2057.97,0.25300
2034.83,0.24597
2011.68,0.24315
1988.54,0.23757
1965.39,0.23147
1942.25,0.22883
1919.1,0.23459
1895.96,0.21444
1872.81,0.19780
1849.67,0.20320
1826.52,0.17368
1803.38,0.08989
1780.23,0.11847
1757.09,0.08033
1733.94,0.03728
1710.8,0.07026
1687.65,0.07374
1664.51,0.06465
1641.36,0.06237
1618.22,0.05789
1595.07,0.05820
1571.93,0.08017
1548.78,0.10396
1525.64,0.09881
1502.49,0.09361
1479.35,0.09344
1456.2,0.09556
1433.06,0.09974
1409.91,0.10627
1386.77,0.09208
1363.62,0.10036
1340.48,0.11615
1317.33,0.11991
1294.19,0.12710
1271.04,0.11097
1247.9,0.09897
1224.75,0.10239
1201.61,0.09590
1178.46,0.07985
1155.32,0.07473
1132.17,0.08482
1109.03,0.07378
1085.88,0.08237
1062.74,0.07990
1039.59,0.07830
1016.45,0.07448
993.304,0.07199
970.159,0.06631
947.014,0.06154
923.869,0.05799
900.724,0.06242
877.579,0.06714
854.434,0.06072
831.289,0.05086
808.144,0.04418
784.999,0.04306
761.854,0.04075
738.709,0.03854
715.565,0.03817
692.42,0.04414
669.275,0.04533
646.13,0.04547
622.985,0.04468
599.84,0.04707