File: 01_Data/Pine_Lap_Siding/FTIR/IS/Pine_Lap_Siding_IS_T_220916_R3.dpt
7497.03,0.01752
7473.89,0.02947
7450.74,0.02609
7427.6,0.03618
7404.45,0.02120
7381.31,0.02375
7358.16,0.02339
7335.02,0.02382
7311.87,0.02638
7288.73,0.01815
7265.58,0.02427
7242.44,0.02537
7219.29,0.03663
7196.15,0.01803
7173,0.02322
7149.86,0.02255
7126.71,0.02728
7103.57,0.02566
7080.42,0.02048
7057.28,0.02848
7034.13,0.02381
7010.99,0.02845
6987.84,0.03156
6964.7,0.02258
6941.55,0.02104
6918.41,0.02117
6895.26,0.02513
6872.12,0.02329
6848.97,0.02120
6825.83,0.02321
6802.68,0.02276
6779.54,0.02311
6756.39,0.02483
6733.25,0.02039
6710.1,0.02489
6686.96,0.02370
6663.82,0.02161
6640.67,0.01983
6617.53,0.02227
6594.38,0.02331
6571.24,0.01830
6548.09,0.01926
6524.95,0.02360
6501.8,0.02439
6478.66,0.02415
6455.51,0.02142
6432.37,0.02440
6409.22,0.02196
6386.08,0.02152
6362.93,0.02258
6339.79,0.02041
6316.64,0.02325
6293.5,0.02206
6270.35,0.02226
6247.21,0.02056
6224.06,0.02218
6200.92,0.02321
6177.77,0.02042
6154.63,0.02497
6131.48,0.02182
6108.34,0.01917
6085.19,0.01908
6062.05,0.02134
6038.9,0.02126
6015.76,0.02229
5992.61,0.02212
5969.47,0.01993
5946.32,0.02121
5923.18,0.02158
5900.03,0.02155
5876.89,0.01991
5853.74,0.02112
5830.6,0.02103
5807.45,0.02374
5784.31,0.02235
5761.16,0.02152
5738.02,0.02066
5714.87,0.02028
5691.73,0.02065
5668.58,0.02206
5645.44,0.02193
5622.29,0.02290
5599.15,0.02176
5576,0.02356
5552.86,0.02104
5529.71,0.02161
5506.57,0.02256
5483.42,0.02214
5460.28,0.02163
5437.13,0.02085
5413.99,0.02224
5390.84,0.02212
5367.7,0.02230
5344.55,0.02026
5321.41,0.02201
5298.26,0.02141
5275.12,0.02125
5251.97,0.02182
5228.83,0.02181
5205.68,0.02268
5182.54,0.02289
5159.39,0.02147
5136.25,0.02285
5113.1,0.02234
5089.96,0.02132
5066.81,0.02050
5043.67,0.02323
5020.52,0.02052
4997.38,0.02237
4974.23,0.02213
4951.09,0.02182
4927.94,0.02067
4904.8,0.02285
4881.65,0.02193
4858.51,0.02248
4835.36,0.02157
4812.22,0.02200
4789.07,0.02167
4765.93,0.02201
4742.78,0.02220
4719.64,0.02301
4696.49,0.02165
4673.35,0.02231
4650.2,0.02225
4627.06,0.02192
4603.92,0.02267
4580.77,0.02219
4557.63,0.02204
4534.48,0.02321
4511.34,0.02228
4488.19,0.02210
4465.05,0.02168
4441.9,0.02190
4418.76,0.02199
4395.61,0.02291
4372.47,0.02120
4349.32,0.02183
4326.18,0.02191
4303.03,0.02195
4279.89,0.02244
4256.74,0.02342
4233.6,0.02199
4210.45,0.02224
4187.31,0.02244
4164.16,0.02225
4141.02,0.02285
4117.87,0.02277
4094.73,0.02240
4071.58,0.02199
4048.44,0.02272
4025.29,0.02241
4002.15,0.02234
3979,0.02183
3955.86,0.02284
3932.71,0.02209
3909.57,0.02214
3886.42,0.02310
3863.28,0.02175
3840.13,0.02226
3816.99,0.02227
3793.84,0.02253
3770.7,0.02253
3747.55,0.02223
3724.41,0.02176
3701.26,0.02189
3678.12,0.02208
3654.97,0.02220
3631.83,0.02197
3608.68,0.02221
3585.54,0.02161
3562.39,0.02096
3539.25,0.02060
3516.1,0.02129
3492.96,0.02064
3469.81,0.01997
3446.67,0.02059
3423.52,0.02047
3400.38,0.01997
3377.23,0.01976
3354.09,0.02037
3330.94,0.01965
3307.8,0.02013
3284.65,0.02039
3261.51,0.02064
3238.36,0.02031
3215.22,0.02013
3192.07,0.02095
3168.93,0.02036
3145.78,0.02000
3122.64,0.01991
3099.49,0.02022
3076.35,0.02092
3053.2,0.02033
3030.06,0.02046
3006.91,0.02026
2983.77,0.02008
2960.62,0.01897
2937.48,0.01965
2914.33,0.01990
2891.19,0.01980
2868.04,0.02041
2844.9,0.02084
2821.75,0.02104
2798.61,0.02115
2775.46,0.02112
2752.32,0.02077
2729.17,0.02079
2706.03,0.02095
2682.88,0.02146
2659.74,0.02109
2636.59,0.02078
2613.45,0.02102
2590.3,0.02109
2567.16,0.02091
2544.02,0.02111
2520.87,0.02108
2497.73,0.02096
2474.58,0.02096
2451.44,0.02089
2428.29,0.02081
2405.15,0.02092
2382,0.02096
2358.86,0.02088
2335.71,0.02085
2312.57,0.02081
2289.42,0.02060
2266.28,0.02110
2243.13,0.02066
2219.99,0.02064
2196.84,0.02090
2173.7,0.02044
2150.55,0.02084
2127.41,0.02047
2104.26,0.02044
2081.12,0.02095
2057.97,0.02075
2034.83,0.02033
2011.68,0.02072
1988.54,0.02069
1965.39,0.02044
1942.25,0.02034
1919.1,0.02043
1895.96,0.02012
1872.81,0.02006
1849.67,0.02001
1826.52,0.01938
1803.38,0.01905
1780.23,0.01886
1757.09,0.01757
1733.94,0.01893
1710.8,0.02011
1687.65,0.01906
1664.51,0.01814
1641.36,0.01832
1618.22,0.01851
1595.07,0.01829
1571.93,0.01790
1548.78,0.01791
1525.64,0.01820
1502.49,0.01839
1479.35,0.01847
1456.2,0.01855
1433.06,0.01832
1409.91,0.01803
1386.77,0.01735
1363.62,0.01790
1340.48,0.01770
1317.33,0.01710
1294.19,0.01748
1271.04,0.01924
1247.9,0.01982
1224.75,0.01954
1201.61,0.01861
1178.46,0.01772
1155.32,0.01721
1132.17,0.01718
1109.03,0.01834
1085.88,0.01748
1062.74,0.01991
1039.59,0.01952
1016.45,0.01898
993.304,0.02081
970.159,0.02049
947.014,0.01998
923.869,0.01923
900.724,0.01815
877.579,0.01876
854.434,0.01895
831.289,0.01910
808.144,0.01904
784.999,0.01768
761.854,0.01840
738.709,0.01833
715.565,0.01764
692.42,0.01712
669.275,0.01745
646.13,0.01862
622.985,0.01754
599.84,0.01821