File: 01_Data/Pine_Lap_Siding/FTIR/IS/Pine_Lap_Siding_IS_S_220916_R4.dpt
7497.03,0.82943
7473.89,0.82603
7450.74,0.82885
7427.6,0.80837
7404.45,0.80616
7381.31,0.80673
7358.16,0.80544
7335.02,0.80406
7311.87,0.79647
7288.73,0.79551
7265.58,0.79452
7242.44,0.79194
7219.29,0.78438
7196.15,0.77363
7173,0.75953
7149.86,0.76767
7126.71,0.75374
7103.57,0.75682
7080.42,0.74467
7057.28,0.73200
7034.13,0.73687
7010.99,0.73990
6987.84,0.73468
6964.7,0.73134
6941.55,0.72695
6918.41,0.73005
6895.26,0.72719
6872.12,0.73062
6848.97,0.73341
6825.83,0.72551
6802.68,0.73120
6779.54,0.73032
6756.39,0.72860
6733.25,0.72892
6710.1,0.72798
6686.96,0.73558
6663.82,0.73054
6640.67,0.73316
6617.53,0.73425
6594.38,0.73547
6571.24,0.74034
6548.09,0.73650
6524.95,0.73502
6501.8,0.73874
6478.66,0.73929
6455.51,0.73794
6432.37,0.74184
6409.22,0.73672
6386.08,0.73839
6362.93,0.74141
6339.79,0.74206
6316.64,0.73812
6293.5,0.74284
6270.35,0.74238
6247.21,0.74686
6224.06,0.74986
6200.92,0.75243
6177.77,0.75407
6154.63,0.75746
6131.48,0.75732
6108.34,0.75782
6085.19,0.75737
6062.05,0.75594
6038.9,0.75567
6015.76,0.74883
5992.61,0.74220
5969.47,0.73908
5946.32,0.73516
5923.18,0.73734
5900.03,0.73621
5876.89,0.73397
5853.74,0.73631
5830.6,0.73356
5807.45,0.73226
5784.31,0.73313
5761.16,0.73593
5738.02,0.73376
5714.87,0.73115
5691.73,0.73319
5668.58,0.73225
5645.44,0.73376
5622.29,0.73352
5599.15,0.73277
5576,0.73369
5552.86,0.73558
5529.71,0.73627
5506.57,0.73598
5483.42,0.73743
5460.28,0.73684
5437.13,0.73779
5413.99,0.74215
5390.84,0.74161
5367.7,0.74049
5344.55,0.73822
5321.41,0.73103
5298.26,0.71987
5275.12,0.69815
5251.97,0.67363
5228.83,0.65817
5205.68,0.65102
5182.54,0.65024
5159.39,0.65288
5136.25,0.65796
5113.1,0.66465
5089.96,0.66979
5066.81,0.67408
5043.67,0.67746
5020.52,0.68156
4997.38,0.68232
4974.23,0.68061
4951.09,0.67561
4927.94,0.66628
4904.8,0.65698
4881.65,0.64689
4858.51,0.63668
4835.36,0.62945
4812.22,0.62198
4789.07,0.61854
4765.93,0.61448
4742.78,0.61318
4719.64,0.61257
4696.49,0.61183
4673.35,0.60434
4650.2,0.60589
4627.06,0.59950
4603.92,0.60340
4580.77,0.61181
4557.63,0.61055
4534.48,0.60071
4511.34,0.61835
4488.19,0.61904
4465.05,0.60472
4441.9,0.58259
4418.76,0.56059
4395.61,0.54752
4372.47,0.54266
4349.32,0.53289
4326.18,0.53021
4303.03,0.52581
4279.89,0.51793
4256.74,0.51473
4233.6,0.52244
4210.45,0.52356
4187.31,0.52405
4164.16,0.52848
4141.02,0.52606
4117.87,0.51325
4094.73,0.49573
4071.58,0.47661
4048.44,0.46035
4025.29,0.45413
4002.15,0.45472
3979,0.45595
3955.86,0.45718
3932.71,0.45996
3909.57,0.47238
3886.42,0.47647
3863.28,0.47869
3840.13,0.48051
3816.99,0.47927
3793.84,0.47069
3770.7,0.45465
3747.55,0.42132
3724.41,0.33300
3701.26,0.12882
3678.12,0.11795
3654.97,0.10133
3631.83,0.11205
3608.68,0.12005
3585.54,0.12409
3562.39,0.12004
3539.25,0.11799
3516.1,0.11567
3492.96,0.11187
3469.81,0.10711
3446.67,0.10226
3423.52,0.10115
3400.38,0.10284
3377.23,0.10387
3354.09,0.10740
3330.94,0.10949
3307.8,0.11364
3284.65,0.11788
3261.51,0.12386
3238.36,0.12870
3215.22,0.13420
3192.07,0.14059
3168.93,0.14770
3145.78,0.15567
3122.64,0.16142
3099.49,0.16380
3076.35,0.16316
3053.2,0.16298
3030.06,0.14154
3006.91,0.15724
2983.77,0.11361
2960.62,0.07945
2937.48,0.08150
2914.33,0.08980
2891.19,0.10351
2868.04,0.09266
2844.9,0.12486
2821.75,0.18572
2798.61,0.20917
2775.46,0.22502
2752.32,0.23154
2729.17,0.23416
2706.03,0.24185
2682.88,0.24985
2659.74,0.25216
2636.59,0.24385
2613.45,0.21020
2590.3,0.18620
2567.16,0.17996
2544.02,0.16186
2520.87,0.10101
2497.73,0.13931
2474.58,0.23729
2451.44,0.27778
2428.29,0.29213
2405.15,0.30240
2382,0.30846
2358.86,0.31173
2335.71,0.31072
2312.57,0.31070
2289.42,0.31071
2266.28,0.30523
2243.13,0.29633
2219.99,0.28742
2196.84,0.28446
2173.7,0.27092
2150.55,0.25171
2127.41,0.24943
2104.26,0.26105
2081.12,0.26047
2057.97,0.25212
2034.83,0.24545
2011.68,0.24202
1988.54,0.23693
1965.39,0.23098
1942.25,0.22858
1919.1,0.23399
1895.96,0.21418
1872.81,0.19751
1849.67,0.20236
1826.52,0.17358
1803.38,0.09014
1780.23,0.11839
1757.09,0.08068
1733.94,0.03663
1710.8,0.07014
1687.65,0.07412
1664.51,0.06508
1641.36,0.06238
1618.22,0.05778
1595.07,0.05841
1571.93,0.08055
1548.78,0.10453
1525.64,0.09911
1502.49,0.09320
1479.35,0.09333
1456.2,0.09585
1433.06,0.10034
1409.91,0.10649
1386.77,0.09231
1363.62,0.10078
1340.48,0.11633
1317.33,0.12020
1294.19,0.12756
1271.04,0.11108
1247.9,0.09904
1224.75,0.10242
1201.61,0.09519
1178.46,0.07959
1155.32,0.07470
1132.17,0.08524
1109.03,0.07369
1085.88,0.08237
1062.74,0.07992
1039.59,0.07842
1016.45,0.07452
993.304,0.07172
970.159,0.06622
947.014,0.06130
923.869,0.05761
900.724,0.06184
877.579,0.06649
854.434,0.06084
831.289,0.05147
808.144,0.04386
784.999,0.04314
761.854,0.04016
738.709,0.03962
715.565,0.03823
692.42,0.04615
669.275,0.04704
646.13,0.04622
622.985,0.04282
599.84,0.04363