File: 01_Data/Pine_Lap_Siding/FTIR/IS/Pine_Lap_Siding_IS_S_220916_R8.dpt
7497.03,0.82817
7473.89,0.81916
7450.74,0.82877
7427.6,0.80723
7404.45,0.80717
7381.31,0.80202
7358.16,0.80259
7335.02,0.80207
7311.87,0.80706
7288.73,0.79059
7265.58,0.79759
7242.44,0.78994
7219.29,0.78375
7196.15,0.77503
7173,0.76341
7149.86,0.76424
7126.71,0.75433
7103.57,0.75047
7080.42,0.73923
7057.28,0.73198
7034.13,0.74899
7010.99,0.74073
6987.84,0.73269
6964.7,0.72854
6941.55,0.73170
6918.41,0.72573
6895.26,0.72820
6872.12,0.73499
6848.97,0.73220
6825.83,0.72894
6802.68,0.72833
6779.54,0.72891
6756.39,0.73044
6733.25,0.72718
6710.1,0.73202
6686.96,0.73337
6663.82,0.73064
6640.67,0.73125
6617.53,0.73882
6594.38,0.73878
6571.24,0.73792
6548.09,0.73916
6524.95,0.73719
6501.8,0.73872
6478.66,0.73860
6455.51,0.74473
6432.37,0.74073
6409.22,0.74176
6386.08,0.74290
6362.93,0.74085
6339.79,0.74248
6316.64,0.74096
6293.5,0.74527
6270.35,0.74435
6247.21,0.74619
6224.06,0.74848
6200.92,0.75375
6177.77,0.75911
6154.63,0.75935
6131.48,0.75547
6108.34,0.75674
6085.19,0.75836
6062.05,0.76070
6038.9,0.75566
6015.76,0.75113
5992.61,0.74409
5969.47,0.73852
5946.32,0.73519
5923.18,0.73755
5900.03,0.73387
5876.89,0.73524
5853.74,0.73290
5830.6,0.73229
5807.45,0.73066
5784.31,0.73460
5761.16,0.73468
5738.02,0.73386
5714.87,0.73249
5691.73,0.73296
5668.58,0.73381
5645.44,0.73089
5622.29,0.73393
5599.15,0.73430
5576,0.73258
5552.86,0.73493
5529.71,0.73482
5506.57,0.73669
5483.42,0.73692
5460.28,0.73702
5437.13,0.73829
5413.99,0.74109
5390.84,0.74229
5367.7,0.74226
5344.55,0.74121
5321.41,0.73617
5298.26,0.72209
5275.12,0.70286
5251.97,0.67922
5228.83,0.66422
5205.68,0.65674
5182.54,0.65475
5159.39,0.65797
5136.25,0.66283
5113.1,0.66805
5089.96,0.67318
5066.81,0.67786
5043.67,0.68222
5020.52,0.68594
4997.38,0.68595
4974.23,0.68311
4951.09,0.67668
4927.94,0.66848
4904.8,0.65679
4881.65,0.64593
4858.51,0.63720
4835.36,0.62953
4812.22,0.62224
4789.07,0.61731
4765.93,0.61459
4742.78,0.61327
4719.64,0.61296
4696.49,0.61145
4673.35,0.60550
4650.2,0.60497
4627.06,0.59953
4603.92,0.60404
4580.77,0.61146
4557.63,0.61050
4534.48,0.60047
4511.34,0.61787
4488.19,0.61989
4465.05,0.60514
4441.9,0.58295
4418.76,0.56123
4395.61,0.54642
4372.47,0.54284
4349.32,0.53347
4326.18,0.53042
4303.03,0.52613
4279.89,0.51732
4256.74,0.51525
4233.6,0.52241
4210.45,0.52293
4187.31,0.52467
4164.16,0.52925
4141.02,0.52619
4117.87,0.51344
4094.73,0.49639
4071.58,0.47699
4048.44,0.46083
4025.29,0.45448
4002.15,0.45531
3979,0.45677
3955.86,0.45778
3932.71,0.46081
3909.57,0.47281
3886.42,0.47795
3863.28,0.48063
3840.13,0.48186
3816.99,0.48024
3793.84,0.47187
3770.7,0.45641
3747.55,0.42329
3724.41,0.33462
3701.26,0.12869
3678.12,0.11818
3654.97,0.10234
3631.83,0.11317
3608.68,0.12011
3585.54,0.12426
3562.39,0.12102
3539.25,0.11903
3516.1,0.11529
3492.96,0.11219
3469.81,0.10752
3446.67,0.10292
3423.52,0.10180
3400.38,0.10281
3377.23,0.10494
3354.09,0.10721
3330.94,0.11075
3307.8,0.11404
3284.65,0.11815
3261.51,0.12403
3238.36,0.13040
3215.22,0.13609
3192.07,0.14201
3168.93,0.14868
3145.78,0.15663
3122.64,0.16310
3099.49,0.16582
3076.35,0.16393
3053.2,0.16468
3030.06,0.14189
3006.91,0.15835
2983.77,0.11344
2960.62,0.07939
2937.48,0.08136
2914.33,0.08933
2891.19,0.10307
2868.04,0.09295
2844.9,0.12472
2821.75,0.18592
2798.61,0.20975
2775.46,0.22510
2752.32,0.23193
2729.17,0.23453
2706.03,0.24246
2682.88,0.25017
2659.74,0.25248
2636.59,0.24364
2613.45,0.21028
2590.3,0.18640
2567.16,0.18008
2544.02,0.16219
2520.87,0.10069
2497.73,0.13820
2474.58,0.23752
2451.44,0.27798
2428.29,0.29313
2405.15,0.30327
2382,0.30947
2358.86,0.31311
2335.71,0.31253
2312.57,0.31254
2289.42,0.31249
2266.28,0.30692
2243.13,0.29886
2219.99,0.29007
2196.84,0.28649
2173.7,0.27318
2150.55,0.25385
2127.41,0.25138
2104.26,0.26363
2081.12,0.26241
2057.97,0.25457
2034.83,0.24688
2011.68,0.24434
1988.54,0.23907
1965.39,0.23285
1942.25,0.23000
1919.1,0.23552
1895.96,0.21552
1872.81,0.19862
1849.67,0.20424
1826.52,0.17455
1803.38,0.08992
1780.23,0.11849
1757.09,0.08061
1733.94,0.03709
1710.8,0.07042
1687.65,0.07448
1664.51,0.06526
1641.36,0.06310
1618.22,0.05786
1595.07,0.05835
1571.93,0.08058
1548.78,0.10452
1525.64,0.09865
1502.49,0.09320
1479.35,0.09332
1456.2,0.09544
1433.06,0.10004
1409.91,0.10629
1386.77,0.09167
1363.62,0.10049
1340.48,0.11651
1317.33,0.11974
1294.19,0.12768
1271.04,0.11078
1247.9,0.09922
1224.75,0.10240
1201.61,0.09507
1178.46,0.08006
1155.32,0.07553
1132.17,0.08488
1109.03,0.07355
1085.88,0.08300
1062.74,0.08002
1039.59,0.07820
1016.45,0.07468
993.304,0.07201
970.159,0.06669
947.014,0.06110
923.869,0.05826
900.724,0.06191
877.579,0.06653
854.434,0.06123
831.289,0.05160
808.144,0.04291
784.999,0.04297
761.854,0.04098
738.709,0.03870
715.565,0.03811
692.42,0.04502
669.275,0.04616
646.13,0.04588
622.985,0.04623
599.84,0.04491