File: 01_Data/Pine_Lap_Siding/FTIR/IS/Pine_Lap_Siding_IS_S_220916_R6.dpt
7497.03,0.82413
7473.89,0.82649
7450.74,0.82395
7427.6,0.81238
7404.45,0.81956
7381.31,0.81329
7358.16,0.79988
7335.02,0.80470
7311.87,0.79413
7288.73,0.79115
7265.58,0.78657
7242.44,0.79111
7219.29,0.79924
7196.15,0.76869
7173,0.76558
7149.86,0.76386
7126.71,0.76071
7103.57,0.75557
7080.42,0.74009
7057.28,0.73245
7034.13,0.74444
7010.99,0.73435
6987.84,0.73609
6964.7,0.73118
6941.55,0.72803
6918.41,0.72960
6895.26,0.72491
6872.12,0.73251
6848.97,0.72898
6825.83,0.73052
6802.68,0.73224
6779.54,0.73069
6756.39,0.72751
6733.25,0.73295
6710.1,0.73560
6686.96,0.73136
6663.82,0.73390
6640.67,0.73143
6617.53,0.73864
6594.38,0.73489
6571.24,0.73957
6548.09,0.73770
6524.95,0.73718
6501.8,0.73951
6478.66,0.74311
6455.51,0.73957
6432.37,0.74179
6409.22,0.73954
6386.08,0.74186
6362.93,0.73646
6339.79,0.74287
6316.64,0.74237
6293.5,0.73939
6270.35,0.74458
6247.21,0.74800
6224.06,0.74653
6200.92,0.75479
6177.77,0.75277
6154.63,0.75532
6131.48,0.75244
6108.34,0.75679
6085.19,0.75899
6062.05,0.76036
6038.9,0.75283
6015.76,0.74922
5992.61,0.74070
5969.47,0.73646
5946.32,0.73533
5923.18,0.73748
5900.03,0.73241
5876.89,0.73256
5853.74,0.73314
5830.6,0.73312
5807.45,0.73018
5784.31,0.73299
5761.16,0.73299
5738.02,0.73393
5714.87,0.73427
5691.73,0.73078
5668.58,0.73355
5645.44,0.73317
5622.29,0.73235
5599.15,0.73296
5576,0.73412
5552.86,0.73478
5529.71,0.73567
5506.57,0.73416
5483.42,0.73536
5460.28,0.73684
5437.13,0.73803
5413.99,0.73952
5390.84,0.74316
5367.7,0.74146
5344.55,0.73976
5321.41,0.73262
5298.26,0.71967
5275.12,0.69935
5251.97,0.67629
5228.83,0.66106
5205.68,0.65457
5182.54,0.65270
5159.39,0.65662
5136.25,0.65895
5113.1,0.66542
5089.96,0.67078
5066.81,0.67609
5043.67,0.67916
5020.52,0.68267
4997.38,0.68395
4974.23,0.68041
4951.09,0.67556
4927.94,0.66643
4904.8,0.65592
4881.65,0.64628
4858.51,0.63648
4835.36,0.62883
4812.22,0.62240
4789.07,0.61709
4765.93,0.61536
4742.78,0.61468
4719.64,0.61152
4696.49,0.61171
4673.35,0.60487
4650.2,0.60397
4627.06,0.59895
4603.92,0.60335
4580.77,0.61057
4557.63,0.60968
4534.48,0.59987
4511.34,0.61751
4488.19,0.62063
4465.05,0.60493
4441.9,0.58214
4418.76,0.56148
4395.61,0.54702
4372.47,0.54161
4349.32,0.53328
4326.18,0.53003
4303.03,0.52532
4279.89,0.51782
4256.74,0.51434
4233.6,0.52244
4210.45,0.52365
4187.31,0.52385
4164.16,0.52873
4141.02,0.52613
4117.87,0.51356
4094.73,0.49590
4071.58,0.47683
4048.44,0.46032
4025.29,0.45369
4002.15,0.45406
3979,0.45532
3955.86,0.45639
3932.71,0.46014
3909.57,0.47262
3886.42,0.47730
3863.28,0.47944
3840.13,0.48085
3816.99,0.47940
3793.84,0.47061
3770.7,0.45596
3747.55,0.42286
3724.41,0.33411
3701.26,0.12870
3678.12,0.11720
3654.97,0.10253
3631.83,0.11278
3608.68,0.12037
3585.54,0.12448
3562.39,0.12046
3539.25,0.11907
3516.1,0.11519
3492.96,0.11123
3469.81,0.10694
3446.67,0.10288
3423.52,0.10109
3400.38,0.10285
3377.23,0.10511
3354.09,0.10746
3330.94,0.11035
3307.8,0.11462
3284.65,0.11829
3261.51,0.12428
3238.36,0.12883
3215.22,0.13469
3192.07,0.14149
3168.93,0.14844
3145.78,0.15569
3122.64,0.16230
3099.49,0.16491
3076.35,0.16381
3053.2,0.16338
3030.06,0.14225
3006.91,0.15764
2983.77,0.11353
2960.62,0.07944
2937.48,0.08137
2914.33,0.08929
2891.19,0.10366
2868.04,0.09257
2844.9,0.12478
2821.75,0.18595
2798.61,0.20992
2775.46,0.22483
2752.32,0.23163
2729.17,0.23450
2706.03,0.24219
2682.88,0.25018
2659.74,0.25215
2636.59,0.24350
2613.45,0.21001
2590.3,0.18640
2567.16,0.18047
2544.02,0.16177
2520.87,0.10067
2497.73,0.13913
2474.58,0.23776
2451.44,0.27753
2428.29,0.29254
2405.15,0.30253
2382,0.30910
2358.86,0.31201
2335.71,0.31181
2312.57,0.31164
2289.42,0.31104
2266.28,0.30595
2243.13,0.29761
2219.99,0.28863
2196.84,0.28575
2173.7,0.27240
2150.55,0.25300
2127.41,0.25065
2104.26,0.26208
2081.12,0.26154
2057.97,0.25344
2034.83,0.24623
2011.68,0.24324
1988.54,0.23832
1965.39,0.23193
1942.25,0.22938
1919.1,0.23499
1895.96,0.21513
1872.81,0.19814
1849.67,0.20360
1826.52,0.17429
1803.38,0.09028
1780.23,0.11845
1757.09,0.08050
1733.94,0.03693
1710.8,0.07015
1687.65,0.07439
1664.51,0.06525
1641.36,0.06262
1618.22,0.05790
1595.07,0.05843
1571.93,0.08055
1548.78,0.10449
1525.64,0.09895
1502.49,0.09354
1479.35,0.09352
1456.2,0.09554
1433.06,0.09980
1409.91,0.10634
1386.77,0.09141
1363.62,0.10022
1340.48,0.11603
1317.33,0.11967
1294.19,0.12776
1271.04,0.11122
1247.9,0.09916
1224.75,0.10208
1201.61,0.09505
1178.46,0.07982
1155.32,0.07504
1132.17,0.08510
1109.03,0.07424
1085.88,0.08229
1062.74,0.08017
1039.59,0.07826
1016.45,0.07471
993.304,0.07200
970.159,0.06612
947.014,0.06081
923.869,0.05839
900.724,0.06176
877.579,0.06665
854.434,0.06058
831.289,0.05153
808.144,0.04319
784.999,0.04249
761.854,0.04133
738.709,0.03913
715.565,0.03858
692.42,0.04545
669.275,0.04505
646.13,0.04656
622.985,0.04410
599.84,0.04863