File: 01_Data/Pine_Lap_Siding/FTIR/IS/Pine_Lap_Siding_IS_S_220916_R2.dpt
7497.03,0.83178
7473.89,0.82619
7450.74,0.82928
7427.6,0.82117
7404.45,0.81224
7381.31,0.79747
7358.16,0.79812
7335.02,0.80706
7311.87,0.80213
7288.73,0.79091
7265.58,0.78511
7242.44,0.79035
7219.29,0.78265
7196.15,0.77383
7173,0.75888
7149.86,0.76610
7126.71,0.75540
7103.57,0.74821
7080.42,0.74550
7057.28,0.72592
7034.13,0.74191
7010.99,0.72954
6987.84,0.73349
6964.7,0.73723
6941.55,0.73035
6918.41,0.72601
6895.26,0.72947
6872.12,0.72525
6848.97,0.73027
6825.83,0.72475
6802.68,0.72309
6779.54,0.72410
6756.39,0.72588
6733.25,0.72237
6710.1,0.72747
6686.96,0.72617
6663.82,0.73268
6640.67,0.73055
6617.53,0.72821
6594.38,0.73603
6571.24,0.73480
6548.09,0.73173
6524.95,0.73663
6501.8,0.73356
6478.66,0.73335
6455.51,0.73346
6432.37,0.73874
6409.22,0.73691
6386.08,0.73552
6362.93,0.73737
6339.79,0.73720
6316.64,0.73761
6293.5,0.73947
6270.35,0.74194
6247.21,0.74467
6224.06,0.74753
6200.92,0.75158
6177.77,0.75171
6154.63,0.75673
6131.48,0.75519
6108.34,0.75390
6085.19,0.75498
6062.05,0.75496
6038.9,0.75373
6015.76,0.74821
5992.61,0.74178
5969.47,0.73497
5946.32,0.73578
5923.18,0.73394
5900.03,0.73364
5876.89,0.72920
5853.74,0.73088
5830.6,0.73214
5807.45,0.72473
5784.31,0.73018
5761.16,0.73335
5738.02,0.73250
5714.87,0.73004
5691.73,0.72917
5668.58,0.72903
5645.44,0.73046
5622.29,0.73051
5599.15,0.72986
5576,0.72806
5552.86,0.73043
5529.71,0.73106
5506.57,0.73129
5483.42,0.73251
5460.28,0.73508
5437.13,0.73358
5413.99,0.73847
5390.84,0.73754
5367.7,0.73732
5344.55,0.73367
5321.41,0.72676
5298.26,0.71399
5275.12,0.69113
5251.97,0.66850
5228.83,0.65009
5205.68,0.64394
5182.54,0.64061
5159.39,0.64472
5136.25,0.64945
5113.1,0.65447
5089.96,0.66056
5066.81,0.66642
5043.67,0.67027
5020.52,0.67392
4997.38,0.67691
4974.23,0.67538
4951.09,0.67036
4927.94,0.66270
4904.8,0.65320
4881.65,0.64306
4858.51,0.63386
4835.36,0.62546
4812.22,0.61973
4789.07,0.61573
4765.93,0.61228
4742.78,0.61064
4719.64,0.60942
4696.49,0.60825
4673.35,0.60261
4650.2,0.60255
4627.06,0.59610
4603.92,0.60027
4580.77,0.60778
4557.63,0.60746
4534.48,0.59738
4511.34,0.61498
4488.19,0.61730
4465.05,0.60154
4441.9,0.57900
4418.76,0.55825
4395.61,0.54485
4372.47,0.53927
4349.32,0.53105
4326.18,0.52777
4303.03,0.52305
4279.89,0.51503
4256.74,0.51325
4233.6,0.51990
4210.45,0.52058
4187.31,0.52131
4164.16,0.52576
4141.02,0.52265
4117.87,0.50981
4094.73,0.49261
4071.58,0.47353
4048.44,0.45806
4025.29,0.45062
4002.15,0.45249
3979,0.45357
3955.86,0.45381
3932.71,0.45775
3909.57,0.46838
3886.42,0.47248
3863.28,0.47561
3840.13,0.47734
3816.99,0.47522
3793.84,0.46698
3770.7,0.45109
3747.55,0.41740
3724.41,0.33035
3701.26,0.12790
3678.12,0.11664
3654.97,0.10190
3631.83,0.11130
3608.68,0.11929
3585.54,0.12294
3562.39,0.11920
3539.25,0.11806
3516.1,0.11405
3492.96,0.11011
3469.81,0.10552
3446.67,0.10193
3423.52,0.10096
3400.38,0.10121
3377.23,0.10390
3354.09,0.10557
3330.94,0.10854
3307.8,0.11259
3284.65,0.11706
3261.51,0.12172
3238.36,0.12805
3215.22,0.13233
3192.07,0.13861
3168.93,0.14507
3145.78,0.15240
3122.64,0.15909
3099.49,0.16169
3076.35,0.16086
3053.2,0.16093
3030.06,0.13999
3006.91,0.15606
2983.77,0.11262
2960.62,0.07941
2937.48,0.08096
2914.33,0.08934
2891.19,0.10320
2868.04,0.09270
2844.9,0.12439
2821.75,0.18455
2798.61,0.20770
2775.46,0.22294
2752.32,0.22976
2729.17,0.23257
2706.03,0.24010
2682.88,0.24823
2659.74,0.25065
2636.59,0.24135
2613.45,0.20853
2590.3,0.18505
2567.16,0.17943
2544.02,0.16132
2520.87,0.10022
2497.73,0.13770
2474.58,0.23577
2451.44,0.27553
2428.29,0.28970
2405.15,0.29976
2382,0.30582
2358.86,0.30935
2335.71,0.30789
2312.57,0.30719
2289.42,0.30669
2266.28,0.30165
2243.13,0.29257
2219.99,0.28391
2196.84,0.28010
2173.7,0.26741
2150.55,0.24833
2127.41,0.24606
2104.26,0.25733
2081.12,0.25635
2057.97,0.24880
2034.83,0.24175
2011.68,0.23917
1988.54,0.23435
1965.39,0.22789
1942.25,0.22582
1919.1,0.23115
1895.96,0.21128
1872.81,0.19524
1849.67,0.20061
1826.52,0.17171
1803.38,0.08924
1780.23,0.11753
1757.09,0.08039
1733.94,0.03714
1710.8,0.06936
1687.65,0.07330
1664.51,0.06398
1641.36,0.06165
1618.22,0.05766
1595.07,0.05847
1571.93,0.08006
1548.78,0.10355
1525.64,0.09852
1502.49,0.09309
1479.35,0.09345
1456.2,0.09539
1433.06,0.09995
1409.91,0.10661
1386.77,0.09188
1363.62,0.10012
1340.48,0.11592
1317.33,0.11956
1294.19,0.12738
1271.04,0.11076
1247.9,0.09926
1224.75,0.10164
1201.61,0.09497
1178.46,0.08033
1155.32,0.07501
1132.17,0.08474
1109.03,0.07384
1085.88,0.08240
1062.74,0.07960
1039.59,0.07821
1016.45,0.07538
993.304,0.07163
970.159,0.06695
947.014,0.06115
923.869,0.05858
900.724,0.06197
877.579,0.06684
854.434,0.06082
831.289,0.05127
808.144,0.04386
784.999,0.04320
761.854,0.04085
738.709,0.03903
715.565,0.03881
692.42,0.04542
669.275,0.04625
646.13,0.04623
622.985,0.04494
599.84,0.04275