File: 01_Data/Pine_Lap_Siding/FTIR/IS/Pine_Lap_Siding_IS_S_220916_R1.dpt
7497.03,0.83156
7473.89,0.82219
7450.74,0.82761
7427.6,0.81433
7404.45,0.80620
7381.31,0.80346
7358.16,0.79044
7335.02,0.79682
7311.87,0.78950
7288.73,0.79307
7265.58,0.78569
7242.44,0.78659
7219.29,0.78740
7196.15,0.77703
7173,0.76041
7149.86,0.75902
7126.71,0.75710
7103.57,0.74670
7080.42,0.74073
7057.28,0.73243
7034.13,0.73576
7010.99,0.73205
6987.84,0.73212
6964.7,0.73267
6941.55,0.72406
6918.41,0.72219
6895.26,0.72306
6872.12,0.72537
6848.97,0.72657
6825.83,0.72824
6802.68,0.72836
6779.54,0.71999
6756.39,0.72294
6733.25,0.72269
6710.1,0.72600
6686.96,0.72543
6663.82,0.72850
6640.67,0.72957
6617.53,0.73090
6594.38,0.73060
6571.24,0.72948
6548.09,0.73472
6524.95,0.73655
6501.8,0.73462
6478.66,0.73227
6455.51,0.73239
6432.37,0.73873
6409.22,0.73811
6386.08,0.73696
6362.93,0.73687
6339.79,0.73615
6316.64,0.73254
6293.5,0.74042
6270.35,0.73775
6247.21,0.74401
6224.06,0.74721
6200.92,0.74407
6177.77,0.74946
6154.63,0.75222
6131.48,0.74847
6108.34,0.75125
6085.19,0.75134
6062.05,0.75511
6038.9,0.75103
6015.76,0.74586
5992.61,0.73728
5969.47,0.73502
5946.32,0.73473
5923.18,0.73197
5900.03,0.72850
5876.89,0.73011
5853.74,0.72960
5830.6,0.72907
5807.45,0.72729
5784.31,0.72704
5761.16,0.72948
5738.02,0.72791
5714.87,0.72539
5691.73,0.72676
5668.58,0.72746
5645.44,0.72677
5622.29,0.72543
5599.15,0.72729
5576,0.72655
5552.86,0.72866
5529.71,0.73033
5506.57,0.72900
5483.42,0.73037
5460.28,0.72981
5437.13,0.73358
5413.99,0.73477
5390.84,0.73496
5367.7,0.73541
5344.55,0.73056
5321.41,0.72426
5298.26,0.70890
5275.12,0.68765
5251.97,0.66191
5228.83,0.64478
5205.68,0.63703
5182.54,0.63362
5159.39,0.63696
5136.25,0.64137
5113.1,0.64747
5089.96,0.65488
5066.81,0.65991
5043.67,0.66254
5020.52,0.66798
4997.38,0.67090
4974.23,0.67011
4951.09,0.66689
4927.94,0.65842
4904.8,0.65201
4881.65,0.64024
4858.51,0.63166
4835.36,0.62478
4812.22,0.61667
4789.07,0.61325
4765.93,0.61128
4742.78,0.60892
4719.64,0.60716
4696.49,0.60677
4673.35,0.60025
4650.2,0.60005
4627.06,0.59550
4603.92,0.59959
4580.77,0.60498
4557.63,0.60629
4534.48,0.59627
4511.34,0.61205
4488.19,0.61517
4465.05,0.60067
4441.9,0.57863
4418.76,0.55753
4395.61,0.54330
4372.47,0.53848
4349.32,0.53010
4326.18,0.52627
4303.03,0.52128
4279.89,0.51427
4256.74,0.51183
4233.6,0.51773
4210.45,0.51922
4187.31,0.51959
4164.16,0.52403
4141.02,0.52019
4117.87,0.50759
4094.73,0.49093
4071.58,0.47184
4048.44,0.45624
4025.29,0.44976
4002.15,0.45002
3979,0.45173
3955.86,0.45225
3932.71,0.45481
3909.57,0.46657
3886.42,0.47055
3863.28,0.47314
3840.13,0.47378
3816.99,0.47199
3793.84,0.46399
3770.7,0.44800
3747.55,0.41364
3724.41,0.32818
3701.26,0.12799
3678.12,0.11680
3654.97,0.10112
3631.83,0.11092
3608.68,0.11833
3585.54,0.12244
3562.39,0.11780
3539.25,0.11618
3516.1,0.11235
3492.96,0.10964
3469.81,0.10517
3446.67,0.10056
3423.52,0.09955
3400.38,0.10069
3377.23,0.10228
3354.09,0.10522
3330.94,0.10809
3307.8,0.11221
3284.65,0.11617
3261.51,0.12057
3238.36,0.12587
3215.22,0.13062
3192.07,0.13724
3168.93,0.14323
3145.78,0.15046
3122.64,0.15720
3099.49,0.15931
3076.35,0.15845
3053.2,0.15978
3030.06,0.13866
3006.91,0.15453
2983.77,0.11207
2960.62,0.07902
2937.48,0.08082
2914.33,0.08895
2891.19,0.10296
2868.04,0.09294
2844.9,0.12421
2821.75,0.18352
2798.61,0.20659
2775.46,0.22180
2752.32,0.22850
2729.17,0.23068
2706.03,0.23906
2682.88,0.24629
2659.74,0.24893
2636.59,0.24059
2613.45,0.20754
2590.3,0.18458
2567.16,0.17859
2544.02,0.16052
2520.87,0.09996
2497.73,0.13746
2474.58,0.23453
2451.44,0.27413
2428.29,0.28837
2405.15,0.29812
2382,0.30380
2358.86,0.30638
2335.71,0.30496
2312.57,0.30462
2289.42,0.30388
2266.28,0.29777
2243.13,0.28917
2219.99,0.27968
2196.84,0.27617
2173.7,0.26351
2150.55,0.24452
2127.41,0.24237
2104.26,0.25331
2081.12,0.25257
2057.97,0.24498
2034.83,0.23835
2011.68,0.23579
1988.54,0.23109
1965.39,0.22531
1942.25,0.22302
1919.1,0.22827
1895.96,0.20883
1872.81,0.19288
1849.67,0.19804
1826.52,0.16962
1803.38,0.08841
1780.23,0.11708
1757.09,0.08084
1733.94,0.03695
1710.8,0.06888
1687.65,0.07201
1664.51,0.06319
1641.36,0.06054
1618.22,0.05742
1595.07,0.05844
1571.93,0.08001
1548.78,0.10382
1525.64,0.09844
1502.49,0.09288
1479.35,0.09315
1456.2,0.09536
1433.06,0.10015
1409.91,0.10623
1386.77,0.09191
1363.62,0.10038
1340.48,0.11599
1317.33,0.11950
1294.19,0.12727
1271.04,0.11073
1247.9,0.09924
1224.75,0.10247
1201.61,0.09533
1178.46,0.08001
1155.32,0.07493
1132.17,0.08491
1109.03,0.07442
1085.88,0.08318
1062.74,0.07946
1039.59,0.07847
1016.45,0.07441
993.304,0.07204
970.159,0.06604
947.014,0.06134
923.869,0.05862
900.724,0.06195
877.579,0.06757
854.434,0.06024
831.289,0.05158
808.144,0.04359
784.999,0.04336
761.854,0.04052
738.709,0.03807
715.565,0.03912
692.42,0.04481
669.275,0.04551
646.13,0.04516
622.985,0.04454
599.84,0.04513