File: 01_Data/Pine_Lap_Siding/FTIR/IS/Pine_Lap_Siding_IS_S_220916_R3.dpt
7497.03,0.83085
7473.89,0.83094
7450.74,0.82008
7427.6,0.80741
7404.45,0.81166
7381.31,0.81047
7358.16,0.80198
7335.02,0.80415
7311.87,0.79977
7288.73,0.78961
7265.58,0.79143
7242.44,0.78999
7219.29,0.78631
7196.15,0.77762
7173,0.76317
7149.86,0.76322
7126.71,0.75967
7103.57,0.75670
7080.42,0.73779
7057.28,0.73015
7034.13,0.73981
7010.99,0.74046
6987.84,0.72941
6964.7,0.72596
6941.55,0.72491
6918.41,0.72726
6895.26,0.72099
6872.12,0.73385
6848.97,0.73001
6825.83,0.72521
6802.68,0.72756
6779.54,0.72666
6756.39,0.72934
6733.25,0.72555
6710.1,0.72930
6686.96,0.72943
6663.82,0.73559
6640.67,0.73296
6617.53,0.73505
6594.38,0.73722
6571.24,0.73614
6548.09,0.73876
6524.95,0.73921
6501.8,0.73407
6478.66,0.74111
6455.51,0.74116
6432.37,0.73818
6409.22,0.73986
6386.08,0.74292
6362.93,0.74184
6339.79,0.74351
6316.64,0.74009
6293.5,0.74275
6270.35,0.74437
6247.21,0.74526
6224.06,0.75029
6200.92,0.74814
6177.77,0.75357
6154.63,0.75720
6131.48,0.75404
6108.34,0.75591
6085.19,0.75667
6062.05,0.75682
6038.9,0.75516
6015.76,0.74913
5992.61,0.74185
5969.47,0.73925
5946.32,0.73642
5923.18,0.73514
5900.03,0.73390
5876.89,0.73107
5853.74,0.73258
5830.6,0.72846
5807.45,0.72899
5784.31,0.73376
5761.16,0.73344
5738.02,0.73238
5714.87,0.73265
5691.73,0.73202
5668.58,0.73156
5645.44,0.73380
5622.29,0.73155
5599.15,0.73033
5576,0.73206
5552.86,0.73360
5529.71,0.73242
5506.57,0.73169
5483.42,0.73561
5460.28,0.73350
5437.13,0.73772
5413.99,0.73857
5390.84,0.74165
5367.7,0.74009
5344.55,0.73723
5321.41,0.72975
5298.26,0.71670
5275.12,0.69710
5251.97,0.67203
5228.83,0.65474
5205.68,0.64782
5182.54,0.64786
5159.39,0.64927
5136.25,0.65366
5113.1,0.66091
5089.96,0.66456
5066.81,0.66945
5043.67,0.67613
5020.52,0.67932
4997.38,0.68077
4974.23,0.67899
4951.09,0.67334
4927.94,0.66428
4904.8,0.65575
4881.65,0.64576
4858.51,0.63607
4835.36,0.62886
4812.22,0.62238
4789.07,0.61756
4765.93,0.61471
4742.78,0.61398
4719.64,0.61243
4696.49,0.60987
4673.35,0.60439
4650.2,0.60459
4627.06,0.59887
4603.92,0.60269
4580.77,0.61020
4557.63,0.60996
4534.48,0.59970
4511.34,0.61658
4488.19,0.61817
4465.05,0.60359
4441.9,0.58156
4418.76,0.56003
4395.61,0.54602
4372.47,0.54126
4349.32,0.53378
4326.18,0.52989
4303.03,0.52469
4279.89,0.51719
4256.74,0.51468
4233.6,0.52123
4210.45,0.52262
4187.31,0.52296
4164.16,0.52780
4141.02,0.52543
4117.87,0.51171
4094.73,0.49529
4071.58,0.47579
4048.44,0.45945
4025.29,0.45326
4002.15,0.45434
3979,0.45568
3955.86,0.45562
3932.71,0.45943
3909.57,0.47132
3886.42,0.47557
3863.28,0.47858
3840.13,0.47943
3816.99,0.47665
3793.84,0.46910
3770.7,0.45288
3747.55,0.42048
3724.41,0.33223
3701.26,0.12876
3678.12,0.11715
3654.97,0.10212
3631.83,0.11215
3608.68,0.12006
3585.54,0.12345
3562.39,0.12017
3539.25,0.11810
3516.1,0.11435
3492.96,0.11068
3469.81,0.10633
3446.67,0.10208
3423.52,0.10089
3400.38,0.10183
3377.23,0.10379
3354.09,0.10624
3330.94,0.10933
3307.8,0.11337
3284.65,0.11736
3261.51,0.12300
3238.36,0.12714
3215.22,0.13403
3192.07,0.13942
3168.93,0.14668
3145.78,0.15351
3122.64,0.16067
3099.49,0.16316
3076.35,0.16173
3053.2,0.16277
3030.06,0.14099
3006.91,0.15699
2983.77,0.11317
2960.62,0.07932
2937.48,0.08062
2914.33,0.08894
2891.19,0.10345
2868.04,0.09224
2844.9,0.12465
2821.75,0.18522
2798.61,0.20876
2775.46,0.22449
2752.32,0.23090
2729.17,0.23343
2706.03,0.24131
2682.88,0.24919
2659.74,0.25161
2636.59,0.24275
2613.45,0.20983
2590.3,0.18575
2567.16,0.17951
2544.02,0.16191
2520.87,0.10091
2497.73,0.13820
2474.58,0.23670
2451.44,0.27675
2428.29,0.29124
2405.15,0.30114
2382,0.30761
2358.86,0.31064
2335.71,0.30960
2312.57,0.30966
2289.42,0.30897
2266.28,0.30355
2243.13,0.29511
2219.99,0.28650
2196.84,0.28281
2173.7,0.26987
2150.55,0.25008
2127.41,0.24818
2104.26,0.25920
2081.12,0.25862
2057.97,0.25103
2034.83,0.24370
2011.68,0.24093
1988.54,0.23598
1965.39,0.22962
1942.25,0.22766
1919.1,0.23279
1895.96,0.21313
1872.81,0.19634
1849.67,0.20179
1826.52,0.17291
1803.38,0.08973
1780.23,0.11821
1757.09,0.08090
1733.94,0.03725
1710.8,0.06981
1687.65,0.07347
1664.51,0.06444
1641.36,0.06219
1618.22,0.05750
1595.07,0.05832
1571.93,0.08024
1548.78,0.10397
1525.64,0.09869
1502.49,0.09311
1479.35,0.09351
1456.2,0.09561
1433.06,0.09983
1409.91,0.10616
1386.77,0.09205
1363.62,0.10043
1340.48,0.11630
1317.33,0.11973
1294.19,0.12765
1271.04,0.11103
1247.9,0.09914
1224.75,0.10197
1201.61,0.09521
1178.46,0.07989
1155.32,0.07502
1132.17,0.08500
1109.03,0.07370
1085.88,0.08176
1062.74,0.07962
1039.59,0.07863
1016.45,0.07417
993.304,0.07141
970.159,0.06651
947.014,0.06167
923.869,0.05824
900.724,0.06164
877.579,0.06679
854.434,0.06030
831.289,0.05110
808.144,0.04437
784.999,0.04269
761.854,0.04084
738.709,0.03914
715.565,0.03821
692.42,0.04568
669.275,0.04533
646.13,0.04496
622.985,0.04631
599.84,0.04828