File: 01_Data/Masonite_Board/MCC/Extra/Masonite_New_Grinder_MCC_30K_min_220328_R2.txt
Sample ID:	C:\MCC\MCC Cal\Test\Masonite_New_grinder_MCC_30K_min_220328_R2.txt
Sample Weight (mg):	4.72
Heating Rate (C/s):	0.5
Combustor Temp (C):	900
N2 Flow Rate (cc/min):	80
O2 Flow Rate (cc/min):	20
Calibration File:	C:\MCC\MCC Cal\Coeff1 JN10440_30_210304.txt.txt
T Correction Coefficients:	0	1.024463	0
Time Shift (s):	14
*
Time (s)	Temperature (C)	N2 flow rate (cc/min)	O2 flow rate (cc/min)	Flow Rate (cc/min)	Oxygen (%)	HRR (W/g)	Heating rate (C/s)
0.000	108.982	80.006	19.993	103.602	20.048	0.495	0.049
8.000	108.944	80.006	19.992	103.648	20.047	0.596	-0.000
16.000	108.989	80.005	19.992	103.684	20.039	1.116	0.005
24.000	109.299	80.004	19.997	103.797	20.032	1.591	0.081
32.000	110.112	80.005	19.994	103.792	20.025	2.134	0.117
40.000	111.229	80.003	19.994	103.776	20.017	2.658	0.150
48.000	112.649	80.007	19.995	103.822	20.011	3.069	0.162
56.000	114.433	80.007	19.994	103.849	20.010	3.138	0.222
63.999	116.595	80.005	19.992	103.848	20.003	3.624	0.278
71.999	119.054	80.007	19.994	103.907	20.007	3.344	0.294
79.999	121.860	80.008	19.992	103.889	20.005	3.449	0.374
87.999	124.881	80.006	19.992	103.866	20.002	3.704	0.354
96.000	128.086	80.005	19.993	103.904	20.001	3.788	0.403
104.000	131.442	80.006	19.993	103.914	20.002	3.694	0.445
111.999	134.948	80.005	19.993	103.867	19.997	3.998	0.430
120.000	138.604	80.003	19.995	103.905	20.003	3.644	0.447
127.999	142.329	80.005	19.994	103.889	20.002	3.713	0.471
136.000	146.193	80.006	19.993	103.850	20.003	3.639	0.429
144.000	150.120	80.004	19.994	103.854	20.006	3.379	0.459
152.000	154.059	80.007	19.996	103.902	20.005	3.494	0.484
160.000	158.044	80.006	19.992	103.921	20.003	3.628	0.498
168.000	162.053	80.004	19.992	103.925	20.001	3.761	0.521
176.000	166.072	80.004	19.993	103.841	19.995	4.191	0.503
184.000	170.066	80.004	19.993	103.894	19.998	3.972	0.516
192.000	174.089	80.004	19.993	103.877	19.999	3.883	0.487
200.000	178.028	80.003	19.993	103.886	19.994	4.211	0.512
208.000	181.989	80.005	19.993	103.813	19.993	4.319	0.519
216.000	185.935	80.006	19.993	103.799	19.998	3.928	0.495
224.000	189.856	80.007	19.993	103.766	19.997	4.020	0.473
232.000	193.836	80.006	19.994	103.809	19.994	4.242	0.474
240.000	197.739	80.007	19.994	103.874	20.000	3.799	0.481
248.000	201.680	80.004	19.994	103.835	19.992	4.354	0.486
256.000	205.555	80.005	19.992	103.756	19.990	4.471	0.494
264.000	209.430	80.006	19.993	103.770	19.992	4.355	0.478
272.000	213.402	80.005	19.993	103.836	19.996	4.123	0.520
280.000	217.346	80.004	19.994	103.811	19.993	4.294	0.508
288.000	221.310	80.004	19.994	103.828	19.990	4.490	0.486
296.000	225.207	80.006	19.993	103.821	19.988	4.641	0.497
304.000	229.218	80.005	19.993	103.813	19.989	4.571	0.487
312.000	233.183	80.007	19.994	103.826	19.983	4.978	0.527
320.000	237.172	80.006	19.994	103.802	19.979	5.262	0.502
328.000	241.126	80.006	19.994	103.847	19.974	5.600	0.524
336.000	245.127	80.003	19.994	103.795	19.965	6.229	0.514
344.000	249.168	80.005	19.994	103.862	19.953	7.070	0.514
352.000	253.168	80.005	19.993	103.939	19.943	7.707	0.484
360.000	257.175	80.005	19.995	103.775	19.927	8.827	0.482
368.000	261.142	80.004	19.994	103.849	19.909	10.064	0.486
376.000	265.097	80.007	19.994	103.893	19.890	11.387	0.502
384.000	269.045	80.006	19.992	103.850	19.868	12.889	0.512
392.000	273.129	80.006	19.994	103.860	19.838	14.982	0.518
400.000	277.110	80.007	19.993	103.815	19.799	17.642	0.519
408.000	281.051	80.008	19.994	103.881	19.774	19.373	0.499
416.000	285.036	80.004	19.994	103.883	19.737	21.859	0.498
424.000	289.000	80.004	19.994	103.950	19.713	23.508	0.488
432.000	292.918	80.005	19.995	103.904	19.689	25.198	0.479
440.000	296.961	80.004	19.995	103.912	19.661	27.124	0.477
448.000	300.966	80.004	19.994	103.916	19.644	28.288	0.495
456.000	304.950	80.006	19.993	103.914	19.640	28.578	0.484
464.000	309.012	80.008	19.993	103.929	19.630	29.235	0.518
472.000	313.085	80.006	19.993	103.886	19.611	30.577	0.491
480.000	317.188	80.009	19.994	103.986	19.598	31.434	0.492
488.000	321.220	80.007	19.993	103.923	19.574	33.104	0.545
496.000	325.212	80.004	19.994	103.955	19.543	35.215	0.474
504.000	329.123	80.004	19.993	103.959	19.503	37.975	0.482
512.000	333.097	80.006	19.993	104.002	19.458	41.060	0.511
520.000	336.988	80.005	19.994	103.975	19.391	45.745	0.483
528.000	340.863	80.004	19.994	103.997	19.316	50.864	0.484
536.000	344.774	80.007	19.993	104.078	19.224	57.250	0.484
544.000	348.672	80.007	19.994	104.091	19.113	64.916	0.452
552.000	352.681	80.007	19.992	104.173	18.993	73.210	0.519
560.000	356.618	80.006	19.993	104.234	18.860	82.390	0.483
568.000	360.536	80.008	19.992	104.213	18.722	91.937	0.470
576.000	364.481	80.004	19.993	104.232	18.619	99.007	0.481
584.000	368.459	80.003	19.991	104.305	18.575	101.946	0.494
592.000	372.546	80.005	19.995	104.216	18.609	99.552	0.548
600.000	376.685	80.005	19.994	104.071	18.745	90.173	0.534
608.000	380.844	80.004	19.994	103.943	18.996	72.754	0.520
616.000	384.986	80.004	19.994	103.809	19.294	52.341	0.547
624.000	389.086	80.005	19.994	103.797	19.568	33.466	0.551
632.000	393.163	80.005	19.993	103.864	19.763	20.072	0.533
640.000	397.266	80.003	19.993	103.758	19.862	13.294	0.511
648.000	401.389	80.007	19.993	103.798	19.900	10.698	0.510
656.000	405.476	80.005	19.993	103.776	19.923	9.107	0.500
664.000	409.583	80.006	19.993	103.777	19.931	8.540	0.518
672.000	413.636	80.005	19.992	103.831	19.939	8.015	0.539
680.000	417.635	80.004	19.994	103.820	19.949	7.298	0.498
688.000	421.701	80.004	19.994	103.724	19.947	7.465	0.511
696.000	425.676	80.005	19.994	103.799	19.950	7.226	0.465
704.000	429.591	80.006	19.994	103.785	19.956	6.868	0.497
712.000	433.472	80.003	19.995	103.725	19.959	6.617	0.490
720.000	437.431	80.004	19.995	103.824	19.972	5.771	0.485
728.000	441.356	80.008	19.992	103.752	19.971	5.781	0.486
736.000	445.357	80.006	19.993	103.787	19.982	5.036	0.472
744.000	449.375	80.005	19.993	103.759	19.987	4.677	0.524
752.000	453.403	80.006	19.994	103.755	19.990	4.477	0.485
760.000	457.535	80.006	19.993	103.830	19.997	4.045	0.533
768.000	461.610	80.005	19.992	103.752	19.996	4.061	0.497
776.000	465.637	80.003	19.995	103.853	20.005	3.471	0.492
784.000	469.717	80.007	19.993	103.744	20.002	3.691	0.522
792.000	473.792	80.006	19.993	103.745	20.006	3.394	0.495
800.000	477.838	80.005	19.994	103.713	20.009	3.225	0.495
808.000	481.953	80.007	19.994	103.721	20.012	2.988	0.533
816.000	486.009	80.006	19.994	103.750	20.014	2.871	0.560
824.000	490.121	80.006	19.993	103.801	20.018	2.566	0.479
832.000	494.185	80.004	19.993	103.779	20.011	3.048	0.513
840.000	498.298	80.005	19.994	103.761	20.012	2.965	0.503
848.000	502.334	80.005	19.993	103.766	20.011	3.093	0.478
856.000	506.387	80.005	19.994	103.753	20.015	2.764	0.505
864.000	510.461	80.005	19.993	103.762	20.010	3.154	0.496
872.000	514.526	80.005	19.994	103.776	20.014	2.852	0.505
880.000	518.563	80.005	19.993	103.766	20.015	2.768	0.487
888.000	522.621	80.006	19.992	103.770	20.015	2.757	0.541
896.000	526.684	80.005	19.993	103.747	20.013	2.903	0.503
904.000	530.845	80.005	19.996	103.794	20.018	2.580	0.550
912.000	535.017	80.005	19.992	103.772	20.015	2.787	0.541
920.000	539.232	80.004	19.993	103.755	20.013	2.933	0.533
928.000	543.473	80.004	19.993	103.853	20.021	2.411	0.534
936.000	547.733	80.004	19.995	103.752	20.022	2.312	0.558
944.000	552.171	80.006	19.993	103.764	20.014	2.850	0.486
952.000	556.562	80.006	19.992	103.745	20.020	2.456	0.544
960.000	561.170	80.003	19.993	103.741	20.019	2.525	0.704
968.000	565.340	80.006	19.995	103.767	20.022	2.288	0.552
976.000	569.548	80.007	19.993	103.789	20.024	2.180	0.531
984.000	573.842	80.005	19.994	103.753	20.018	2.563	0.552
992.000	578.356	80.004	19.993	103.760	20.020	2.465	0.549
1000.000	582.685	80.005	19.994	103.715	20.018	2.570	0.491
1008.000	586.952	80.005	19.993	103.744	20.017	2.652	0.563
1016.000	591.094	80.004	19.992	103.796	20.024	2.173	0.507
1024.000	595.227	80.005	19.994	103.788	20.025	2.089	0.518
1032.000	599.212	80.006	19.993	103.726	20.023	2.218	0.498
1039.999	603.195	80.005	19.992	103.748	20.025	2.073	0.528
1047.999	607.273	80.008	19.993	103.732	20.021	2.358	0.512
1055.999	611.377	80.007	19.993	103.762	20.027	1.968	0.520
1063.999	615.376	80.005	19.993	103.733	20.028	1.896	0.513
1071.999	619.189	80.004	19.995	103.732	20.023	2.244	0.490
1080.000	623.043	80.007	19.994	103.750	20.027	1.934	0.479
1088.000	626.987	80.005	19.995	103.746	20.027	1.998	0.528
1095.999	630.968	80.003	19.994	103.758	20.025	2.110	0.489
1103.999	635.057	80.004	19.992	103.783	20.030	1.761	0.497
1111.999	639.140	80.006	19.992	103.752	20.025	2.136	0.505
1120.001	643.283	80.005	19.994	103.735	20.030	1.774	0.538
1127.999	647.334	80.006	19.992	103.741	20.029	1.817	0.469
1135.999	651.444	80.008	19.994	103.725	20.029	1.824	0.482
1143.999	655.580	80.007	19.992	103.743	20.025	2.135	0.511
1151.999	659.779	80.004	19.994	103.762	20.026	2.022	0.544
1160.000	664.066	80.003	19.994	103.766	20.033	1.584	0.534
1167.999	668.279	80.005	19.992	103.755	20.034	1.487	0.537
1176.000	672.472	80.005	19.993	103.705	20.030	1.729	0.520
1184.000	676.613	80.005	19.994	103.727	20.032	1.594	0.506
1191.999	680.690	80.008	19.994	103.734	20.030	1.743	0.512
1199.999	684.814	80.006	19.995	103.737	20.031	1.672	0.527
1208.000	688.867	80.006	19.994	103.754	20.031	1.696	0.522
1216.000	692.903	80.008	19.993	103.723	20.032	1.621	0.496
1223.999	697.020	80.006	19.993	103.724	20.033	1.535	0.545
1232.000	701.161	80.004	19.993	103.712	20.033	1.573	0.522
1239.999	705.357	80.006	19.993	103.715	20.032	1.618	0.555
1248.001	709.590	80.005	19.994	103.745	20.033	1.567	0.532
1255.999	713.784	80.005	19.995	103.708	20.037	1.288	0.528
1264.000	717.781	80.004	19.994	103.734	20.033	1.537	0.458
1271.999	721.801	80.006	19.993	103.755	20.037	1.257	0.469
1279.999	725.535	80.005	19.994	103.725	20.036	1.330	0.462
1287.999	729.375	80.008	19.993	103.723	20.034	1.476	0.478
1296.000	733.327	80.007	19.993	103.753	20.031	1.677	0.484
1303.999	737.198	80.007	19.992	103.742	20.036	1.339	0.476
1311.999	741.085	80.005	19.993	103.716	20.033	1.552	0.511
1317.000	743.539	80.006	19.993	103.727	20.033	1.582	0.506