File: 01_Data/PEX_Pipe/FTIR/IS/PEX_Pipe_IS_S_221108_R2.dpt
7497.03,0.70188
7473.89,0.69250
7450.74,0.69927
7427.6,0.69346
7404.45,0.68591
7381.31,0.68397
7358.16,0.65519
7335.02,0.63811
7311.87,0.60678
7288.73,0.56571
7265.58,0.51772
7242.44,0.46335
7219.29,0.39958
7196.15,0.33830
7173,0.26041
7149.86,0.35115
7126.71,0.37443
7103.57,0.34149
7080.42,0.32041
7057.28,0.29062
7034.13,0.30574
7010.99,0.30962
6987.84,0.32050
6964.7,0.32225
6941.55,0.31917
6918.41,0.35486
6895.26,0.36644
6872.12,0.38258
6848.97,0.39297
6825.83,0.41055
6802.68,0.43563
6779.54,0.45342
6756.39,0.47992
6733.25,0.48040
6710.1,0.49508
6686.96,0.50304
6663.82,0.51464
6640.67,0.52211
6617.53,0.52067
6594.38,0.52354
6571.24,0.51526
6548.09,0.51127
6524.95,0.50374
6501.8,0.48440
6478.66,0.47288
6455.51,0.52752
6432.37,0.54393
6409.22,0.55525
6386.08,0.56289
6362.93,0.57119
6339.79,0.57546
6316.64,0.57522
6293.5,0.58065
6270.35,0.57467
6247.21,0.57785
6224.06,0.57746
6200.92,0.57394
6177.77,0.56820
6154.63,0.56357
6131.48,0.55538
6108.34,0.54947
6085.19,0.53756
6062.05,0.52622
6038.9,0.50764
6015.76,0.48330
5992.61,0.44729
5969.47,0.40601
5946.32,0.36006
5923.18,0.31783
5900.03,0.27919
5876.89,0.22180
5853.74,0.14356
5830.6,0.11102
5807.45,0.09246
5784.31,0.07646
5761.16,0.08356
5738.02,0.10821
5714.87,0.13365
5691.73,0.11461
5668.58,0.09206
5645.44,0.11724
5622.29,0.13589
5599.15,0.14658
5576,0.14401
5552.86,0.13427
5529.71,0.13684
5506.57,0.13468
5483.42,0.13452
5460.28,0.14156
5437.13,0.14344
5413.99,0.15094
5390.84,0.16427
5367.7,0.16886
5344.55,0.18406
5321.41,0.18849
5298.26,0.18261
5275.12,0.18243
5251.97,0.18153
5228.83,0.17721
5205.68,0.17530
5182.54,0.17285
5159.39,0.17204
5136.25,0.17743
5113.1,0.17542
5089.96,0.17573
5066.81,0.17530
5043.67,0.18085
5020.52,0.17674
4997.38,0.17028
4974.23,0.15960
4951.09,0.16660
4927.94,0.17123
4904.8,0.16939
4881.65,0.16405
4858.51,0.16341
4835.36,0.17403
4812.22,0.18084
4789.07,0.18788
4765.93,0.19390
4742.78,0.20243
4719.64,0.20797
4696.49,0.21096
4673.35,0.19988
4650.2,0.20807
4627.06,0.20796
4603.92,0.20300
4580.77,0.19852
4557.63,0.18680
4534.48,0.17091
4511.34,0.15643
4488.19,0.13994
4465.05,0.12329
4441.9,0.10376
4418.76,0.08889
4395.61,0.07292
4372.47,0.06389
4349.32,0.05786
4326.18,0.05294
4303.03,0.05907
4279.89,0.05850
4256.74,0.05507
4233.6,0.05645
4210.45,0.05634
4187.31,0.05533
4164.16,0.05531
4141.02,0.05560
4117.87,0.05513
4094.73,0.05548
4071.58,0.05700
4048.44,0.05778
4025.29,0.05785
4002.15,0.06169
3979,0.06034
3955.86,0.06068
3932.71,0.06039
3909.57,0.05916
3886.42,0.05899
3863.28,0.06045
3840.13,0.06051
3816.99,0.06009
3793.84,0.06087
3770.7,0.06218
3747.55,0.06343
3724.41,0.06281
3701.26,0.05946
3678.12,0.05967
3654.97,0.05782
3631.83,0.05790
3608.68,0.05540
3585.54,0.06033
3562.39,0.06399
3539.25,0.06617
3516.1,0.06563
3492.96,0.06421
3469.81,0.06286
3446.67,0.06033
3423.52,0.06034
3400.38,0.06004
3377.23,0.05840
3354.09,0.05942
3330.94,0.06133
3307.8,0.06137
3284.65,0.06246
3261.51,0.06239
3238.36,0.06219
3215.22,0.06151
3192.07,0.05978
3168.93,0.05888
3145.78,0.05715
3122.64,0.05434
3099.49,0.05211
3076.35,0.05020
3053.2,0.04907
3030.06,0.04876
3006.91,0.04738
2983.77,0.04594
2960.62,0.04236
2937.48,0.03437
2914.33,0.08063
2891.19,0.05816
2868.04,0.05191
2844.9,0.07114
2821.75,0.05903
2798.61,0.05689
2775.46,0.05574
2752.32,0.05532
2729.17,0.05474
2706.03,0.05509
2682.88,0.05416
2659.74,0.05399
2636.59,0.05374
2613.45,0.05370
2590.3,0.05424
2567.16,0.05412
2544.02,0.05453
2520.87,0.05474
2497.73,0.05566
2474.58,0.05561
2451.44,0.05985
2428.29,0.05773
2405.15,0.05711
2382,0.05803
2358.86,0.05562
2335.71,0.05402
2312.57,0.05412
2289.42,0.05513
2266.28,0.05769
2243.13,0.05747
2219.99,0.06375
2196.84,0.06562
2173.7,0.06462
2150.55,0.05927
2127.41,0.06964
2104.26,0.07299
2081.12,0.06968
2057.97,0.06239
2034.83,0.05543
2011.68,0.05539
1988.54,0.07277
1965.39,0.06948
1942.25,0.06770
1919.1,0.06200
1895.96,0.05439
1872.81,0.08055
1849.67,0.09305
1826.52,0.07751
1803.38,0.07304
1780.23,0.07616
1757.09,0.06487
1733.94,0.05877
1710.8,0.06105
1687.65,0.06123
1664.51,0.05788
1641.36,0.05448
1618.22,0.05397
1595.07,0.05344
1571.93,0.05399
1548.78,0.05250
1525.64,0.05209
1502.49,0.05150
1479.35,0.04838
1456.2,0.05597
1433.06,0.05385
1409.91,0.05416
1386.77,0.05329
1363.62,0.05363
1340.48,0.05328
1317.33,0.05301
1294.19,0.05313
1271.04,0.05344
1247.9,0.05344
1224.75,0.05311
1201.61,0.05295
1178.46,0.05277
1155.32,0.05315
1132.17,0.05283
1109.03,0.05271
1085.88,0.05257
1062.74,0.05262
1039.59,0.05321
1016.45,0.05458
993.304,0.05368
970.159,0.05321
947.014,0.05376
923.869,0.05329
900.724,0.05276
877.579,0.05283
854.434,0.05243
831.289,0.05272
808.144,0.05291
784.999,0.05324
761.854,0.05174
738.709,0.04971
715.565,0.05883
692.42,0.05457
669.275,0.05353
646.13,0.05411
622.985,0.05348
599.84,0.05248