File: 01_Data/PEX_Pipe/FTIR/IS/PEX_Pipe_IS_S_221108_R5.dpt
7497.03,0.71419
7473.89,0.69534
7450.74,0.69437
7427.6,0.70085
7404.45,0.68478
7381.31,0.68538
7358.16,0.67023
7335.02,0.64230
7311.87,0.61808
7288.73,0.57425
7265.58,0.50927
7242.44,0.45949
7219.29,0.38711
7196.15,0.33996
7173,0.25246
7149.86,0.34659
7126.71,0.36123
7103.57,0.34175
7080.42,0.31494
7057.28,0.28896
7034.13,0.30588
7010.99,0.30784
6987.84,0.31940
6964.7,0.32539
6941.55,0.33280
6918.41,0.35689
6895.26,0.36993
6872.12,0.38281
6848.97,0.39565
6825.83,0.41417
6802.68,0.43540
6779.54,0.46269
6756.39,0.47713
6733.25,0.48950
6710.1,0.50068
6686.96,0.50725
6663.82,0.51332
6640.67,0.52218
6617.53,0.52566
6594.38,0.52423
6571.24,0.52167
6548.09,0.51481
6524.95,0.50533
6501.8,0.49167
6478.66,0.47824
6455.51,0.53021
6432.37,0.54748
6409.22,0.54964
6386.08,0.56558
6362.93,0.57338
6339.79,0.56994
6316.64,0.57861
6293.5,0.57656
6270.35,0.57682
6247.21,0.58322
6224.06,0.57985
6200.92,0.57446
6177.77,0.57233
6154.63,0.56707
6131.48,0.56207
6108.34,0.55449
6085.19,0.54200
6062.05,0.53142
6038.9,0.51246
6015.76,0.48802
5992.61,0.45292
5969.47,0.40586
5946.32,0.36208
5923.18,0.31748
5900.03,0.27842
5876.89,0.22437
5853.74,0.14636
5830.6,0.11082
5807.45,0.09379
5784.31,0.07464
5761.16,0.08314
5738.02,0.10900
5714.87,0.13149
5691.73,0.11383
5668.58,0.09377
5645.44,0.12193
5622.29,0.13577
5599.15,0.14859
5576,0.14472
5552.86,0.13566
5529.71,0.13668
5506.57,0.13354
5483.42,0.13363
5460.28,0.14130
5437.13,0.14477
5413.99,0.15005
5390.84,0.16643
5367.7,0.17224
5344.55,0.18553
5321.41,0.19020
5298.26,0.18369
5275.12,0.18404
5251.97,0.18063
5228.83,0.17553
5205.68,0.17497
5182.54,0.17271
5159.39,0.17326
5136.25,0.17773
5113.1,0.17576
5089.96,0.17550
5066.81,0.17736
5043.67,0.18166
5020.52,0.17893
4997.38,0.17151
4974.23,0.16030
4951.09,0.16834
4927.94,0.17211
4904.8,0.17045
4881.65,0.16415
4858.51,0.16316
4835.36,0.17380
4812.22,0.18315
4789.07,0.18733
4765.93,0.19632
4742.78,0.20346
4719.64,0.20836
4696.49,0.21256
4673.35,0.20147
4650.2,0.20863
4627.06,0.20910
4603.92,0.20461
4580.77,0.19942
4557.63,0.18806
4534.48,0.17230
4511.34,0.15686
4488.19,0.14077
4465.05,0.12363
4441.9,0.10516
4418.76,0.08919
4395.61,0.07164
4372.47,0.06315
4349.32,0.05784
4326.18,0.05347
4303.03,0.05972
4279.89,0.05828
4256.74,0.05486
4233.6,0.05732
4210.45,0.05665
4187.31,0.05538
4164.16,0.05516
4141.02,0.05476
4117.87,0.05534
4094.73,0.05510
4071.58,0.05730
4048.44,0.05759
4025.29,0.05830
4002.15,0.06173
3979,0.06094
3955.86,0.06138
3932.71,0.05990
3909.57,0.05930
3886.42,0.05936
3863.28,0.06077
3840.13,0.06122
3816.99,0.06006
3793.84,0.06233
3770.7,0.06289
3747.55,0.06414
3724.41,0.06338
3701.26,0.05954
3678.12,0.05977
3654.97,0.05826
3631.83,0.05851
3608.68,0.05548
3585.54,0.06075
3562.39,0.06439
3539.25,0.06657
3516.1,0.06618
3492.96,0.06469
3469.81,0.06293
3446.67,0.06077
3423.52,0.06094
3400.38,0.05956
3377.23,0.05807
3354.09,0.05922
3330.94,0.06141
3307.8,0.06255
3284.65,0.06246
3261.51,0.06226
3238.36,0.06259
3215.22,0.06131
3192.07,0.05943
3168.93,0.05905
3145.78,0.05678
3122.64,0.05605
3099.49,0.05180
3076.35,0.05007
3053.2,0.04969
3030.06,0.04818
3006.91,0.04741
2983.77,0.04576
2960.62,0.04195
2937.48,0.03457
2914.33,0.08092
2891.19,0.05917
2868.04,0.05190
2844.9,0.07164
2821.75,0.05973
2798.61,0.05700
2775.46,0.05611
2752.32,0.05578
2729.17,0.05527
2706.03,0.05507
2682.88,0.05448
2659.74,0.05429
2636.59,0.05395
2613.45,0.05415
2590.3,0.05456
2567.16,0.05531
2544.02,0.05473
2520.87,0.05458
2497.73,0.05572
2474.58,0.05625
2451.44,0.06027
2428.29,0.05840
2405.15,0.05757
2382,0.05844
2358.86,0.05556
2335.71,0.05423
2312.57,0.05436
2289.42,0.05569
2266.28,0.05791
2243.13,0.05800
2219.99,0.06436
2196.84,0.06619
2173.7,0.06499
2150.55,0.05934
2127.41,0.07002
2104.26,0.07349
2081.12,0.06990
2057.97,0.06268
2034.83,0.05549
2011.68,0.05536
1988.54,0.07336
1965.39,0.06978
1942.25,0.06817
1919.1,0.06254
1895.96,0.05459
1872.81,0.08119
1849.67,0.09388
1826.52,0.07851
1803.38,0.07294
1780.23,0.07605
1757.09,0.06519
1733.94,0.05859
1710.8,0.06099
1687.65,0.06167
1664.51,0.05822
1641.36,0.05443
1618.22,0.05439
1595.07,0.05342
1571.93,0.05342
1548.78,0.05249
1525.64,0.05218
1502.49,0.05132
1479.35,0.04880
1456.2,0.05557
1433.06,0.05452
1409.91,0.05377
1386.77,0.05335
1363.62,0.05371
1340.48,0.05341
1317.33,0.05322
1294.19,0.05324
1271.04,0.05385
1247.9,0.05370
1224.75,0.05345
1201.61,0.05323
1178.46,0.05280
1155.32,0.05345
1132.17,0.05270
1109.03,0.05291
1085.88,0.05321
1062.74,0.05299
1039.59,0.05379
1016.45,0.05406
993.304,0.05375
970.159,0.05415
947.014,0.05418
923.869,0.05336
900.724,0.05246
877.579,0.05310
854.434,0.05302
831.289,0.05305
808.144,0.05249
784.999,0.05252
761.854,0.05130
738.709,0.04974
715.565,0.05903
692.42,0.05402
669.275,0.05366
646.13,0.05390
622.985,0.05260
599.84,0.05029