File: 01_Data/PEX_Pipe/FTIR/IS/PEX_Pipe_IS_S_221108_R7.dpt
7497.03,1.00132
7473.89,1.00607
7450.74,1.00041
7427.6,0.99681
7404.45,1.00419
7381.31,1.00028
7358.16,1.00058
7335.02,1.00093
7311.87,0.99159
7288.73,0.99064
7265.58,1.00382
7242.44,0.99378
7219.29,1.01429
7196.15,1.01149
7173,0.99807
7149.86,1.00271
7126.71,0.99115
7103.57,0.99824
7080.42,1.00297
7057.28,1.00654
7034.13,0.99262
7010.99,1.01097
6987.84,1.00496
6964.7,0.99865
6941.55,1.00229
6918.41,0.99676
6895.26,1.00123
6872.12,0.99660
6848.97,0.99939
6825.83,1.00703
6802.68,0.99474
6779.54,0.99920
6756.39,1.00202
6733.25,0.99672
6710.1,1.00013
6686.96,0.99961
6663.82,1.00087
6640.67,0.99652
6617.53,0.99827
6594.38,0.99727
6571.24,1.00001
6548.09,0.99603
6524.95,0.99759
6501.8,1.00219
6478.66,1.00068
6455.51,0.99774
6432.37,0.99887
6409.22,0.99990
6386.08,1.00164
6362.93,1.00189
6339.79,0.99789
6316.64,1.00289
6293.5,1.00154
6270.35,1.00602
6247.21,0.99970
6224.06,0.99833
6200.92,0.99981
6177.77,0.99968
6154.63,0.99804
6131.48,0.99969
6108.34,0.99617
6085.19,1.00363
6062.05,1.00221
6038.9,1.00563
6015.76,1.00059
5992.61,0.99968
5969.47,1.00250
5946.32,1.00008
5923.18,1.00098
5900.03,1.00246
5876.89,0.99945
5853.74,0.99959
5830.6,0.99639
5807.45,0.99690
5784.31,0.99919
5761.16,0.99928
5738.02,1.00240
5714.87,0.99800
5691.73,1.00055
5668.58,1.00267
5645.44,1.00050
5622.29,0.99809
5599.15,0.99972
5576,1.00203
5552.86,1.00086
5529.71,0.99889
5506.57,1.00227
5483.42,1.00049
5460.28,1.00098
5437.13,0.99724
5413.99,1.00061
5390.84,1.00150
5367.7,1.00473
5344.55,1.00074
5321.41,1.00145
5298.26,1.00036
5275.12,1.00105
5251.97,1.00080
5228.83,1.00015
5205.68,0.99979
5182.54,1.00126
5159.39,1.00003
5136.25,0.99937
5113.1,1.00106
5089.96,1.00035
5066.81,1.00166
5043.67,0.99891
5020.52,0.99900
4997.38,1.00030
4974.23,1.00248
4951.09,0.99954
4927.94,0.99813
4904.8,0.99980
4881.65,1.00171
4858.51,0.99938
4835.36,0.99885
4812.22,1.00014
4789.07,1.00120
4765.93,0.99937
4742.78,1.00104
4719.64,1.00101
4696.49,1.00055
4673.35,1.00049
4650.2,1.00067
4627.06,1.00105
4603.92,1.00047
4580.77,1.00035
4557.63,0.99977
4534.48,1.00024
4511.34,1.00064
4488.19,1.00045
4465.05,1.00069
4441.9,1.00070
4418.76,0.99985
4395.61,1.00052
4372.47,1.00050
4349.32,1.00069
4326.18,0.99943
4303.03,0.99979
4279.89,0.99935
4256.74,1.00025
4233.6,1.00020
4210.45,1.00035
4187.31,1.00109
4164.16,1.00123
4141.02,0.99948
4117.87,0.99972
4094.73,0.99982
4071.58,1.00078
4048.44,0.99960
4025.29,0.99944
4002.15,1.00064
3979,0.99959
3955.86,1.00066
3932.71,1.00053
3909.57,0.99977
3886.42,1.00161
3863.28,0.99995
3840.13,0.99967
3816.99,0.99986
3793.84,1.00026
3770.7,1.00069
3747.55,0.99989
3724.41,1.00013
3701.26,1.00061
3678.12,1.00024
3654.97,0.99990
3631.83,1.00066
3608.68,0.99973
3585.54,1.00045
3562.39,1.00071
3539.25,1.00082
3516.1,1.00054
3492.96,0.99970
3469.81,0.99979
3446.67,1.00136
3423.52,0.99980
3400.38,1.00159
3377.23,0.99974
3354.09,1.00022
3330.94,1.00043
3307.8,1.00072
3284.65,0.99923
3261.51,0.99977
3238.36,0.99951
3215.22,1.00003
3192.07,1.00058
3168.93,1.00130
3145.78,1.00062
3122.64,0.99955
3099.49,1.00008
3076.35,0.99983
3053.2,1.00037
3030.06,0.99952
3006.91,1.00008
2983.77,0.99983
2960.62,1.00001
2937.48,0.99985
2914.33,0.99992
2891.19,1.00051
2868.04,0.99973
2844.9,0.99978
2821.75,1.00045
2798.61,1.00053
2775.46,1.00039
2752.32,1.00044
2729.17,0.99969
2706.03,1.00088
2682.88,1.00000
2659.74,0.99969
2636.59,0.99996
2613.45,1.00020
2590.3,1.00040
2567.16,0.99993
2544.02,1.00083
2520.87,1.00075
2497.73,1.00089
2474.58,0.99962
2451.44,1.00015
2428.29,1.00009
2405.15,1.00051
2382,1.00041
2358.86,1.00054
2335.71,1.00068
2312.57,1.00030
2289.42,1.00000
2266.28,1.00002
2243.13,1.00031
2219.99,1.00005
2196.84,1.00007
2173.7,1.00025
2150.55,1.00038
2127.41,0.99968
2104.26,1.00033
2081.12,1.00038
2057.97,1.00025
2034.83,0.99972
2011.68,0.99961
1988.54,1.00017
1965.39,1.00002
1942.25,1.00077
1919.1,1.00016
1895.96,1.00012
1872.81,1.00039
1849.67,0.99984
1826.52,1.00016
1803.38,0.99993
1780.23,1.00048
1757.09,1.00066
1733.94,1.00091
1710.8,1.00019
1687.65,1.00014
1664.51,1.00018
1641.36,1.00012
1618.22,1.00050
1595.07,1.00064
1571.93,1.00023
1548.78,1.00001
1525.64,1.00029
1502.49,1.00050
1479.35,1.00031
1456.2,1.00051
1433.06,0.99979
1409.91,1.00044
1386.77,1.00015
1363.62,0.99987
1340.48,1.00003
1317.33,1.00092
1294.19,0.99991
1271.04,1.00030
1247.9,1.00029
1224.75,1.00043
1201.61,0.99956
1178.46,0.99989
1155.32,1.00032
1132.17,1.00004
1109.03,0.99981
1085.88,1.00082
1062.74,1.00031
1039.59,1.00054
1016.45,1.00059
993.304,1.00037
970.159,1.00003
947.014,0.99971
923.869,1.00072
900.724,1.00078
877.579,1.00038
854.434,0.99965
831.289,1.00020
808.144,1.00010
784.999,0.99933
761.854,1.00057
738.709,0.99919
715.565,0.99972
692.42,1.00162
669.275,1.00027
646.13,0.99929
622.985,1.00121
599.84,1.00296