File: 01_Data/PEX_Pipe/FTIR/IS/PEX_Pipe_IS_S_221108_R6.dpt
7497.03,0.69227
7473.89,0.70382
7450.74,0.70170
7427.6,0.69240
7404.45,0.67777
7381.31,0.67117
7358.16,0.65895
7335.02,0.64277
7311.87,0.61887
7288.73,0.56094
7265.58,0.51036
7242.44,0.45643
7219.29,0.39399
7196.15,0.32740
7173,0.25694
7149.86,0.35082
7126.71,0.36231
7103.57,0.34146
7080.42,0.32686
7057.28,0.29216
7034.13,0.30606
7010.99,0.30956
6987.84,0.31851
6964.7,0.31889
6941.55,0.32408
6918.41,0.35066
6895.26,0.35812
6872.12,0.38607
6848.97,0.39024
6825.83,0.40794
6802.68,0.43634
6779.54,0.46062
6756.39,0.47132
6733.25,0.48474
6710.1,0.50092
6686.96,0.50379
6663.82,0.51387
6640.67,0.52352
6617.53,0.52378
6594.38,0.52297
6571.24,0.51521
6548.09,0.51404
6524.95,0.50509
6501.8,0.48769
6478.66,0.47313
6455.51,0.52299
6432.37,0.54697
6409.22,0.55088
6386.08,0.56084
6362.93,0.56583
6339.79,0.57492
6316.64,0.57694
6293.5,0.57896
6270.35,0.57829
6247.21,0.57641
6224.06,0.57698
6200.92,0.57325
6177.77,0.57147
6154.63,0.56319
6131.48,0.55716
6108.34,0.54906
6085.19,0.53741
6062.05,0.52623
6038.9,0.50922
6015.76,0.48542
5992.61,0.45178
5969.47,0.40474
5946.32,0.36042
5923.18,0.31641
5900.03,0.27712
5876.89,0.22168
5853.74,0.14500
5830.6,0.11150
5807.45,0.09323
5784.31,0.07711
5761.16,0.08194
5738.02,0.10856
5714.87,0.13514
5691.73,0.11349
5668.58,0.09160
5645.44,0.11799
5622.29,0.13438
5599.15,0.14719
5576,0.14319
5552.86,0.13528
5529.71,0.13398
5506.57,0.13381
5483.42,0.13284
5460.28,0.14150
5437.13,0.14460
5413.99,0.15136
5390.84,0.16517
5367.7,0.16961
5344.55,0.18530
5321.41,0.18761
5298.26,0.18338
5275.12,0.18218
5251.97,0.18040
5228.83,0.17593
5205.68,0.17400
5182.54,0.17289
5159.39,0.17349
5136.25,0.17727
5113.1,0.17612
5089.96,0.17638
5066.81,0.17732
5043.67,0.18132
5020.52,0.17714
4997.38,0.17146
4974.23,0.15996
4951.09,0.16496
4927.94,0.17151
4904.8,0.16905
4881.65,0.16429
4858.51,0.16342
4835.36,0.17346
4812.22,0.18178
4789.07,0.18655
4765.93,0.19481
4742.78,0.20170
4719.64,0.20729
4696.49,0.21052
4673.35,0.20000
4650.2,0.20799
4627.06,0.20847
4603.92,0.20442
4580.77,0.19769
4557.63,0.18684
4534.48,0.17117
4511.34,0.15669
4488.19,0.14023
4465.05,0.12197
4441.9,0.10457
4418.76,0.08841
4395.61,0.07138
4372.47,0.06304
4349.32,0.05843
4326.18,0.05343
4303.03,0.05990
4279.89,0.05889
4256.74,0.05435
4233.6,0.05680
4210.45,0.05639
4187.31,0.05551
4164.16,0.05477
4141.02,0.05498
4117.87,0.05563
4094.73,0.05479
4071.58,0.05758
4048.44,0.05792
4025.29,0.05828
4002.15,0.06117
3979,0.06006
3955.86,0.06128
3932.71,0.05999
3909.57,0.05930
3886.42,0.05994
3863.28,0.06055
3840.13,0.06096
3816.99,0.05968
3793.84,0.06201
3770.7,0.06293
3747.55,0.06347
3724.41,0.06248
3701.26,0.05956
3678.12,0.05895
3654.97,0.05800
3631.83,0.05845
3608.68,0.05418
3585.54,0.06133
3562.39,0.06421
3539.25,0.06553
3516.1,0.06538
3492.96,0.06373
3469.81,0.06316
3446.67,0.06051
3423.52,0.05964
3400.38,0.05960
3377.23,0.05847
3354.09,0.06028
3330.94,0.06096
3307.8,0.06185
3284.65,0.06271
3261.51,0.06245
3238.36,0.06223
3215.22,0.06103
3192.07,0.06014
3168.93,0.05852
3145.78,0.05753
3122.64,0.05476
3099.49,0.05194
3076.35,0.05016
3053.2,0.04981
3030.06,0.04852
3006.91,0.04724
2983.77,0.04534
2960.62,0.04238
2937.48,0.03422
2914.33,0.08001
2891.19,0.05814
2868.04,0.05175
2844.9,0.07130
2821.75,0.05915
2798.61,0.05736
2775.46,0.05633
2752.32,0.05522
2729.17,0.05528
2706.03,0.05436
2682.88,0.05436
2659.74,0.05405
2636.59,0.05379
2613.45,0.05382
2590.3,0.05401
2567.16,0.05448
2544.02,0.05471
2520.87,0.05473
2497.73,0.05538
2474.58,0.05582
2451.44,0.05963
2428.29,0.05796
2405.15,0.05715
2382,0.05786
2358.86,0.05505
2335.71,0.05373
2312.57,0.05439
2289.42,0.05495
2266.28,0.05784
2243.13,0.05735
2219.99,0.06402
2196.84,0.06582
2173.7,0.06471
2150.55,0.05937
2127.41,0.06940
2104.26,0.07326
2081.12,0.06983
2057.97,0.06248
2034.83,0.05529
2011.68,0.05533
1988.54,0.07268
1965.39,0.06988
1942.25,0.06811
1919.1,0.06213
1895.96,0.05436
1872.81,0.08025
1849.67,0.09351
1826.52,0.07796
1803.38,0.07293
1780.23,0.07625
1757.09,0.06451
1733.94,0.05870
1710.8,0.06146
1687.65,0.06123
1664.51,0.05817
1641.36,0.05424
1618.22,0.05387
1595.07,0.05365
1571.93,0.05298
1548.78,0.05267
1525.64,0.05199
1502.49,0.05108
1479.35,0.04801
1456.2,0.05597
1433.06,0.05425
1409.91,0.05384
1386.77,0.05339
1363.62,0.05304
1340.48,0.05318
1317.33,0.05329
1294.19,0.05321
1271.04,0.05299
1247.9,0.05364
1224.75,0.05311
1201.61,0.05295
1178.46,0.05268
1155.32,0.05249
1132.17,0.05214
1109.03,0.05254
1085.88,0.05315
1062.74,0.05266
1039.59,0.05377
1016.45,0.05380
993.304,0.05366
970.159,0.05310
947.014,0.05391
923.869,0.05327
900.724,0.05351
877.579,0.05252
854.434,0.05281
831.289,0.05223
808.144,0.05263
784.999,0.05268
761.854,0.05199
738.709,0.04928
715.565,0.05923
692.42,0.05454
669.275,0.05303
646.13,0.05244
622.985,0.05235
599.84,0.05301