File: 01_Data/PEX_Pipe/FTIR/IS/PEX_Pipe_IS_S_221108_R4.dpt
7497.03,0.71065
7473.89,0.70687
7450.74,0.69507
7427.6,0.69164
7404.45,0.67597
7381.31,0.67261
7358.16,0.66806
7335.02,0.63628
7311.87,0.61409
7288.73,0.56322
7265.58,0.52121
7242.44,0.46097
7219.29,0.39922
7196.15,0.33399
7173,0.25469
7149.86,0.34654
7126.71,0.36611
7103.57,0.33011
7080.42,0.31738
7057.28,0.29255
7034.13,0.30404
7010.99,0.30768
6987.84,0.32154
6964.7,0.31486
6941.55,0.32508
6918.41,0.34709
6895.26,0.35853
6872.12,0.37659
6848.97,0.39440
6825.83,0.40882
6802.68,0.42686
6779.54,0.45864
6756.39,0.47722
6733.25,0.48204
6710.1,0.49121
6686.96,0.50919
6663.82,0.50906
6640.67,0.51785
6617.53,0.52133
6594.38,0.52364
6571.24,0.52026
6548.09,0.50754
6524.95,0.50298
6501.8,0.48439
6478.66,0.47214
6455.51,0.52314
6432.37,0.54128
6409.22,0.54818
6386.08,0.55522
6362.93,0.56586
6339.79,0.57456
6316.64,0.57613
6293.5,0.57483
6270.35,0.57335
6247.21,0.57394
6224.06,0.57367
6200.92,0.57304
6177.77,0.57039
6154.63,0.55914
6131.48,0.55508
6108.34,0.54652
6085.19,0.53605
6062.05,0.52993
6038.9,0.51011
6015.76,0.48543
5992.61,0.44772
5969.47,0.40381
5946.32,0.35691
5923.18,0.31810
5900.03,0.27598
5876.89,0.22090
5853.74,0.14568
5830.6,0.11263
5807.45,0.09376
5784.31,0.07386
5761.16,0.08364
5738.02,0.10835
5714.87,0.13234
5691.73,0.11638
5668.58,0.09158
5645.44,0.11859
5622.29,0.13533
5599.15,0.14761
5576,0.14240
5552.86,0.13553
5529.71,0.13543
5506.57,0.13403
5483.42,0.13177
5460.28,0.14084
5437.13,0.14185
5413.99,0.14896
5390.84,0.16329
5367.7,0.16918
5344.55,0.18405
5321.41,0.18805
5298.26,0.18215
5275.12,0.18309
5251.97,0.18073
5228.83,0.17543
5205.68,0.17482
5182.54,0.17129
5159.39,0.17210
5136.25,0.17755
5113.1,0.17560
5089.96,0.17347
5066.81,0.17685
5043.67,0.17990
5020.52,0.17746
4997.38,0.16999
4974.23,0.15891
4951.09,0.16547
4927.94,0.17126
4904.8,0.16815
4881.65,0.16325
4858.51,0.16155
4835.36,0.17293
4812.22,0.17997
4789.07,0.18542
4765.93,0.19418
4742.78,0.20106
4719.64,0.20717
4696.49,0.20916
4673.35,0.19970
4650.2,0.20595
4627.06,0.20702
4603.92,0.20335
4580.77,0.19777
4557.63,0.18513
4534.48,0.17162
4511.34,0.15665
4488.19,0.13991
4465.05,0.12271
4441.9,0.10410
4418.76,0.08912
4395.61,0.07082
4372.47,0.06247
4349.32,0.05787
4326.18,0.05331
4303.03,0.05894
4279.89,0.05918
4256.74,0.05435
4233.6,0.05684
4210.45,0.05642
4187.31,0.05487
4164.16,0.05411
4141.02,0.05502
4117.87,0.05527
4094.73,0.05504
4071.58,0.05717
4048.44,0.05740
4025.29,0.05816
4002.15,0.06083
3979,0.05986
3955.86,0.06071
3932.71,0.05960
3909.57,0.05928
3886.42,0.05870
3863.28,0.05931
3840.13,0.06084
3816.99,0.06022
3793.84,0.06165
3770.7,0.06291
3747.55,0.06374
3724.41,0.06356
3701.26,0.05927
3678.12,0.05939
3654.97,0.05798
3631.83,0.05805
3608.68,0.05655
3585.54,0.06104
3562.39,0.06402
3539.25,0.06607
3516.1,0.06541
3492.96,0.06346
3469.81,0.06157
3446.67,0.06038
3423.52,0.06053
3400.38,0.06048
3377.23,0.05907
3354.09,0.05954
3330.94,0.06054
3307.8,0.06197
3284.65,0.06240
3261.51,0.06218
3238.36,0.06214
3215.22,0.06082
3192.07,0.06004
3168.93,0.05828
3145.78,0.05737
3122.64,0.05467
3099.49,0.05203
3076.35,0.05036
3053.2,0.04912
3030.06,0.04871
3006.91,0.04674
2983.77,0.04552
2960.62,0.04193
2937.48,0.03412
2914.33,0.08026
2891.19,0.05842
2868.04,0.05165
2844.9,0.07091
2821.75,0.05903
2798.61,0.05650
2775.46,0.05557
2752.32,0.05527
2729.17,0.05458
2706.03,0.05476
2682.88,0.05391
2659.74,0.05421
2636.59,0.05388
2613.45,0.05406
2590.3,0.05431
2567.16,0.05409
2544.02,0.05443
2520.87,0.05462
2497.73,0.05514
2474.58,0.05551
2451.44,0.05916
2428.29,0.05745
2405.15,0.05689
2382,0.05794
2358.86,0.05546
2335.71,0.05380
2312.57,0.05410
2289.42,0.05505
2266.28,0.05728
2243.13,0.05733
2219.99,0.06358
2196.84,0.06539
2173.7,0.06439
2150.55,0.05909
2127.41,0.06879
2104.26,0.07294
2081.12,0.06951
2057.97,0.06194
2034.83,0.05486
2011.68,0.05515
1988.54,0.07265
1965.39,0.06941
1942.25,0.06757
1919.1,0.06193
1895.96,0.05425
1872.81,0.07980
1849.67,0.09295
1826.52,0.07748
1803.38,0.07261
1780.23,0.07593
1757.09,0.06446
1733.94,0.05810
1710.8,0.06063
1687.65,0.06102
1664.51,0.05785
1641.36,0.05380
1618.22,0.05423
1595.07,0.05305
1571.93,0.05268
1548.78,0.05183
1525.64,0.05203
1502.49,0.05093
1479.35,0.04839
1456.2,0.05584
1433.06,0.05395
1409.91,0.05354
1386.77,0.05301
1363.62,0.05304
1340.48,0.05323
1317.33,0.05284
1294.19,0.05298
1271.04,0.05314
1247.9,0.05335
1224.75,0.05265
1201.61,0.05287
1178.46,0.05256
1155.32,0.05314
1132.17,0.05232
1109.03,0.05253
1085.88,0.05285
1062.74,0.05381
1039.59,0.05363
1016.45,0.05411
993.304,0.05401
970.159,0.05350
947.014,0.05354
923.869,0.05359
900.724,0.05312
877.579,0.05286
854.434,0.05220
831.289,0.05265
808.144,0.05242
784.999,0.05278
761.854,0.05173
738.709,0.04947
715.565,0.05895
692.42,0.05410
669.275,0.05369
646.13,0.05378
622.985,0.05149
599.84,0.05470