File: 01_Data/PEX_Pipe/FTIR/IS/PEX_Pipe_IS_S_221108_R8.dpt
7497.03,0.69855
7473.89,0.69519
7450.74,0.69836
7427.6,0.70087
7404.45,0.68115
7381.31,0.68224
7358.16,0.66904
7335.02,0.63767
7311.87,0.61255
7288.73,0.55931
7265.58,0.51966
7242.44,0.46153
7219.29,0.39787
7196.15,0.33300
7173,0.26642
7149.86,0.34809
7126.71,0.36878
7103.57,0.34697
7080.42,0.32007
7057.28,0.29383
7034.13,0.30807
7010.99,0.30798
6987.84,0.31776
6964.7,0.32105
6941.55,0.33064
6918.41,0.35050
6895.26,0.35963
6872.12,0.38152
6848.97,0.39164
6825.83,0.40384
6802.68,0.43247
6779.54,0.46082
6756.39,0.47472
6733.25,0.48749
6710.1,0.49591
6686.96,0.50742
6663.82,0.51249
6640.67,0.52310
6617.53,0.52047
6594.38,0.52560
6571.24,0.51974
6548.09,0.51472
6524.95,0.50486
6501.8,0.48359
6478.66,0.47379
6455.51,0.52828
6432.37,0.54457
6409.22,0.55769
6386.08,0.56152
6362.93,0.56852
6339.79,0.57447
6316.64,0.57817
6293.5,0.57741
6270.35,0.58249
6247.21,0.58201
6224.06,0.57896
6200.92,0.57967
6177.77,0.57161
6154.63,0.56578
6131.48,0.56170
6108.34,0.55367
6085.19,0.53814
6062.05,0.52960
6038.9,0.51178
6015.76,0.48793
5992.61,0.45302
5969.47,0.40609
5946.32,0.36000
5923.18,0.32037
5900.03,0.27898
5876.89,0.21992
5853.74,0.14643
5830.6,0.11305
5807.45,0.09591
5784.31,0.07747
5761.16,0.08391
5738.02,0.10867
5714.87,0.13473
5691.73,0.11658
5668.58,0.09124
5645.44,0.11833
5622.29,0.13413
5599.15,0.14915
5576,0.14249
5552.86,0.13548
5529.71,0.13820
5506.57,0.13493
5483.42,0.13418
5460.28,0.14140
5437.13,0.14443
5413.99,0.14913
5390.84,0.16418
5367.7,0.17255
5344.55,0.18440
5321.41,0.19017
5298.26,0.18328
5275.12,0.18427
5251.97,0.18227
5228.83,0.17826
5205.68,0.17601
5182.54,0.17287
5159.39,0.17418
5136.25,0.17862
5113.1,0.17679
5089.96,0.17581
5066.81,0.17772
5043.67,0.18157
5020.52,0.17810
4997.38,0.17068
4974.23,0.16040
4951.09,0.16705
4927.94,0.17230
4904.8,0.16954
4881.65,0.16430
4858.51,0.16340
4835.36,0.17477
4812.22,0.18159
4789.07,0.18820
4765.93,0.19452
4742.78,0.20027
4719.64,0.20868
4696.49,0.21162
4673.35,0.20150
4650.2,0.20840
4627.06,0.20965
4603.92,0.20549
4580.77,0.20007
4557.63,0.18655
4534.48,0.17250
4511.34,0.15661
4488.19,0.13991
4465.05,0.12349
4441.9,0.10498
4418.76,0.08903
4395.61,0.07196
4372.47,0.06376
4349.32,0.05754
4326.18,0.05280
4303.03,0.05956
4279.89,0.05919
4256.74,0.05430
4233.6,0.05677
4210.45,0.05594
4187.31,0.05537
4164.16,0.05545
4141.02,0.05537
4117.87,0.05519
4094.73,0.05567
4071.58,0.05693
4048.44,0.05751
4025.29,0.05922
4002.15,0.06174
3979,0.06037
3955.86,0.06181
3932.71,0.06028
3909.57,0.05960
3886.42,0.05983
3863.28,0.06086
3840.13,0.06066
3816.99,0.06006
3793.84,0.06201
3770.7,0.06264
3747.55,0.06355
3724.41,0.06332
3701.26,0.05979
3678.12,0.05945
3654.97,0.05816
3631.83,0.05882
3608.68,0.05552
3585.54,0.06078
3562.39,0.06447
3539.25,0.06634
3516.1,0.06493
3492.96,0.06505
3469.81,0.06239
3446.67,0.06106
3423.52,0.05971
3400.38,0.06046
3377.23,0.05828
3354.09,0.06025
3330.94,0.06124
3307.8,0.06238
3284.65,0.06244
3261.51,0.06223
3238.36,0.06276
3215.22,0.06146
3192.07,0.05994
3168.93,0.05871
3145.78,0.05719
3122.64,0.05568
3099.49,0.05238
3076.35,0.05044
3053.2,0.04951
3030.06,0.04814
3006.91,0.04770
2983.77,0.04508
2960.62,0.04198
2937.48,0.03475
2914.33,0.08102
2891.19,0.05925
2868.04,0.05178
2844.9,0.07190
2821.75,0.05948
2798.61,0.05694
2775.46,0.05611
2752.32,0.05528
2729.17,0.05507
2706.03,0.05494
2682.88,0.05484
2659.74,0.05453
2636.59,0.05429
2613.45,0.05432
2590.3,0.05446
2567.16,0.05445
2544.02,0.05503
2520.87,0.05500
2497.73,0.05541
2474.58,0.05570
2451.44,0.05985
2428.29,0.05766
2405.15,0.05755
2382,0.05814
2358.86,0.05571
2335.71,0.05384
2312.57,0.05418
2289.42,0.05513
2266.28,0.05745
2243.13,0.05777
2219.99,0.06436
2196.84,0.06607
2173.7,0.06503
2150.55,0.05909
2127.41,0.06998
2104.26,0.07377
2081.12,0.07030
2057.97,0.06264
2034.83,0.05575
2011.68,0.05559
1988.54,0.07373
1965.39,0.06985
1942.25,0.06788
1919.1,0.06257
1895.96,0.05454
1872.81,0.08082
1849.67,0.09383
1826.52,0.07836
1803.38,0.07311
1780.23,0.07682
1757.09,0.06536
1733.94,0.05883
1710.8,0.06133
1687.65,0.06153
1664.51,0.05811
1641.36,0.05472
1618.22,0.05406
1595.07,0.05324
1571.93,0.05381
1548.78,0.05239
1525.64,0.05227
1502.49,0.05102
1479.35,0.04817
1456.2,0.05615
1433.06,0.05451
1409.91,0.05424
1386.77,0.05332
1363.62,0.05372
1340.48,0.05360
1317.33,0.05355
1294.19,0.05325
1271.04,0.05328
1247.9,0.05341
1224.75,0.05307
1201.61,0.05288
1178.46,0.05293
1155.32,0.05310
1132.17,0.05268
1109.03,0.05317
1085.88,0.05248
1062.74,0.05340
1039.59,0.05372
1016.45,0.05434
993.304,0.05378
970.159,0.05323
947.014,0.05428
923.869,0.05396
900.724,0.05276
877.579,0.05309
854.434,0.05298
831.289,0.05270
808.144,0.05355
784.999,0.05247
761.854,0.05145
738.709,0.04896
715.565,0.05850
692.42,0.05408
669.275,0.05480
646.13,0.05355
622.985,0.05300
599.84,0.05235