File: 01_Data/PEX_Pipe/FTIR/IS/PEX_Pipe_IS_S_221108_R1.dpt
7497.03,0.69059
7473.89,0.70180
7450.74,0.69339
7427.6,0.68657
7404.45,0.68238
7381.31,0.67286
7358.16,0.66480
7335.02,0.64223
7311.87,0.60449
7288.73,0.55654
7265.58,0.51513
7242.44,0.46407
7219.29,0.39576
7196.15,0.33462
7173,0.25955
7149.86,0.34349
7126.71,0.37330
7103.57,0.34225
7080.42,0.31715
7057.28,0.29410
7034.13,0.30753
7010.99,0.30869
6987.84,0.31457
6964.7,0.31536
6941.55,0.32435
6918.41,0.35130
6895.26,0.36326
6872.12,0.38003
6848.97,0.39340
6825.83,0.40788
6802.68,0.43239
6779.54,0.46192
6756.39,0.47442
6733.25,0.48084
6710.1,0.49733
6686.96,0.50331
6663.82,0.51568
6640.67,0.52203
6617.53,0.52258
6594.38,0.51952
6571.24,0.51684
6548.09,0.50713
6524.95,0.50359
6501.8,0.48584
6478.66,0.46966
6455.51,0.52507
6432.37,0.53917
6409.22,0.55073
6386.08,0.55897
6362.93,0.56649
6339.79,0.57258
6316.64,0.57379
6293.5,0.57291
6270.35,0.57282
6247.21,0.57425
6224.06,0.57505
6200.92,0.57061
6177.77,0.56531
6154.63,0.56259
6131.48,0.55482
6108.34,0.54595
6085.19,0.53193
6062.05,0.52192
6038.9,0.50924
6015.76,0.48134
5992.61,0.44620
5969.47,0.40486
5946.32,0.35954
5923.18,0.31983
5900.03,0.27818
5876.89,0.21984
5853.74,0.14471
5830.6,0.11339
5807.45,0.09363
5784.31,0.07595
5761.16,0.08255
5738.02,0.10759
5714.87,0.13493
5691.73,0.11574
5668.58,0.09273
5645.44,0.11733
5622.29,0.13583
5599.15,0.14560
5576,0.14126
5552.86,0.13361
5529.71,0.13681
5506.57,0.13420
5483.42,0.13249
5460.28,0.13943
5437.13,0.14341
5413.99,0.15061
5390.84,0.16458
5367.7,0.17031
5344.55,0.18402
5321.41,0.18767
5298.26,0.18196
5275.12,0.18220
5251.97,0.17947
5228.83,0.17502
5205.68,0.17376
5182.54,0.17230
5159.39,0.17196
5136.25,0.17752
5113.1,0.17399
5089.96,0.17419
5066.81,0.17592
5043.67,0.17991
5020.52,0.17573
4997.38,0.16921
4974.23,0.15826
4951.09,0.16563
4927.94,0.17052
4904.8,0.16966
4881.65,0.16436
4858.51,0.16278
4835.36,0.17279
4812.22,0.18070
4789.07,0.18629
4765.93,0.19407
4742.78,0.20051
4719.64,0.20733
4696.49,0.21026
4673.35,0.19965
4650.2,0.20732
4627.06,0.20741
4603.92,0.20295
4580.77,0.19780
4557.63,0.18609
4534.48,0.17041
4511.34,0.15636
4488.19,0.13906
4465.05,0.12383
4441.9,0.10351
4418.76,0.08940
4395.61,0.07148
4372.47,0.06309
4349.32,0.05781
4326.18,0.05319
4303.03,0.05955
4279.89,0.05838
4256.74,0.05529
4233.6,0.05645
4210.45,0.05585
4187.31,0.05483
4164.16,0.05551
4141.02,0.05571
4117.87,0.05489
4094.73,0.05605
4071.58,0.05684
4048.44,0.05845
4025.29,0.05775
4002.15,0.06070
3979,0.05994
3955.86,0.06025
3932.71,0.05997
3909.57,0.05931
3886.42,0.05941
3863.28,0.05997
3840.13,0.06092
3816.99,0.06000
3793.84,0.06145
3770.7,0.06301
3747.55,0.06313
3724.41,0.06311
3701.26,0.05955
3678.12,0.05886
3654.97,0.05734
3631.83,0.05823
3608.68,0.05473
3585.54,0.06079
3562.39,0.06408
3539.25,0.06582
3516.1,0.06525
3492.96,0.06400
3469.81,0.06226
3446.67,0.06055
3423.52,0.05986
3400.38,0.05948
3377.23,0.05815
3354.09,0.06000
3330.94,0.06074
3307.8,0.06190
3284.65,0.06183
3261.51,0.06246
3238.36,0.06143
3215.22,0.06163
3192.07,0.05953
3168.93,0.05852
3145.78,0.05618
3122.64,0.05515
3099.49,0.05222
3076.35,0.05011
3053.2,0.04971
3030.06,0.04787
3006.91,0.04740
2983.77,0.04552
2960.62,0.04209
2937.48,0.03400
2914.33,0.07978
2891.19,0.05846
2868.04,0.05150
2844.9,0.07107
2821.75,0.05920
2798.61,0.05662
2775.46,0.05511
2752.32,0.05558
2729.17,0.05497
2706.03,0.05460
2682.88,0.05442
2659.74,0.05380
2636.59,0.05419
2613.45,0.05426
2590.3,0.05408
2567.16,0.05389
2544.02,0.05413
2520.87,0.05447
2497.73,0.05544
2474.58,0.05576
2451.44,0.05973
2428.29,0.05728
2405.15,0.05691
2382,0.05798
2358.86,0.05517
2335.71,0.05373
2312.57,0.05383
2289.42,0.05484
2266.28,0.05773
2243.13,0.05741
2219.99,0.06380
2196.84,0.06525
2173.7,0.06432
2150.55,0.05898
2127.41,0.06921
2104.26,0.07335
2081.12,0.06957
2057.97,0.06211
2034.83,0.05523
2011.68,0.05533
1988.54,0.07288
1965.39,0.06918
1942.25,0.06710
1919.1,0.06196
1895.96,0.05401
1872.81,0.08021
1849.67,0.09292
1826.52,0.07744
1803.38,0.07279
1780.23,0.07593
1757.09,0.06461
1733.94,0.05825
1710.8,0.06060
1687.65,0.06102
1664.51,0.05774
1641.36,0.05395
1618.22,0.05385
1595.07,0.05324
1571.93,0.05318
1548.78,0.05224
1525.64,0.05167
1502.49,0.05094
1479.35,0.04851
1456.2,0.05554
1433.06,0.05412
1409.91,0.05382
1386.77,0.05316
1363.62,0.05317
1340.48,0.05365
1317.33,0.05312
1294.19,0.05311
1271.04,0.05296
1247.9,0.05274
1224.75,0.05340
1201.61,0.05249
1178.46,0.05287
1155.32,0.05301
1132.17,0.05302
1109.03,0.05274
1085.88,0.05321
1062.74,0.05336
1039.59,0.05399
1016.45,0.05427
993.304,0.05327
970.159,0.05372
947.014,0.05398
923.869,0.05323
900.724,0.05326
877.579,0.05249
854.434,0.05267
831.289,0.05253
808.144,0.05265
784.999,0.05254
761.854,0.05181
738.709,0.04932
715.565,0.05865
692.42,0.05406
669.275,0.05323
646.13,0.05077
622.985,0.05374
599.84,0.05412