File: 01_Data/PEX_Pipe/FTIR/IS/PEX_Pipe_IS_S_221108_R3.dpt
7497.03,0.69870
7473.89,0.69786
7450.74,0.69944
7427.6,0.69154
7404.45,0.69165
7381.31,0.67492
7358.16,0.66571
7335.02,0.63851
7311.87,0.61263
7288.73,0.56833
7265.58,0.51897
7242.44,0.45250
7219.29,0.39494
7196.15,0.33150
7173,0.25963
7149.86,0.34971
7126.71,0.37572
7103.57,0.33687
7080.42,0.31881
7057.28,0.29376
7034.13,0.30286
7010.99,0.30338
6987.84,0.32204
6964.7,0.32343
6941.55,0.32438
6918.41,0.35361
6895.26,0.36234
6872.12,0.38189
6848.97,0.39249
6825.83,0.41039
6802.68,0.43426
6779.54,0.45928
6756.39,0.47064
6733.25,0.48403
6710.1,0.49458
6686.96,0.50785
6663.82,0.51460
6640.67,0.51937
6617.53,0.52065
6594.38,0.52195
6571.24,0.51854
6548.09,0.51336
6524.95,0.50341
6501.8,0.48520
6478.66,0.47340
6455.51,0.52670
6432.37,0.54491
6409.22,0.55507
6386.08,0.55798
6362.93,0.56889
6339.79,0.57761
6316.64,0.57778
6293.5,0.58191
6270.35,0.57611
6247.21,0.58127
6224.06,0.57446
6200.92,0.57405
6177.77,0.56647
6154.63,0.56155
6131.48,0.55870
6108.34,0.54867
6085.19,0.53861
6062.05,0.52563
6038.9,0.51011
6015.76,0.48483
5992.61,0.44979
5969.47,0.40687
5946.32,0.35824
5923.18,0.32040
5900.03,0.27655
5876.89,0.22166
5853.74,0.14589
5830.6,0.11247
5807.45,0.09267
5784.31,0.07575
5761.16,0.08378
5738.02,0.10773
5714.87,0.13482
5691.73,0.11484
5668.58,0.09142
5645.44,0.11796
5622.29,0.13497
5599.15,0.14751
5576,0.14412
5552.86,0.13463
5529.71,0.13374
5506.57,0.13497
5483.42,0.13435
5460.28,0.14057
5437.13,0.14225
5413.99,0.15044
5390.84,0.16494
5367.7,0.17242
5344.55,0.18525
5321.41,0.18845
5298.26,0.18352
5275.12,0.18297
5251.97,0.18141
5228.83,0.17603
5205.68,0.17395
5182.54,0.17324
5159.39,0.17243
5136.25,0.17815
5113.1,0.17659
5089.96,0.17422
5066.81,0.17775
5043.67,0.18043
5020.52,0.17651
4997.38,0.17053
4974.23,0.15942
4951.09,0.16714
4927.94,0.17160
4904.8,0.17057
4881.65,0.16472
4858.51,0.16141
4835.36,0.17405
4812.22,0.18215
4789.07,0.18681
4765.93,0.19496
4742.78,0.20227
4719.64,0.20768
4696.49,0.21213
4673.35,0.20095
4650.2,0.20789
4627.06,0.20755
4603.92,0.20465
4580.77,0.19941
4557.63,0.18735
4534.48,0.17144
4511.34,0.15707
4488.19,0.13873
4465.05,0.12305
4441.9,0.10395
4418.76,0.08899
4395.61,0.07193
4372.47,0.06296
4349.32,0.05707
4326.18,0.05280
4303.03,0.05947
4279.89,0.05862
4256.74,0.05541
4233.6,0.05752
4210.45,0.05601
4187.31,0.05448
4164.16,0.05535
4141.02,0.05528
4117.87,0.05511
4094.73,0.05588
4071.58,0.05713
4048.44,0.05796
4025.29,0.05824
4002.15,0.06132
3979,0.06018
3955.86,0.06128
3932.71,0.05993
3909.57,0.05962
3886.42,0.05924
3863.28,0.06029
3840.13,0.06006
3816.99,0.05959
3793.84,0.06158
3770.7,0.06294
3747.55,0.06439
3724.41,0.06272
3701.26,0.05974
3678.12,0.05885
3654.97,0.05817
3631.83,0.05838
3608.68,0.05618
3585.54,0.06094
3562.39,0.06474
3539.25,0.06625
3516.1,0.06552
3492.96,0.06405
3469.81,0.06200
3446.67,0.06058
3423.52,0.06024
3400.38,0.06015
3377.23,0.05867
3354.09,0.05973
3330.94,0.06180
3307.8,0.06229
3284.65,0.06244
3261.51,0.06327
3238.36,0.06214
3215.22,0.06208
3192.07,0.05925
3168.93,0.05836
3145.78,0.05782
3122.64,0.05513
3099.49,0.05223
3076.35,0.05033
3053.2,0.04953
3030.06,0.04829
3006.91,0.04712
2983.77,0.04536
2960.62,0.04217
2937.48,0.03419
2914.33,0.08063
2891.19,0.05852
2868.04,0.05187
2844.9,0.07076
2821.75,0.05884
2798.61,0.05678
2775.46,0.05633
2752.32,0.05535
2729.17,0.05485
2706.03,0.05487
2682.88,0.05427
2659.74,0.05419
2636.59,0.05432
2613.45,0.05387
2590.3,0.05425
2567.16,0.05451
2544.02,0.05438
2520.87,0.05473
2497.73,0.05559
2474.58,0.05611
2451.44,0.05967
2428.29,0.05797
2405.15,0.05736
2382,0.05782
2358.86,0.05529
2335.71,0.05425
2312.57,0.05453
2289.42,0.05508
2266.28,0.05767
2243.13,0.05766
2219.99,0.06381
2196.84,0.06579
2173.7,0.06480
2150.55,0.05927
2127.41,0.06940
2104.26,0.07312
2081.12,0.06935
2057.97,0.06204
2034.83,0.05546
2011.68,0.05532
1988.54,0.07293
1965.39,0.06972
1942.25,0.06770
1919.1,0.06189
1895.96,0.05457
1872.81,0.08055
1849.67,0.09315
1826.52,0.07761
1803.38,0.07244
1780.23,0.07616
1757.09,0.06466
1733.94,0.05866
1710.8,0.06096
1687.65,0.06122
1664.51,0.05796
1641.36,0.05400
1618.22,0.05425
1595.07,0.05324
1571.93,0.05287
1548.78,0.05234
1525.64,0.05204
1502.49,0.05120
1479.35,0.04866
1456.2,0.05565
1433.06,0.05420
1409.91,0.05405
1386.77,0.05345
1363.62,0.05308
1340.48,0.05324
1317.33,0.05310
1294.19,0.05275
1271.04,0.05297
1247.9,0.05329
1224.75,0.05317
1201.61,0.05252
1178.46,0.05314
1155.32,0.05288
1132.17,0.05303
1109.03,0.05174
1085.88,0.05265
1062.74,0.05313
1039.59,0.05366
1016.45,0.05478
993.304,0.05338
970.159,0.05315
947.014,0.05406
923.869,0.05310
900.724,0.05249
877.579,0.05293
854.434,0.05271
831.289,0.05250
808.144,0.05299
784.999,0.05233
761.854,0.05170
738.709,0.04914
715.565,0.05839
692.42,0.05486
669.275,0.05380
646.13,0.05364
622.985,0.05528
599.84,0.05192