File: 01_Data/PlasticC/FTIR/IS/PlasticC_IS_S_220907_R2.dpt
7497.03,0.82170
7473.89,0.82554
7450.74,0.80980
7427.6,0.80589
7404.45,0.80533
7381.31,0.80582
7358.16,0.80515
7335.02,0.79187
7311.87,0.77808
7288.73,0.75644
7265.58,0.74796
7242.44,0.72287
7219.29,0.72498
7196.15,0.70141
7173,0.69193
7149.86,0.69853
7126.71,0.69583
7103.57,0.68578
7080.42,0.67203
7057.28,0.67341
7034.13,0.68352
7010.99,0.68929
6987.84,0.68464
6964.7,0.68651
6941.55,0.69423
6918.41,0.70046
6895.26,0.71526
6872.12,0.71740
6848.97,0.72495
6825.83,0.73235
6802.68,0.72990
6779.54,0.73320
6756.39,0.74136
6733.25,0.73953
6710.1,0.74371
6686.96,0.75049
6663.82,0.75848
6640.67,0.76784
6617.53,0.76304
6594.38,0.77452
6571.24,0.77298
6548.09,0.77949
6524.95,0.78216
6501.8,0.78790
6478.66,0.79269
6455.51,0.79600
6432.37,0.80016
6409.22,0.79658
6386.08,0.79509
6362.93,0.78198
6339.79,0.78039
6316.64,0.77360
6293.5,0.76205
6270.35,0.75591
6247.21,0.73763
6224.06,0.71908
6200.92,0.69098
6177.77,0.64358
6154.63,0.56124
6131.48,0.48948
6108.34,0.43313
6085.19,0.43529
6062.05,0.45880
6038.9,0.44772
6015.76,0.33486
5992.61,0.24922
5969.47,0.19699
5946.32,0.18938
5923.18,0.21103
5900.03,0.22534
5876.89,0.26810
5853.74,0.29683
5830.6,0.29904
5807.45,0.30096
5784.31,0.30837
5761.16,0.36403
5738.02,0.40429
5714.87,0.36832
5691.73,0.33847
5668.58,0.31928
5645.44,0.34953
5622.29,0.38281
5599.15,0.38605
5576,0.38440
5552.86,0.39127
5529.71,0.39261
5506.57,0.39832
5483.42,0.41272
5460.28,0.41961
5437.13,0.41877
5413.99,0.41478
5390.84,0.40973
5367.7,0.40679
5344.55,0.42252
5321.41,0.43482
5298.26,0.43852
5275.12,0.44108
5251.97,0.44047
5228.83,0.43847
5205.68,0.44766
5182.54,0.45394
5159.39,0.45736
5136.25,0.45086
5113.1,0.45267
5089.96,0.45611
5066.81,0.45876
5043.67,0.45507
5020.52,0.45775
4997.38,0.45386
4974.23,0.44581
4951.09,0.44779
4927.94,0.44644
4904.8,0.44536
4881.65,0.43730
4858.51,0.43056
4835.36,0.41664
4812.22,0.41901
4789.07,0.41471
4765.93,0.37822
4742.78,0.36780
4719.64,0.32010
4696.49,0.27151
4673.35,0.15019
4650.2,0.15309
4627.06,0.13429
4603.92,0.12888
4580.77,0.16828
4557.63,0.19040
4534.48,0.23621
4511.34,0.23814
4488.19,0.25002
4465.05,0.26587
4441.9,0.24566
4418.76,0.23259
4395.61,0.19877
4372.47,0.15993
4349.32,0.12923
4326.18,0.11950
4303.03,0.13922
4279.89,0.12559
4256.74,0.10557
4233.6,0.10680
4210.45,0.10772
4187.31,0.11760
4164.16,0.12509
4141.02,0.12363
4117.87,0.11408
4094.73,0.10709
4071.58,0.08905
4048.44,0.08098
4025.29,0.08562
4002.15,0.10791
3979,0.12055
3955.86,0.12489
3932.71,0.12216
3909.57,0.12696
3886.42,0.13044
3863.28,0.13047
3840.13,0.12788
3816.99,0.12189
3793.84,0.12500
3770.7,0.12975
3747.55,0.13573
3724.41,0.12753
3701.26,0.11960
3678.12,0.11685
3654.97,0.10553
3631.83,0.11858
3608.68,0.13341
3585.54,0.13964
3562.39,0.15336
3539.25,0.15075
3516.1,0.14483
3492.96,0.13764
3469.81,0.12949
3446.67,0.12318
3423.52,0.13009
3400.38,0.13464
3377.23,0.13665
3354.09,0.14021
3330.94,0.13535
3307.8,0.12644
3284.65,0.12458
3261.51,0.12247
3238.36,0.11778
3215.22,0.10921
3192.07,0.09767
3168.93,0.08725
3145.78,0.08471
3122.64,0.07595
3099.49,0.06560
3076.35,0.06456
3053.2,0.06455
3030.06,0.06335
3006.91,0.06618
2983.77,0.06682
2960.62,0.06455
2937.48,0.06342
2914.33,0.06907
2891.19,0.06834
2868.04,0.06733
2844.9,0.06854
2821.75,0.06966
2798.61,0.07104
2775.46,0.07324
2752.32,0.07589
2729.17,0.07463
2706.03,0.07488
2682.88,0.07450
2659.74,0.07487
2636.59,0.07297
2613.45,0.07446
2590.3,0.07542
2567.16,0.07578
2544.02,0.07506
2520.87,0.07551
2497.73,0.07595
2474.58,0.07858
2451.44,0.08047
2428.29,0.08167
2405.15,0.08052
2382,0.07883
2358.86,0.07610
2335.71,0.07096
2312.57,0.07294
2289.42,0.07796
2266.28,0.07842
2243.13,0.07890
2219.99,0.08115
2196.84,0.08240
2173.7,0.08343
2150.55,0.08427
2127.41,0.08660
2104.26,0.08750
2081.12,0.08784
2057.97,0.08553
2034.83,0.08278
2011.68,0.07891
1988.54,0.07097
1965.39,0.06674
1942.25,0.06607
1919.1,0.06874
1895.96,0.06693
1872.81,0.06565
1849.67,0.06836
1826.52,0.06642
1803.38,0.06498
1780.23,0.06670
1757.09,0.06529
1733.94,0.06582
1710.8,0.06631
1687.65,0.06516
1664.51,0.06465
1641.36,0.06545
1618.22,0.06416
1595.07,0.06594
1571.93,0.06545
1548.78,0.06392
1525.64,0.06391
1502.49,0.06020
1479.35,0.06525
1456.2,0.05909
1433.06,0.06722
1409.91,0.06521
1386.77,0.06392
1363.62,0.06487
1340.48,0.06452
1317.33,0.06416
1294.19,0.06417
1271.04,0.06471
1247.9,0.06452
1224.75,0.06436
1201.61,0.06300
1178.46,0.06431
1155.32,0.06429
1132.17,0.06499
1109.03,0.06408
1085.88,0.06198
1062.74,0.06366
1039.59,0.06255
1016.45,0.06513
993.304,0.06426
970.159,0.06325
947.014,0.06263
923.869,0.06189
900.724,0.06315
877.579,0.06140
854.434,0.06109
831.289,0.06070
808.144,0.05926
784.999,0.05497
761.854,0.05556
738.709,0.06548
715.565,0.05038
692.42,0.11055
669.275,0.07353
646.13,0.06904
622.985,0.06643
599.84,0.06508