File: 01_Data/PlasticC/FTIR/IS/PlasticC_IS_T_220907_R3.dpt
7497.03,0.03197
7473.89,0.02958
7450.74,0.02330
7427.6,0.01727
7404.45,0.02604
7381.31,0.02059
7358.16,0.02540
7335.02,0.02488
7311.87,0.02246
7288.73,0.02071
7265.58,0.02866
7242.44,0.02511
7219.29,0.02463
7196.15,0.02721
7173,0.02252
7149.86,0.02970
7126.71,0.02394
7103.57,0.02432
7080.42,0.01699
7057.28,0.02400
7034.13,0.02718
7010.99,0.01872
6987.84,0.01748
6964.7,0.01942
6941.55,0.02549
6918.41,0.02071
6895.26,0.02383
6872.12,0.02262
6848.97,0.01981
6825.83,0.02581
6802.68,0.02694
6779.54,0.02356
6756.39,0.01975
6733.25,0.02431
6710.1,0.02388
6686.96,0.02094
6663.82,0.02335
6640.67,0.02492
6617.53,0.01798
6594.38,0.02206
6571.24,0.02724
6548.09,0.02474
6524.95,0.02181
6501.8,0.01738
6478.66,0.02173
6455.51,0.02101
6432.37,0.02300
6409.22,0.02550
6386.08,0.02305
6362.93,0.01942
6339.79,0.02354
6316.64,0.02096
6293.5,0.02191
6270.35,0.02198
6247.21,0.02160
6224.06,0.02179
6200.92,0.02274
6177.77,0.02372
6154.63,0.02105
6131.48,0.02430
6108.34,0.02224
6085.19,0.02064
6062.05,0.02294
6038.9,0.02040
6015.76,0.02305
5992.61,0.01968
5969.47,0.02055
5946.32,0.02267
5923.18,0.02060
5900.03,0.02153
5876.89,0.02267
5853.74,0.02234
5830.6,0.02247
5807.45,0.02188
5784.31,0.02091
5761.16,0.02334
5738.02,0.02149
5714.87,0.02126
5691.73,0.02192
5668.58,0.01948
5645.44,0.02095
5622.29,0.02059
5599.15,0.02090
5576,0.02030
5552.86,0.02177
5529.71,0.02266
5506.57,0.02180
5483.42,0.02194
5460.28,0.02178
5437.13,0.02179
5413.99,0.02211
5390.84,0.02219
5367.7,0.02232
5344.55,0.02290
5321.41,0.02049
5298.26,0.02163
5275.12,0.02158
5251.97,0.02305
5228.83,0.02201
5205.68,0.02289
5182.54,0.02300
5159.39,0.02201
5136.25,0.02119
5113.1,0.02268
5089.96,0.02287
5066.81,0.02224
5043.67,0.02302
5020.52,0.02196
4997.38,0.02229
4974.23,0.02243
4951.09,0.02289
4927.94,0.02145
4904.8,0.02112
4881.65,0.02161
4858.51,0.02351
4835.36,0.02150
4812.22,0.02202
4789.07,0.02201
4765.93,0.02248
4742.78,0.02177
4719.64,0.02281
4696.49,0.02209
4673.35,0.02058
4650.2,0.02121
4627.06,0.02238
4603.92,0.02190
4580.77,0.02266
4557.63,0.02218
4534.48,0.02228
4511.34,0.02233
4488.19,0.02221
4465.05,0.02119
4441.9,0.02298
4418.76,0.02234
4395.61,0.02123
4372.47,0.02241
4349.32,0.02221
4326.18,0.02169
4303.03,0.02233
4279.89,0.02224
4256.74,0.02216
4233.6,0.02209
4210.45,0.02336
4187.31,0.02219
4164.16,0.02230
4141.02,0.02199
4117.87,0.02255
4094.73,0.02190
4071.58,0.02235
4048.44,0.02202
4025.29,0.02217
4002.15,0.02214
3979,0.02188
3955.86,0.02198
3932.71,0.02218
3909.57,0.02212
3886.42,0.02242
3863.28,0.02240
3840.13,0.02325
3816.99,0.02259
3793.84,0.02200
3770.7,0.02220
3747.55,0.02159
3724.41,0.02311
3701.26,0.02211
3678.12,0.02233
3654.97,0.02298
3631.83,0.02234
3608.68,0.02148
3585.54,0.02084
3562.39,0.02191
3539.25,0.02125
3516.1,0.02054
3492.96,0.02065
3469.81,0.02028
3446.67,0.02010
3423.52,0.01983
3400.38,0.02008
3377.23,0.02034
3354.09,0.02011
3330.94,0.02046
3307.8,0.02017
3284.65,0.01958
3261.51,0.02064
3238.36,0.02053
3215.22,0.02062
3192.07,0.02015
3168.93,0.02048
3145.78,0.02066
3122.64,0.02062
3099.49,0.02086
3076.35,0.01990
3053.2,0.02029
3030.06,0.02051
3006.91,0.02095
2983.77,0.01992
2960.62,0.01989
2937.48,0.01907
2914.33,0.01977
2891.19,0.02041
2868.04,0.01978
2844.9,0.02049
2821.75,0.02105
2798.61,0.02126
2775.46,0.02114
2752.32,0.02079
2729.17,0.02102
2706.03,0.02141
2682.88,0.02090
2659.74,0.02118
2636.59,0.02075
2613.45,0.02091
2590.3,0.02099
2567.16,0.02102
2544.02,0.02092
2520.87,0.02088
2497.73,0.02110
2474.58,0.02079
2451.44,0.02109
2428.29,0.02108
2405.15,0.02075
2382,0.02121
2358.86,0.02065
2335.71,0.02117
2312.57,0.02077
2289.42,0.02062
2266.28,0.02077
2243.13,0.02074
2219.99,0.02058
2196.84,0.02053
2173.7,0.02042
2150.55,0.02071
2127.41,0.02051
2104.26,0.02069
2081.12,0.02087
2057.97,0.02070
2034.83,0.02011
2011.68,0.02065
1988.54,0.02077
1965.39,0.02036
1942.25,0.02039
1919.1,0.02065
1895.96,0.02032
1872.81,0.02047
1849.67,0.01999
1826.52,0.01984
1803.38,0.01935
1780.23,0.01885
1757.09,0.01737
1733.94,0.01986
1710.8,0.02047
1687.65,0.01897
1664.51,0.01849
1641.36,0.01856
1618.22,0.01876
1595.07,0.01878
1571.93,0.01812
1548.78,0.01778
1525.64,0.01814
1502.49,0.01856
1479.35,0.01871
1456.2,0.01800
1433.06,0.01868
1409.91,0.01844
1386.77,0.01794
1363.62,0.01797
1340.48,0.01771
1317.33,0.01672
1294.19,0.01736
1271.04,0.01950
1247.9,0.02003
1224.75,0.01881
1201.61,0.01812
1178.46,0.01726
1155.32,0.01721
1132.17,0.01758
1109.03,0.01878
1085.88,0.01737
1062.74,0.01917
1039.59,0.01939
1016.45,0.01945
993.304,0.02056
970.159,0.02042
947.014,0.01893
923.869,0.01943
900.724,0.01936
877.579,0.01883
854.434,0.01954
831.289,0.01900
808.144,0.01843
784.999,0.01835
761.854,0.01828
738.709,0.01890
715.565,0.01781
692.42,0.01776
669.275,0.01608
646.13,0.01676
622.985,0.01658
599.84,0.01314