File: 01_Data/PlasticC/FTIR/IS/PlasticC_IS_S_220907_R1.dpt
7497.03,0.85305
7473.89,0.83676
7450.74,0.81758
7427.6,0.80722
7404.45,0.79728
7381.31,0.81103
7358.16,0.79839
7335.02,0.79820
7311.87,0.78125
7288.73,0.75398
7265.58,0.74080
7242.44,0.72044
7219.29,0.71900
7196.15,0.69981
7173,0.69861
7149.86,0.69698
7126.71,0.69273
7103.57,0.67996
7080.42,0.66884
7057.28,0.67816
7034.13,0.68648
7010.99,0.69357
6987.84,0.68684
6964.7,0.69383
6941.55,0.69699
6918.41,0.70324
6895.26,0.70918
6872.12,0.72316
6848.97,0.72281
6825.83,0.73258
6802.68,0.72954
6779.54,0.73998
6756.39,0.73907
6733.25,0.74123
6710.1,0.75196
6686.96,0.75811
6663.82,0.75851
6640.67,0.76406
6617.53,0.76935
6594.38,0.77220
6571.24,0.77444
6548.09,0.78244
6524.95,0.78314
6501.8,0.79129
6478.66,0.79791
6455.51,0.79756
6432.37,0.79935
6409.22,0.80184
6386.08,0.79306
6362.93,0.78658
6339.79,0.78341
6316.64,0.77348
6293.5,0.76384
6270.35,0.76220
6247.21,0.74090
6224.06,0.72055
6200.92,0.69159
6177.77,0.64904
6154.63,0.56161
6131.48,0.49025
6108.34,0.43531
6085.19,0.43592
6062.05,0.46241
6038.9,0.44743
6015.76,0.33774
5992.61,0.24728
5969.47,0.19737
5946.32,0.19191
5923.18,0.20942
5900.03,0.22329
5876.89,0.26770
5853.74,0.29748
5830.6,0.30178
5807.45,0.30256
5784.31,0.30798
5761.16,0.36542
5738.02,0.40534
5714.87,0.36869
5691.73,0.34022
5668.58,0.32272
5645.44,0.35342
5622.29,0.38161
5599.15,0.38730
5576,0.38795
5552.86,0.39410
5529.71,0.39173
5506.57,0.39563
5483.42,0.41234
5460.28,0.41933
5437.13,0.41719
5413.99,0.41361
5390.84,0.40979
5367.7,0.40834
5344.55,0.42385
5321.41,0.43471
5298.26,0.43772
5275.12,0.44162
5251.97,0.43853
5228.83,0.44061
5205.68,0.44948
5182.54,0.45323
5159.39,0.45749
5136.25,0.45179
5113.1,0.45175
5089.96,0.45696
5066.81,0.45996
5043.67,0.45637
5020.52,0.45953
4997.38,0.45593
4974.23,0.44731
4951.09,0.44966
4927.94,0.44763
4904.8,0.44784
4881.65,0.43973
4858.51,0.43247
4835.36,0.41819
4812.22,0.42194
4789.07,0.41523
4765.93,0.37940
4742.78,0.36936
4719.64,0.32069
4696.49,0.27245
4673.35,0.15100
4650.2,0.15337
4627.06,0.13466
4603.92,0.12998
4580.77,0.16829
4557.63,0.19012
4534.48,0.23656
4511.34,0.23934
4488.19,0.25139
4465.05,0.26726
4441.9,0.24582
4418.76,0.23314
4395.61,0.19922
4372.47,0.16077
4349.32,0.12951
4326.18,0.12009
4303.03,0.13917
4279.89,0.12578
4256.74,0.10561
4233.6,0.10619
4210.45,0.10842
4187.31,0.11699
4164.16,0.12432
4141.02,0.12391
4117.87,0.11495
4094.73,0.10743
4071.58,0.08909
4048.44,0.08183
4025.29,0.08673
4002.15,0.10727
3979,0.12089
3955.86,0.12518
3932.71,0.12292
3909.57,0.12766
3886.42,0.13042
3863.28,0.13095
3840.13,0.12749
3816.99,0.12131
3793.84,0.12387
3770.7,0.13004
3747.55,0.13614
3724.41,0.12666
3701.26,0.11950
3678.12,0.11538
3654.97,0.10540
3631.83,0.11883
3608.68,0.13341
3585.54,0.13731
3562.39,0.15382
3539.25,0.15059
3516.1,0.14552
3492.96,0.13767
3469.81,0.13020
3446.67,0.12325
3423.52,0.13028
3400.38,0.13513
3377.23,0.13683
3354.09,0.14137
3330.94,0.13561
3307.8,0.12680
3284.65,0.12468
3261.51,0.12106
3238.36,0.11793
3215.22,0.10913
3192.07,0.09824
3168.93,0.08662
3145.78,0.08429
3122.64,0.07591
3099.49,0.06495
3076.35,0.06459
3053.2,0.06538
3030.06,0.06285
3006.91,0.06630
2983.77,0.06588
2960.62,0.06447
2937.48,0.06341
2914.33,0.06962
2891.19,0.06860
2868.04,0.06769
2844.9,0.06851
2821.75,0.06971
2798.61,0.07116
2775.46,0.07324
2752.32,0.07632
2729.17,0.07533
2706.03,0.07511
2682.88,0.07464
2659.74,0.07452
2636.59,0.07317
2613.45,0.07511
2590.3,0.07572
2567.16,0.07605
2544.02,0.07549
2520.87,0.07541
2497.73,0.07590
2474.58,0.07843
2451.44,0.08088
2428.29,0.08220
2405.15,0.08064
2382,0.07919
2358.86,0.07617
2335.71,0.07164
2312.57,0.07346
2289.42,0.07790
2266.28,0.07853
2243.13,0.07918
2219.99,0.08138
2196.84,0.08259
2173.7,0.08345
2150.55,0.08441
2127.41,0.08664
2104.26,0.08751
2081.12,0.08799
2057.97,0.08600
2034.83,0.08256
2011.68,0.07876
1988.54,0.07130
1965.39,0.06698
1942.25,0.06590
1919.1,0.06887
1895.96,0.06710
1872.81,0.06550
1849.67,0.06865
1826.52,0.06660
1803.38,0.06533
1780.23,0.06696
1757.09,0.06516
1733.94,0.06620
1710.8,0.06658
1687.65,0.06548
1664.51,0.06497
1641.36,0.06564
1618.22,0.06423
1595.07,0.06583
1571.93,0.06568
1548.78,0.06416
1525.64,0.06403
1502.49,0.06059
1479.35,0.06595
1456.2,0.05945
1433.06,0.06741
1409.91,0.06556
1386.77,0.06382
1363.62,0.06510
1340.48,0.06469
1317.33,0.06454
1294.19,0.06457
1271.04,0.06489
1247.9,0.06493
1224.75,0.06428
1201.61,0.06399
1178.46,0.06464
1155.32,0.06411
1132.17,0.06525
1109.03,0.06393
1085.88,0.06218
1062.74,0.06351
1039.59,0.06258
1016.45,0.06452
993.304,0.06388
970.159,0.06312
947.014,0.06286
923.869,0.06219
900.724,0.06322
877.579,0.06309
854.434,0.06118
831.289,0.06009
808.144,0.05942
784.999,0.05432
761.854,0.05536
738.709,0.06492
715.565,0.04974
692.42,0.11026
669.275,0.07179
646.13,0.07003
622.985,0.06572
599.84,0.06582