File: 01_Data/PlasticC/FTIR/IS/PlasticC_IS_S_220907_R4.dpt
7497.03,0.81884
7473.89,0.82602
7450.74,0.80914
7427.6,0.79962
7404.45,0.79939
7381.31,0.81528
7358.16,0.80600
7335.02,0.79928
7311.87,0.77884
7288.73,0.76696
7265.58,0.73817
7242.44,0.73442
7219.29,0.71923
7196.15,0.69523
7173,0.69272
7149.86,0.69640
7126.71,0.69168
7103.57,0.67877
7080.42,0.67108
7057.28,0.68058
7034.13,0.68993
7010.99,0.68921
6987.84,0.69074
6964.7,0.69353
6941.55,0.69513
6918.41,0.69668
6895.26,0.70720
6872.12,0.71749
6848.97,0.73102
6825.83,0.73156
6802.68,0.73248
6779.54,0.74155
6756.39,0.74384
6733.25,0.74000
6710.1,0.74609
6686.96,0.75266
6663.82,0.76450
6640.67,0.76434
6617.53,0.76743
6594.38,0.76974
6571.24,0.78244
6548.09,0.77902
6524.95,0.78794
6501.8,0.79344
6478.66,0.79770
6455.51,0.79752
6432.37,0.80346
6409.22,0.80107
6386.08,0.79409
6362.93,0.78753
6339.79,0.78216
6316.64,0.77822
6293.5,0.76270
6270.35,0.75912
6247.21,0.74135
6224.06,0.71836
6200.92,0.69636
6177.77,0.64660
6154.63,0.56245
6131.48,0.49331
6108.34,0.43286
6085.19,0.43906
6062.05,0.45984
6038.9,0.45179
6015.76,0.33637
5992.61,0.24821
5969.47,0.20180
5946.32,0.19140
5923.18,0.20898
5900.03,0.22491
5876.89,0.26793
5853.74,0.29692
5830.6,0.30107
5807.45,0.30440
5784.31,0.30891
5761.16,0.36454
5738.02,0.40655
5714.87,0.37125
5691.73,0.34112
5668.58,0.32522
5645.44,0.35100
5622.29,0.38300
5599.15,0.38655
5576,0.38571
5552.86,0.39591
5529.71,0.39372
5506.57,0.39963
5483.42,0.41325
5460.28,0.42173
5437.13,0.41955
5413.99,0.41627
5390.84,0.40861
5367.7,0.40977
5344.55,0.42319
5321.41,0.43700
5298.26,0.44069
5275.12,0.44296
5251.97,0.44233
5228.83,0.44253
5205.68,0.45151
5182.54,0.45628
5159.39,0.45838
5136.25,0.45329
5113.1,0.45372
5089.96,0.45924
5066.81,0.45727
5043.67,0.45750
5020.52,0.45980
4997.38,0.45607
4974.23,0.44906
4951.09,0.45071
4927.94,0.44849
4904.8,0.44725
4881.65,0.43961
4858.51,0.43177
4835.36,0.41851
4812.22,0.42143
4789.07,0.41593
4765.93,0.38105
4742.78,0.37023
4719.64,0.32152
4696.49,0.27355
4673.35,0.15123
4650.2,0.15321
4627.06,0.13516
4603.92,0.12885
4580.77,0.16874
4557.63,0.19148
4534.48,0.23716
4511.34,0.24062
4488.19,0.25144
4465.05,0.26749
4441.9,0.24579
4418.76,0.23387
4395.61,0.19943
4372.47,0.16045
4349.32,0.13054
4326.18,0.11976
4303.03,0.14009
4279.89,0.12543
4256.74,0.10562
4233.6,0.10742
4210.45,0.10922
4187.31,0.11706
4164.16,0.12494
4141.02,0.12429
4117.87,0.11407
4094.73,0.10737
4071.58,0.08869
4048.44,0.08135
4025.29,0.08699
4002.15,0.10810
3979,0.12079
3955.86,0.12573
3932.71,0.12316
3909.57,0.12737
3886.42,0.13050
3863.28,0.13104
3840.13,0.12833
3816.99,0.12210
3793.84,0.12477
3770.7,0.13123
3747.55,0.13705
3724.41,0.12700
3701.26,0.12004
3678.12,0.11849
3654.97,0.10702
3631.83,0.11975
3608.68,0.13403
3585.54,0.14194
3562.39,0.15582
3539.25,0.15208
3516.1,0.14616
3492.96,0.13930
3469.81,0.12991
3446.67,0.12364
3423.52,0.13063
3400.38,0.13518
3377.23,0.13808
3354.09,0.14148
3330.94,0.13593
3307.8,0.12727
3284.65,0.12554
3261.51,0.12256
3238.36,0.11773
3215.22,0.10945
3192.07,0.09857
3168.93,0.08736
3145.78,0.08437
3122.64,0.07601
3099.49,0.06567
3076.35,0.06488
3053.2,0.06501
3030.06,0.06309
3006.91,0.06645
2983.77,0.06670
2960.62,0.06474
2937.48,0.06328
2914.33,0.06956
2891.19,0.06856
2868.04,0.06737
2844.9,0.06910
2821.75,0.06950
2798.61,0.07152
2775.46,0.07386
2752.32,0.07598
2729.17,0.07533
2706.03,0.07502
2682.88,0.07448
2659.74,0.07467
2636.59,0.07311
2613.45,0.07485
2590.3,0.07552
2567.16,0.07654
2544.02,0.07567
2520.87,0.07556
2497.73,0.07645
2474.58,0.07884
2451.44,0.08082
2428.29,0.08173
2405.15,0.08104
2382,0.07876
2358.86,0.07619
2335.71,0.07185
2312.57,0.07351
2289.42,0.07795
2266.28,0.07876
2243.13,0.07921
2219.99,0.08165
2196.84,0.08238
2173.7,0.08361
2150.55,0.08435
2127.41,0.08693
2104.26,0.08776
2081.12,0.08853
2057.97,0.08546
2034.83,0.08312
2011.68,0.07942
1988.54,0.07104
1965.39,0.06672
1942.25,0.06593
1919.1,0.06879
1895.96,0.06715
1872.81,0.06566
1849.67,0.06853
1826.52,0.06683
1803.38,0.06524
1780.23,0.06697
1757.09,0.06560
1733.94,0.06589
1710.8,0.06663
1687.65,0.06520
1664.51,0.06471
1641.36,0.06557
1618.22,0.06451
1595.07,0.06610
1571.93,0.06561
1548.78,0.06414
1525.64,0.06408
1502.49,0.06050
1479.35,0.06563
1456.2,0.05938
1433.06,0.06791
1409.91,0.06559
1386.77,0.06400
1363.62,0.06471
1340.48,0.06497
1317.33,0.06447
1294.19,0.06447
1271.04,0.06486
1247.9,0.06463
1224.75,0.06450
1201.61,0.06357
1178.46,0.06446
1155.32,0.06473
1132.17,0.06520
1109.03,0.06332
1085.88,0.06205
1062.74,0.06360
1039.59,0.06275
1016.45,0.06494
993.304,0.06413
970.159,0.06273
947.014,0.06303
923.869,0.06260
900.724,0.06321
877.579,0.06179
854.434,0.06048
831.289,0.06062
808.144,0.05821
784.999,0.05452
761.854,0.05503
738.709,0.06485
715.565,0.04968
692.42,0.11048
669.275,0.07374
646.13,0.06843
622.985,0.06572
599.84,0.06588