File: 01_Data/PlasticC/FTIR/IS/PlasticC_IS_S_220907_R8.dpt
7497.03,0.81572
7473.89,0.81890
7450.74,0.80647
7427.6,0.80028
7404.45,0.80478
7381.31,0.79634
7358.16,0.81308
7335.02,0.78920
7311.87,0.78079
7288.73,0.75524
7265.58,0.74746
7242.44,0.72348
7219.29,0.71319
7196.15,0.70631
7173,0.69316
7149.86,0.69854
7126.71,0.69486
7103.57,0.68892
7080.42,0.67349
7057.28,0.67781
7034.13,0.68705
7010.99,0.69166
6987.84,0.69153
6964.7,0.69087
6941.55,0.69344
6918.41,0.69535
6895.26,0.70929
6872.12,0.71498
6848.97,0.72588
6825.83,0.73074
6802.68,0.72645
6779.54,0.73725
6756.39,0.73454
6733.25,0.74184
6710.1,0.74777
6686.96,0.74922
6663.82,0.75572
6640.67,0.76087
6617.53,0.76549
6594.38,0.76721
6571.24,0.77407
6548.09,0.77163
6524.95,0.77965
6501.8,0.78789
6478.66,0.79518
6455.51,0.79852
6432.37,0.79696
6409.22,0.79614
6386.08,0.79158
6362.93,0.78093
6339.79,0.78264
6316.64,0.77334
6293.5,0.75847
6270.35,0.75636
6247.21,0.73850
6224.06,0.71619
6200.92,0.68749
6177.77,0.64797
6154.63,0.55887
6131.48,0.48998
6108.34,0.43093
6085.19,0.43606
6062.05,0.45862
6038.9,0.44870
6015.76,0.33597
5992.61,0.24982
5969.47,0.19996
5946.32,0.19075
5923.18,0.20732
5900.03,0.22389
5876.89,0.26511
5853.74,0.29553
5830.6,0.30130
5807.45,0.29913
5784.31,0.30921
5761.16,0.36213
5738.02,0.40420
5714.87,0.36856
5691.73,0.33812
5668.58,0.31958
5645.44,0.35045
5622.29,0.38155
5599.15,0.38473
5576,0.38471
5552.86,0.39314
5529.71,0.39065
5506.57,0.39655
5483.42,0.41322
5460.28,0.42127
5437.13,0.41440
5413.99,0.41369
5390.84,0.40823
5367.7,0.40824
5344.55,0.42203
5321.41,0.43476
5298.26,0.43602
5275.12,0.44190
5251.97,0.44110
5228.83,0.43987
5205.68,0.44842
5182.54,0.45385
5159.39,0.45559
5136.25,0.45148
5113.1,0.45105
5089.96,0.45543
5066.81,0.45701
5043.67,0.45344
5020.52,0.45817
4997.38,0.45455
4974.23,0.44557
4951.09,0.44778
4927.94,0.44562
4904.8,0.44555
4881.65,0.43726
4858.51,0.42939
4835.36,0.41541
4812.22,0.41881
4789.07,0.41298
4765.93,0.37888
4742.78,0.36856
4719.64,0.31980
4696.49,0.27124
4673.35,0.15055
4650.2,0.15304
4627.06,0.13503
4603.92,0.12801
4580.77,0.16863
4557.63,0.19064
4534.48,0.23606
4511.34,0.23818
4488.19,0.24902
4465.05,0.26643
4441.9,0.24468
4418.76,0.23279
4395.61,0.19850
4372.47,0.15986
4349.32,0.13042
4326.18,0.11962
4303.03,0.13768
4279.89,0.12531
4256.74,0.10532
4233.6,0.10655
4210.45,0.10788
4187.31,0.11682
4164.16,0.12444
4141.02,0.12382
4117.87,0.11394
4094.73,0.10647
4071.58,0.08795
4048.44,0.08051
4025.29,0.08672
4002.15,0.10832
3979,0.12042
3955.86,0.12455
3932.71,0.12240
3909.57,0.12700
3886.42,0.12977
3863.28,0.13035
3840.13,0.12788
3816.99,0.12166
3793.84,0.12516
3770.7,0.13067
3747.55,0.13617
3724.41,0.12626
3701.26,0.11980
3678.12,0.11913
3654.97,0.10638
3631.83,0.11994
3608.68,0.13358
3585.54,0.14294
3562.39,0.15517
3539.25,0.15111
3516.1,0.14523
3492.96,0.13862
3469.81,0.13068
3446.67,0.12371
3423.52,0.13044
3400.38,0.13505
3377.23,0.13747
3354.09,0.14093
3330.94,0.13503
3307.8,0.12669
3284.65,0.12478
3261.51,0.12169
3238.36,0.11739
3215.22,0.10824
3192.07,0.09786
3168.93,0.08668
3145.78,0.08431
3122.64,0.07530
3099.49,0.06615
3076.35,0.06469
3053.2,0.06430
3030.06,0.06259
3006.91,0.06625
2983.77,0.06615
2960.62,0.06468
2937.48,0.06306
2914.33,0.06868
2891.19,0.06888
2868.04,0.06760
2844.9,0.06869
2821.75,0.06983
2798.61,0.07121
2775.46,0.07292
2752.32,0.07595
2729.17,0.07494
2706.03,0.07468
2682.88,0.07443
2659.74,0.07430
2636.59,0.07331
2613.45,0.07471
2590.3,0.07495
2567.16,0.07571
2544.02,0.07541
2520.87,0.07517
2497.73,0.07593
2474.58,0.07808
2451.44,0.08000
2428.29,0.08198
2405.15,0.08067
2382,0.07859
2358.86,0.07553
2335.71,0.07065
2312.57,0.07322
2289.42,0.07769
2266.28,0.07837
2243.13,0.07945
2219.99,0.08108
2196.84,0.08235
2173.7,0.08333
2150.55,0.08403
2127.41,0.08637
2104.26,0.08694
2081.12,0.08841
2057.97,0.08530
2034.83,0.08270
2011.68,0.07923
1988.54,0.07114
1965.39,0.06621
1942.25,0.06548
1919.1,0.06846
1895.96,0.06675
1872.81,0.06552
1849.67,0.06816
1826.52,0.06634
1803.38,0.06476
1780.23,0.06684
1757.09,0.06487
1733.94,0.06560
1710.8,0.06633
1687.65,0.06477
1664.51,0.06437
1641.36,0.06539
1618.22,0.06405
1595.07,0.06572
1571.93,0.06517
1548.78,0.06358
1525.64,0.06367
1502.49,0.05976
1479.35,0.06551
1456.2,0.05922
1433.06,0.06750
1409.91,0.06531
1386.77,0.06399
1363.62,0.06456
1340.48,0.06473
1317.33,0.06446
1294.19,0.06410
1271.04,0.06468
1247.9,0.06413
1224.75,0.06480
1201.61,0.06344
1178.46,0.06393
1155.32,0.06391
1132.17,0.06515
1109.03,0.06267
1085.88,0.06192
1062.74,0.06249
1039.59,0.06241
1016.45,0.06503
993.304,0.06432
970.159,0.06272
947.014,0.06275
923.869,0.06204
900.724,0.06361
877.579,0.06097
854.434,0.06056
831.289,0.06040
808.144,0.05803
784.999,0.05488
761.854,0.05505
738.709,0.06452
715.565,0.04928
692.42,0.11042
669.275,0.07344
646.13,0.06941
622.985,0.06942
599.84,0.06636