File: 01_Data/PlasticC/FTIR/IS/PlasticC_IS_S_220907_R3.dpt
7497.03,0.83392
7473.89,0.82811
7450.74,0.80829
7427.6,0.81180
7404.45,0.80197
7381.31,0.80528
7358.16,0.80107
7335.02,0.79817
7311.87,0.77753
7288.73,0.75583
7265.58,0.74483
7242.44,0.72924
7219.29,0.71797
7196.15,0.70103
7173,0.69196
7149.86,0.70334
7126.71,0.70195
7103.57,0.69374
7080.42,0.67069
7057.28,0.67857
7034.13,0.68531
7010.99,0.69140
6987.84,0.68149
6964.7,0.69252
6941.55,0.69382
6918.41,0.70426
6895.26,0.71703
6872.12,0.71986
6848.97,0.72972
6825.83,0.73289
6802.68,0.72900
6779.54,0.73687
6756.39,0.73779
6733.25,0.74289
6710.1,0.75480
6686.96,0.75207
6663.82,0.76365
6640.67,0.76930
6617.53,0.76954
6594.38,0.77492
6571.24,0.77806
6548.09,0.78392
6524.95,0.78237
6501.8,0.79593
6478.66,0.79440
6455.51,0.80043
6432.37,0.79939
6409.22,0.80324
6386.08,0.79110
6362.93,0.78913
6339.79,0.78122
6316.64,0.77551
6293.5,0.76321
6270.35,0.76323
6247.21,0.73799
6224.06,0.72110
6200.92,0.69523
6177.77,0.64771
6154.63,0.56243
6131.48,0.49418
6108.34,0.43406
6085.19,0.43697
6062.05,0.46102
6038.9,0.45012
6015.76,0.33670
5992.61,0.25038
5969.47,0.20054
5946.32,0.19230
5923.18,0.21308
5900.03,0.22363
5876.89,0.27245
5853.74,0.29788
5830.6,0.30142
5807.45,0.30272
5784.31,0.30897
5761.16,0.36595
5738.02,0.40721
5714.87,0.37027
5691.73,0.34073
5668.58,0.32281
5645.44,0.35208
5622.29,0.38524
5599.15,0.39047
5576,0.38594
5552.86,0.39209
5529.71,0.39194
5506.57,0.39740
5483.42,0.41434
5460.28,0.42043
5437.13,0.41757
5413.99,0.41355
5390.84,0.41060
5367.7,0.40937
5344.55,0.42481
5321.41,0.43605
5298.26,0.43883
5275.12,0.44228
5251.97,0.44140
5228.83,0.44101
5205.68,0.44961
5182.54,0.45570
5159.39,0.45850
5136.25,0.45311
5113.1,0.45344
5089.96,0.45852
5066.81,0.45905
5043.67,0.45659
5020.52,0.45873
4997.38,0.45614
4974.23,0.44748
4951.09,0.44943
4927.94,0.44818
4904.8,0.44735
4881.65,0.44016
4858.51,0.43320
4835.36,0.41879
4812.22,0.42141
4789.07,0.41570
4765.93,0.38035
4742.78,0.36893
4719.64,0.32077
4696.49,0.27190
4673.35,0.15118
4650.2,0.15252
4627.06,0.13510
4603.92,0.12862
4580.77,0.16902
4557.63,0.19079
4534.48,0.23701
4511.34,0.23877
4488.19,0.25249
4465.05,0.26748
4441.9,0.24712
4418.76,0.23333
4395.61,0.19921
4372.47,0.16062
4349.32,0.12875
4326.18,0.12000
4303.03,0.13951
4279.89,0.12541
4256.74,0.10546
4233.6,0.10610
4210.45,0.10914
4187.31,0.11682
4164.16,0.12503
4141.02,0.12443
4117.87,0.11471
4094.73,0.10675
4071.58,0.08898
4048.44,0.08146
4025.29,0.08669
4002.15,0.10807
3979,0.12067
3955.86,0.12569
3932.71,0.12267
3909.57,0.12789
3886.42,0.13043
3863.28,0.13074
3840.13,0.12819
3816.99,0.12089
3793.84,0.12483
3770.7,0.13105
3747.55,0.13601
3724.41,0.12703
3701.26,0.12023
3678.12,0.11750
3654.97,0.10608
3631.83,0.11947
3608.68,0.13414
3585.54,0.14059
3562.39,0.15422
3539.25,0.15195
3516.1,0.14509
3492.96,0.13892
3469.81,0.13037
3446.67,0.12342
3423.52,0.13114
3400.38,0.13603
3377.23,0.13805
3354.09,0.14115
3330.94,0.13593
3307.8,0.12645
3284.65,0.12493
3261.51,0.12257
3238.36,0.11755
3215.22,0.10931
3192.07,0.09812
3168.93,0.08698
3145.78,0.08467
3122.64,0.07565
3099.49,0.06579
3076.35,0.06423
3053.2,0.06496
3030.06,0.06281
3006.91,0.06662
2983.77,0.06608
2960.62,0.06480
2937.48,0.06345
2914.33,0.06932
2891.19,0.06822
2868.04,0.06764
2844.9,0.06883
2821.75,0.06969
2798.61,0.07147
2775.46,0.07303
2752.32,0.07567
2729.17,0.07502
2706.03,0.07485
2682.88,0.07457
2659.74,0.07468
2636.59,0.07328
2613.45,0.07466
2590.3,0.07566
2567.16,0.07620
2544.02,0.07586
2520.87,0.07593
2497.73,0.07608
2474.58,0.07897
2451.44,0.08026
2428.29,0.08192
2405.15,0.08100
2382,0.07926
2358.86,0.07609
2335.71,0.07156
2312.57,0.07292
2289.42,0.07824
2266.28,0.07849
2243.13,0.07936
2219.99,0.08152
2196.84,0.08258
2173.7,0.08329
2150.55,0.08445
2127.41,0.08652
2104.26,0.08747
2081.12,0.08806
2057.97,0.08579
2034.83,0.08297
2011.68,0.07947
1988.54,0.07121
1965.39,0.06654
1942.25,0.06561
1919.1,0.06895
1895.96,0.06689
1872.81,0.06585
1849.67,0.06883
1826.52,0.06656
1803.38,0.06523
1780.23,0.06659
1757.09,0.06526
1733.94,0.06562
1710.8,0.06656
1687.65,0.06502
1664.51,0.06481
1641.36,0.06498
1618.22,0.06445
1595.07,0.06577
1571.93,0.06523
1548.78,0.06403
1525.64,0.06422
1502.49,0.06041
1479.35,0.06555
1456.2,0.05954
1433.06,0.06744
1409.91,0.06567
1386.77,0.06410
1363.62,0.06455
1340.48,0.06499
1317.33,0.06477
1294.19,0.06450
1271.04,0.06499
1247.9,0.06493
1224.75,0.06463
1201.61,0.06340
1178.46,0.06432
1155.32,0.06389
1132.17,0.06475
1109.03,0.06411
1085.88,0.06230
1062.74,0.06386
1039.59,0.06193
1016.45,0.06473
993.304,0.06387
970.159,0.06268
947.014,0.06267
923.869,0.06208
900.724,0.06236
877.579,0.06207
854.434,0.06083
831.289,0.06053
808.144,0.05842
784.999,0.05458
761.854,0.05549
738.709,0.06526
715.565,0.04907
692.42,0.11079
669.275,0.07296
646.13,0.06779
622.985,0.06596
599.84,0.06334