File: 01_Data/PlasticC/FTIR/IS/PlasticC_IS_S_220907_R5.dpt
7497.03,0.82845
7473.89,0.82760
7450.74,0.81102
7427.6,0.80510
7404.45,0.80857
7381.31,0.80337
7358.16,0.81209
7335.02,0.80506
7311.87,0.77788
7288.73,0.75311
7265.58,0.74624
7242.44,0.73030
7219.29,0.72351
7196.15,0.70326
7173,0.69958
7149.86,0.69652
7126.71,0.69847
7103.57,0.68853
7080.42,0.66687
7057.28,0.68114
7034.13,0.69538
7010.99,0.69355
6987.84,0.68631
6964.7,0.69124
6941.55,0.70060
6918.41,0.70434
6895.26,0.72112
6872.12,0.72509
6848.97,0.72764
6825.83,0.73141
6802.68,0.74042
6779.54,0.74377
6756.39,0.74275
6733.25,0.74790
6710.1,0.74777
6686.96,0.75496
6663.82,0.76390
6640.67,0.76490
6617.53,0.77093
6594.38,0.77881
6571.24,0.78283
6548.09,0.78701
6524.95,0.78558
6501.8,0.79505
6478.66,0.80227
6455.51,0.80271
6432.37,0.80218
6409.22,0.80204
6386.08,0.79682
6362.93,0.78801
6339.79,0.78685
6316.64,0.78160
6293.5,0.76635
6270.35,0.76557
6247.21,0.74291
6224.06,0.72255
6200.92,0.69597
6177.77,0.65349
6154.63,0.56521
6131.48,0.49586
6108.34,0.43756
6085.19,0.43994
6062.05,0.46358
6038.9,0.45048
6015.76,0.33723
5992.61,0.24978
5969.47,0.19858
5946.32,0.19278
5923.18,0.21075
5900.03,0.22278
5876.89,0.26935
5853.74,0.29929
5830.6,0.30356
5807.45,0.30469
5784.31,0.30930
5761.16,0.36752
5738.02,0.40769
5714.87,0.37131
5691.73,0.34104
5668.58,0.32215
5645.44,0.35248
5622.29,0.38583
5599.15,0.38874
5576,0.38785
5552.86,0.39381
5529.71,0.39348
5506.57,0.39893
5483.42,0.41546
5460.28,0.42173
5437.13,0.41882
5413.99,0.41771
5390.84,0.41189
5367.7,0.41167
5344.55,0.42573
5321.41,0.43715
5298.26,0.44185
5275.12,0.44561
5251.97,0.44441
5228.83,0.44277
5205.68,0.45348
5182.54,0.45724
5159.39,0.45999
5136.25,0.45496
5113.1,0.45593
5089.96,0.45953
5066.81,0.46145
5043.67,0.45950
5020.52,0.46005
4997.38,0.45680
4974.23,0.45015
4951.09,0.45065
4927.94,0.45155
4904.8,0.44978
4881.65,0.44157
4858.51,0.43373
4835.36,0.42016
4812.22,0.42303
4789.07,0.41663
4765.93,0.38201
4742.78,0.37099
4719.64,0.32237
4696.49,0.27348
4673.35,0.15273
4650.2,0.15337
4627.06,0.13600
4603.92,0.12950
4580.77,0.16932
4557.63,0.19176
4534.48,0.23822
4511.34,0.23991
4488.19,0.25217
4465.05,0.26809
4441.9,0.24693
4418.76,0.23407
4395.61,0.20049
4372.47,0.16160
4349.32,0.13078
4326.18,0.12097
4303.03,0.13998
4279.89,0.12605
4256.74,0.10619
4233.6,0.10785
4210.45,0.10897
4187.31,0.11720
4164.16,0.12557
4141.02,0.12405
4117.87,0.11457
4094.73,0.10736
4071.58,0.08904
4048.44,0.08158
4025.29,0.08723
4002.15,0.10909
3979,0.12102
3955.86,0.12560
3932.71,0.12360
3909.57,0.12696
3886.42,0.13061
3863.28,0.13107
3840.13,0.12897
3816.99,0.12197
3793.84,0.12565
3770.7,0.13151
3747.55,0.13663
3724.41,0.12792
3701.26,0.12054
3678.12,0.11882
3654.97,0.10746
3631.83,0.12035
3608.68,0.13451
3585.54,0.14285
3562.39,0.15580
3539.25,0.15209
3516.1,0.14636
3492.96,0.14027
3469.81,0.13126
3446.67,0.12389
3423.52,0.13191
3400.38,0.13674
3377.23,0.13891
3354.09,0.14159
3330.94,0.13602
3307.8,0.12760
3284.65,0.12551
3261.51,0.12279
3238.36,0.11855
3215.22,0.10949
3192.07,0.09834
3168.93,0.08751
3145.78,0.08497
3122.64,0.07611
3099.49,0.06594
3076.35,0.06460
3053.2,0.06530
3030.06,0.06271
3006.91,0.06614
2983.77,0.06611
2960.62,0.06504
2937.48,0.06321
2914.33,0.06908
2891.19,0.06832
2868.04,0.06843
2844.9,0.06911
2821.75,0.06957
2798.61,0.07165
2775.46,0.07374
2752.32,0.07649
2729.17,0.07546
2706.03,0.07508
2682.88,0.07433
2659.74,0.07464
2636.59,0.07373
2613.45,0.07494
2590.3,0.07541
2567.16,0.07637
2544.02,0.07610
2520.87,0.07581
2497.73,0.07637
2474.58,0.07931
2451.44,0.08088
2428.29,0.08220
2405.15,0.08112
2382,0.07912
2358.86,0.07611
2335.71,0.07124
2312.57,0.07320
2289.42,0.07836
2266.28,0.07897
2243.13,0.07935
2219.99,0.08190
2196.84,0.08263
2173.7,0.08334
2150.55,0.08496
2127.41,0.08722
2104.26,0.08770
2081.12,0.08832
2057.97,0.08577
2034.83,0.08322
2011.68,0.07962
1988.54,0.07128
1965.39,0.06682
1942.25,0.06593
1919.1,0.06906
1895.96,0.06739
1872.81,0.06585
1849.67,0.06877
1826.52,0.06671
1803.38,0.06531
1780.23,0.06710
1757.09,0.06558
1733.94,0.06529
1710.8,0.06696
1687.65,0.06555
1664.51,0.06471
1641.36,0.06542
1618.22,0.06438
1595.07,0.06599
1571.93,0.06586
1548.78,0.06396
1525.64,0.06392
1502.49,0.06073
1479.35,0.06537
1456.2,0.05942
1433.06,0.06754
1409.91,0.06566
1386.77,0.06396
1363.62,0.06460
1340.48,0.06489
1317.33,0.06507
1294.19,0.06448
1271.04,0.06527
1247.9,0.06485
1224.75,0.06427
1201.61,0.06325
1178.46,0.06424
1155.32,0.06412
1132.17,0.06536
1109.03,0.06374
1085.88,0.06233
1062.74,0.06331
1039.59,0.06238
1016.45,0.06557
993.304,0.06384
970.159,0.06346
947.014,0.06292
923.869,0.06229
900.724,0.06306
877.579,0.06189
854.434,0.06107
831.289,0.06062
808.144,0.05877
784.999,0.05453
761.854,0.05511
738.709,0.06517
715.565,0.04921
692.42,0.11103
669.275,0.07302
646.13,0.07045
622.985,0.06783
599.84,0.06790