File: 01_Data/PlasticC/FTIR/IS/PlasticC_IS_S_220907_R7.dpt
7497.03,0.83343
7473.89,0.82082
7450.74,0.82035
7427.6,0.79520
7404.45,0.79697
7381.31,0.80512
7358.16,0.80005
7335.02,0.79699
7311.87,0.77763
7288.73,0.76568
7265.58,0.74023
7242.44,0.73193
7219.29,0.72014
7196.15,0.70477
7173,0.70147
7149.86,0.69585
7126.71,0.69230
7103.57,0.68854
7080.42,0.66439
7057.28,0.67810
7034.13,0.68310
7010.99,0.69606
6987.84,0.68698
6964.7,0.69489
6941.55,0.69865
6918.41,0.70811
6895.26,0.71167
6872.12,0.71918
6848.97,0.72898
6825.83,0.73140
6802.68,0.73342
6779.54,0.74108
6756.39,0.74491
6733.25,0.73893
6710.1,0.74961
6686.96,0.75609
6663.82,0.76497
6640.67,0.76747
6617.53,0.77079
6594.38,0.77439
6571.24,0.77981
6548.09,0.78335
6524.95,0.78469
6501.8,0.79238
6478.66,0.79565
6455.51,0.79681
6432.37,0.80403
6409.22,0.79886
6386.08,0.79199
6362.93,0.78571
6339.79,0.78106
6316.64,0.77618
6293.5,0.76126
6270.35,0.75832
6247.21,0.74451
6224.06,0.72265
6200.92,0.69425
6177.77,0.64905
6154.63,0.56517
6131.48,0.49384
6108.34,0.43571
6085.19,0.43867
6062.05,0.46169
6038.9,0.45052
6015.76,0.33302
5992.61,0.25148
5969.47,0.19967
5946.32,0.19409
5923.18,0.21000
5900.03,0.22433
5876.89,0.26919
5853.74,0.29788
5830.6,0.30163
5807.45,0.30341
5784.31,0.30964
5761.16,0.36434
5738.02,0.40673
5714.87,0.36965
5691.73,0.33980
5668.58,0.32282
5645.44,0.35285
5622.29,0.38590
5599.15,0.38741
5576,0.38720
5552.86,0.39454
5529.71,0.39244
5506.57,0.39884
5483.42,0.41391
5460.28,0.41965
5437.13,0.41798
5413.99,0.41573
5390.84,0.40967
5367.7,0.40974
5344.55,0.42480
5321.41,0.43796
5298.26,0.43816
5275.12,0.44564
5251.97,0.44461
5228.83,0.44197
5205.68,0.45151
5182.54,0.45560
5159.39,0.45954
5136.25,0.45491
5113.1,0.45251
5089.96,0.45814
5066.81,0.46026
5043.67,0.45707
5020.52,0.45975
4997.38,0.45792
4974.23,0.44881
4951.09,0.45039
4927.94,0.44898
4904.8,0.44937
4881.65,0.43903
4858.51,0.43269
4835.36,0.41872
4812.22,0.42137
4789.07,0.41601
4765.93,0.37855
4742.78,0.37018
4719.64,0.32045
4696.49,0.27285
4673.35,0.15175
4650.2,0.15381
4627.06,0.13527
4603.92,0.12892
4580.77,0.16869
4557.63,0.19092
4534.48,0.23774
4511.34,0.23874
4488.19,0.25146
4465.05,0.26740
4441.9,0.24643
4418.76,0.23340
4395.61,0.19930
4372.47,0.16107
4349.32,0.13021
4326.18,0.12090
4303.03,0.14011
4279.89,0.12597
4256.74,0.10603
4233.6,0.10720
4210.45,0.10910
4187.31,0.11771
4164.16,0.12516
4141.02,0.12418
4117.87,0.11508
4094.73,0.10741
4071.58,0.08902
4048.44,0.08179
4025.29,0.08702
4002.15,0.10874
3979,0.12079
3955.86,0.12539
3932.71,0.12244
3909.57,0.12765
3886.42,0.13065
3863.28,0.13037
3840.13,0.12828
3816.99,0.12164
3793.84,0.12502
3770.7,0.13036
3747.55,0.13672
3724.41,0.12737
3701.26,0.12108
3678.12,0.11951
3654.97,0.10705
3631.83,0.11967
3608.68,0.13492
3585.54,0.14274
3562.39,0.15498
3539.25,0.15249
3516.1,0.14610
3492.96,0.13988
3469.81,0.13025
3446.67,0.12347
3423.52,0.13085
3400.38,0.13601
3377.23,0.13772
3354.09,0.14159
3330.94,0.13590
3307.8,0.12692
3284.65,0.12516
3261.51,0.12241
3238.36,0.11797
3215.22,0.10928
3192.07,0.09840
3168.93,0.08739
3145.78,0.08490
3122.64,0.07566
3099.49,0.06555
3076.35,0.06415
3053.2,0.06520
3030.06,0.06291
3006.91,0.06653
2983.77,0.06627
2960.62,0.06440
2937.48,0.06340
2914.33,0.06937
2891.19,0.06820
2868.04,0.06764
2844.9,0.06869
2821.75,0.06996
2798.61,0.07192
2775.46,0.07324
2752.32,0.07644
2729.17,0.07497
2706.03,0.07483
2682.88,0.07425
2659.74,0.07466
2636.59,0.07338
2613.45,0.07467
2590.3,0.07543
2567.16,0.07622
2544.02,0.07535
2520.87,0.07592
2497.73,0.07652
2474.58,0.07884
2451.44,0.08066
2428.29,0.08203
2405.15,0.08082
2382,0.07941
2358.86,0.07579
2335.71,0.07114
2312.57,0.07322
2289.42,0.07798
2266.28,0.07921
2243.13,0.07938
2219.99,0.08156
2196.84,0.08282
2173.7,0.08343
2150.55,0.08422
2127.41,0.08662
2104.26,0.08770
2081.12,0.08801
2057.97,0.08565
2034.83,0.08285
2011.68,0.07960
1988.54,0.07130
1965.39,0.06663
1942.25,0.06565
1919.1,0.06894
1895.96,0.06741
1872.81,0.06560
1849.67,0.06846
1826.52,0.06670
1803.38,0.06508
1780.23,0.06714
1757.09,0.06543
1733.94,0.06588
1710.8,0.06634
1687.65,0.06496
1664.51,0.06471
1641.36,0.06545
1618.22,0.06452
1595.07,0.06601
1571.93,0.06547
1548.78,0.06411
1525.64,0.06416
1502.49,0.06007
1479.35,0.06559
1456.2,0.05958
1433.06,0.06764
1409.91,0.06571
1386.77,0.06433
1363.62,0.06504
1340.48,0.06479
1317.33,0.06447
1294.19,0.06448
1271.04,0.06497
1247.9,0.06433
1224.75,0.06453
1201.61,0.06325
1178.46,0.06410
1155.32,0.06405
1132.17,0.06459
1109.03,0.06322
1085.88,0.06252
1062.74,0.06331
1039.59,0.06180
1016.45,0.06507
993.304,0.06386
970.159,0.06306
947.014,0.06302
923.869,0.06162
900.724,0.06289
877.579,0.06214
854.434,0.06034
831.289,0.06034
808.144,0.05859
784.999,0.05440
761.854,0.05541
738.709,0.06417
715.565,0.04969
692.42,0.11061
669.275,0.07387
646.13,0.06846
622.985,0.06544
599.84,0.06477