File: 01_Data/PlasticC/FTIR/IS/PlasticC_IS_S_220907_R6.dpt
7497.03,0.82565
7473.89,0.83071
7450.74,0.80526
7427.6,0.78955
7404.45,0.80232
7381.31,0.80817
7358.16,0.80576
7335.02,0.79705
7311.87,0.77378
7288.73,0.76170
7265.58,0.74760
7242.44,0.72084
7219.29,0.72363
7196.15,0.69710
7173,0.69186
7149.86,0.69638
7126.71,0.69847
7103.57,0.68162
7080.42,0.68073
7057.28,0.67606
7034.13,0.68360
7010.99,0.68831
6987.84,0.68909
6964.7,0.69228
6941.55,0.69845
6918.41,0.69713
6895.26,0.70945
6872.12,0.72354
6848.97,0.71968
6825.83,0.72731
6802.68,0.73239
6779.54,0.73433
6756.39,0.73896
6733.25,0.74488
6710.1,0.74445
6686.96,0.74998
6663.82,0.75718
6640.67,0.76406
6617.53,0.76630
6594.38,0.76601
6571.24,0.77514
6548.09,0.77766
6524.95,0.77819
6501.8,0.79321
6478.66,0.79352
6455.51,0.79910
6432.37,0.79610
6409.22,0.79793
6386.08,0.79042
6362.93,0.78573
6339.79,0.78150
6316.64,0.77149
6293.5,0.76033
6270.35,0.75645
6247.21,0.73646
6224.06,0.71919
6200.92,0.68942
6177.77,0.64448
6154.63,0.56139
6131.48,0.49149
6108.34,0.43313
6085.19,0.43653
6062.05,0.46160
6038.9,0.44776
6015.76,0.33298
5992.61,0.24810
5969.47,0.19855
5946.32,0.18872
5923.18,0.20995
5900.03,0.22315
5876.89,0.26920
5853.74,0.29315
5830.6,0.30036
5807.45,0.30028
5784.31,0.30966
5761.16,0.36345
5738.02,0.40463
5714.87,0.36942
5691.73,0.33850
5668.58,0.32147
5645.44,0.35017
5622.29,0.38201
5599.15,0.38675
5576,0.38539
5552.86,0.39153
5529.71,0.39179
5506.57,0.39741
5483.42,0.41194
5460.28,0.42100
5437.13,0.41649
5413.99,0.41182
5390.84,0.40829
5367.7,0.40880
5344.55,0.42300
5321.41,0.43424
5298.26,0.43751
5275.12,0.44181
5251.97,0.44138
5228.83,0.44024
5205.68,0.44952
5182.54,0.45364
5159.39,0.45557
5136.25,0.45210
5113.1,0.45217
5089.96,0.45700
5066.81,0.45690
5043.67,0.45414
5020.52,0.45937
4997.38,0.45445
4974.23,0.44596
4951.09,0.44754
4927.94,0.44686
4904.8,0.44644
4881.65,0.43652
4858.51,0.42975
4835.36,0.41721
4812.22,0.42023
4789.07,0.41420
4765.93,0.37982
4742.78,0.36860
4719.64,0.31994
4696.49,0.27211
4673.35,0.15047
4650.2,0.15185
4627.06,0.13599
4603.92,0.12848
4580.77,0.16805
4557.63,0.18991
4534.48,0.23599
4511.34,0.23815
4488.19,0.25068
4465.05,0.26572
4441.9,0.24537
4418.76,0.23296
4395.61,0.19826
4372.47,0.16020
4349.32,0.12988
4326.18,0.11980
4303.03,0.13928
4279.89,0.12542
4256.74,0.10583
4233.6,0.10720
4210.45,0.10806
4187.31,0.11625
4164.16,0.12388
4141.02,0.12456
4117.87,0.11391
4094.73,0.10653
4071.58,0.08887
4048.44,0.08095
4025.29,0.08659
4002.15,0.10797
3979,0.12048
3955.86,0.12512
3932.71,0.12237
3909.57,0.12730
3886.42,0.13030
3863.28,0.13072
3840.13,0.12719
3816.99,0.12118
3793.84,0.12458
3770.7,0.13076
3747.55,0.13579
3724.41,0.12659
3701.26,0.11991
3678.12,0.11832
3654.97,0.10599
3631.83,0.11875
3608.68,0.13369
3585.54,0.14224
3562.39,0.15470
3539.25,0.15142
3516.1,0.14537
3492.96,0.13938
3469.81,0.13035
3446.67,0.12339
3423.52,0.13087
3400.38,0.13561
3377.23,0.13802
3354.09,0.14078
3330.94,0.13500
3307.8,0.12565
3284.65,0.12423
3261.51,0.12195
3238.36,0.11869
3215.22,0.10811
3192.07,0.09758
3168.93,0.08709
3145.78,0.08429
3122.64,0.07523
3099.49,0.06566
3076.35,0.06406
3053.2,0.06483
3030.06,0.06238
3006.91,0.06569
2983.77,0.06655
2960.62,0.06443
2937.48,0.06302
2914.33,0.06933
2891.19,0.06844
2868.04,0.06751
2844.9,0.06844
2821.75,0.06961
2798.61,0.07094
2775.46,0.07268
2752.32,0.07588
2729.17,0.07513
2706.03,0.07464
2682.88,0.07397
2659.74,0.07410
2636.59,0.07323
2613.45,0.07415
2590.3,0.07528
2567.16,0.07583
2544.02,0.07545
2520.87,0.07536
2497.73,0.07577
2474.58,0.07848
2451.44,0.07998
2428.29,0.08215
2405.15,0.08086
2382,0.07864
2358.86,0.07583
2335.71,0.07090
2312.57,0.07308
2289.42,0.07772
2266.28,0.07841
2243.13,0.07878
2219.99,0.08105
2196.84,0.08251
2173.7,0.08339
2150.55,0.08415
2127.41,0.08615
2104.26,0.08746
2081.12,0.08804
2057.97,0.08551
2034.83,0.08242
2011.68,0.07893
1988.54,0.07139
1965.39,0.06647
1942.25,0.06550
1919.1,0.06860
1895.96,0.06695
1872.81,0.06532
1849.67,0.06842
1826.52,0.06678
1803.38,0.06505
1780.23,0.06666
1757.09,0.06510
1733.94,0.06528
1710.8,0.06617
1687.65,0.06532
1664.51,0.06436
1641.36,0.06525
1618.22,0.06457
1595.07,0.06570
1571.93,0.06531
1548.78,0.06410
1525.64,0.06421
1502.49,0.06005
1479.35,0.06546
1456.2,0.05887
1433.06,0.06760
1409.91,0.06554
1386.77,0.06388
1363.62,0.06428
1340.48,0.06433
1317.33,0.06440
1294.19,0.06471
1271.04,0.06444
1247.9,0.06469
1224.75,0.06423
1201.61,0.06406
1178.46,0.06404
1155.32,0.06382
1132.17,0.06488
1109.03,0.06377
1085.88,0.06231
1062.74,0.06296
1039.59,0.06248
1016.45,0.06567
993.304,0.06369
970.159,0.06316
947.014,0.06285
923.869,0.06248
900.724,0.06285
877.579,0.06156
854.434,0.06141
831.289,0.06028
808.144,0.05884
784.999,0.05461
761.854,0.05476
738.709,0.06472
715.565,0.04927
692.42,0.11052
669.275,0.07352
646.13,0.06914
622.985,0.06587
599.84,0.06530