File: 01_Data/Plywood/STA/N2/10K_min/Plywood_STA_N2_10KData_22243_R2.csv
##Temp./Â°C,Time/min,Mass loss(subtr.)/mg,DSC(subtr.2)/(mW/mg)
49.866,10.01,-0.06833,0.03956125
52.566,11.22699,-0.07342673,0.13874
55.266,11.63187,-0.07618084,0.18909
57.966,11.97235,-0.07532192,0.21949
60.666,12.2869,-0.07688747,0.23996
63.366,12.58986,-0.07974748,0.25519
66.066,12.8865,-0.08150014,0.274
68.766,13.17915,-0.08412105,0.28358
71.466,13.46728,-0.08410967,0.29838
74.166,13.75286,-0.08605489,0.3097
76.866,14.03552,-0.08961628,0.31992
79.566,14.31596,-0.08952547,0.33073
82.266,14.59295,-0.09355637,0.33902
84.966,14.8686,-0.09488156,0.3371
87.666,15.14324,-0.09870175,0.34473
90.366,15.41588,-0.10013,0.34319
93.066,15.68583,-0.10277,0.33883
95.766,15.95467,-0.10607,0.33607
98.466,16.22229,-0.10738,0.32675
101.166,16.48863,-0.10869,0.32114
103.866,16.75434,-0.11142,0.31519
106.566,17.01877,-0.11133,0.30833
109.266,17.28389,-0.11264,0.30281
111.966,17.54833,-0.11464,0.29683
114.666,17.81237,-0.11495,0.29507
117.366,18.07609,-0.11527,0.29254
120.066,18.33974,-0.11396,0.29034
122.766,18.60329,-0.11528,0.29107
125.466,18.86651,-0.11528,0.29129
128.166,19.12929,-0.11659,0.2926
130.866,19.39151,-0.11659,0.29751
133.566,19.65357,-0.11627,0.29735
136.266,19.91513,-0.11659,0.30008
138.966,20.17609,-0.11654,0.30155
141.666,20.43658,-0.11791,0.30258
144.366,20.69702,-0.11921,0.3061
147.066,20.95744,-0.11791,0.3055
149.766,21.21841,-0.11791,0.30952
152.466,21.47905,-0.12028,0.31191
155.166,21.7389,-0.12208,0.31726
157.866,21.99815,-0.12171,0.32282
160.566,22.25781,-0.12439,0.32453
163.266,22.51716,-0.12483,0.33053
165.966,22.77596,-0.12573,0.33483
168.666,23.03507,-0.12705,0.34008
171.366,23.29376,-0.12798,0.34338
174.066,23.5517,-0.12734,0.3431
176.766,23.81056,-0.13002,0.34547
179.466,24.06868,-0.13394,0.34993
182.166,24.32692,-0.13458,0.35235
184.866,24.5851,-0.13731,0.35605
187.566,24.84379,-0.13986,0.35971
190.266,25.10281,-0.14215,0.35673
192.966,25.36106,-0.14446,0.36122
195.666,25.61985,-0.14796,0.36093
198.366,25.87736,-0.14961,0.35945
201.066,26.13452,-0.15356,0.36109
203.766,26.39219,-0.1576,0.36019
206.466,26.64976,-0.16209,0.35954
209.166,26.9081,-0.16722,0.36226
211.866,27.16601,-0.1713,0.36215
214.566,27.42429,-0.17652,0.36191
217.266,27.68185,-0.18349,0.36308
219.966,27.93999,-0.18811,0.36521
222.666,28.19764,-0.1973,0.36775
225.366,28.45523,-0.20389,0.36866
228.066,28.71239,-0.21016,0.36969
230.766,28.96995,-0.22025,0.37064
233.466,29.22711,-0.22995,0.37203
236.166,29.48471,-0.23806,0.37218
238.866,29.74198,-0.24769,0.37419
241.566,29.99946,-0.25667,0.37384
244.266,30.25735,-0.26935,0.3763
246.966,30.51622,-0.28062,0.37574
249.666,30.77427,-0.29299,0.37682
252.366,31.0318,-0.30555,0.37848
255.066,31.28997,-0.31852,0.37553
257.766,31.54834,-0.3341,0.3787
260.466,31.80621,-0.3504,0.37908
263.166,32.06399,-0.36818,0.37909
265.866,32.32181,-0.38652,0.37861
268.566,32.57979,-0.40736,0.3798
271.266,32.83708,-0.42809,0.37684
273.966,33.09386,-0.45136,0.37656
276.666,33.35203,-0.47789,0.37347
279.366,33.6095,-0.50535,0.37338
282.066,33.86811,-0.53736,0.37067
284.766,34.12662,-0.57254,0.36732
287.466,34.38564,-0.60914,0.3661
290.166,34.64436,-0.64822,0.36642
292.866,34.90291,-0.69023,0.37121
295.566,35.1618,-0.73526,0.37316
298.266,35.42063,-0.78393,0.37699
300.966,35.67937,-0.83406,0.37832
303.666,35.93835,-0.88915,0.38362
306.366,36.19733,-0.94413,0.388
309.066,36.45638,-1.00447,0.39097
311.766,36.71515,-1.06759,0.39222
314.466,36.9744,-1.13404,0.39299
317.166,37.23409,-1.20351,0.39282
319.866,37.49391,-1.2751,0.3937
322.566,37.75353,-1.34819,0.3903
325.266,38.01359,-1.427,0.38731
327.966,38.27338,-1.5089,0.38566
330.666,38.53306,-1.5901,0.37994
333.366,38.79404,-1.67669,0.37364
336.066,39.05444,-1.76596,0.36473
338.766,39.3152,-1.85306,0.35827
341.466,39.57619,-1.94139,0.3407
344.166,39.83804,-2.02885,0.32145
346.866,40.09964,-2.11499,0.30242
349.566,40.36116,-2.19593,0.27513
352.266,40.62233,-2.27306,0.24915
354.966,40.8836,-2.34626,0.21746
357.666,41.14481,-2.41167,0.1858
360.366,41.40499,-2.47006,0.15464
363.066,41.66609,-2.52005,0.12568
365.766,41.92661,-2.56314,0.09546134
368.466,42.18756,-2.59861,0.06873191
371.166,42.45028,-2.62988,0.04463718
373.866,42.71222,-2.65181,0.0232135
376.566,42.97503,-2.67265,0.00423234
379.266,43.23718,-2.68749,-0.009484372
381.966,43.49895,-2.70363,-0.01848691
384.666,43.76101,-2.71119,-0.03091062
387.366,44.02307,-2.72922,-0.03971783
390.066,44.2862,-2.73884,-0.05174913
392.766,44.54842,-2.7469,-0.05710002
395.466,44.81046,-2.75377,-0.06601976
398.166,45.07287,-2.76815,-0.07473865
400.866,45.33598,-2.77975,-0.08232007
403.566,45.59846,-2.78954,-0.0884687
406.266,45.86187,-2.79985,-0.09062861
408.966,46.12524,-2.80964,-0.09336992
411.666,46.38827,-2.82018,-0.09751806
414.366,46.65227,-2.83031,-0.09842009
417.066,46.91627,-2.83958,-0.09345061
419.766,47.18004,-2.84899,-0.09446732
422.466,47.44438,-2.85782,-0.09348331
425.166,47.70891,-2.8672,-0.09082329
427.866,47.97276,-2.87664,-0.08281165
430.566,48.23713,-2.88357,-0.07853438
433.266,48.50071,-2.89123,-0.07411405
435.966,48.76475,-2.89899,-0.06799965
438.666,49.02888,-2.90682,-0.06080446
441.366,49.29304,-2.91372,-0.05649183
444.066,49.55741,-2.92008,-0.05099125
446.766,49.82164,-2.92662,-0.04530026
449.466,50.08632,-2.93312,-0.04187782
452.166,50.3521,-2.93869,-0.0387758
454.866,50.61814,-2.94475,-0.03599032
457.566,50.88367,-2.95133,-0.03057958
460.266,51.14996,-2.95593,-0.02802986
462.966,51.41561,-2.96172,-0.02738266
465.666,51.68234,-2.96782,-0.0243737
468.366,51.94927,-2.97081,-0.0259629
471.066,52.21603,-2.97739,-0.01731188
473.766,52.48343,-2.98138,-0.02209888
476.466,52.75085,-2.98665,-0.01833259
479.166,53.0181,-2.99183,-0.01761142
481.866,53.28527,-2.99463,-0.02029147
484.566,53.55319,-2.9972,-0.02117112
487.266,53.82094,-3.00255,-0.01967063
489.966,54.08848,-3.00549,-0.01916527
492.666,54.35582,-3.00945,-0.01981845
495.366,54.62329,-3.01175,-0.01924622
498.066,54.8908,-3.01571,-0.0222024
500.766,55.15835,-3.01989,-0.02156036
503.466,55.42554,-3.02242,-0.02331638
506.166,55.69285,-3.02609,-0.02498421
508.866,55.96127,-3.02984,-0.02647594
511.566,56.22953,-3.03246,-0.02696071
514.266,56.49763,-3.03179,-0.03016032
516.966,56.76589,-3.0362,-0.03122561
519.666,57.03418,-3.04016,-0.02836762
522.366,57.30241,-3.04636,-0.02455734
525.066,57.57107,-3.04886,-0.01784625
527.766,57.83969,-3.05014,-0.007111594
530.466,58.10857,-3.05377,0.001909617
533.166,58.37732,-3.05646,0.003502494
535.866,58.64603,-3.05728,0.007546495
538.566,58.91476,-3.062,0.01232359
541.266,59.18338,-3.06357,0.01318829
543.966,59.4522,-3.06811,0.01962094
546.666,59.72094,-3.06813,0.02262255
549.366,59.98962,-3.07077,0.02231784
552.066,60.25789,-3.0747,0.01080987
554.766,60.52665,-3.07838,0.001385311
557.466,60.79614,-3.07893,-0.001959034
560.166,61.06606,-3.08229,-0.006223214
562.866,61.33651,-3.08229,-0.008562567
565.566,61.6064,-3.08623,-0.01061752
568.266,61.87667,-3.08755,-0.01300153
570.966,62.14627,-3.09017,-0.01683561
573.666,62.41701,-3.09155,-0.02037188
576.366,62.68684,-3.09485,-0.02180977
579.066,62.95678,-3.09512,-0.02122645
581.766,63.22746,-3.09644,-0.02570614
584.466,63.49771,-3.09709,-0.0263572
587.166,63.76791,-3.09973,-0.02755762
589.866,64.03871,-3.10038,-0.03182631
592.566,64.30957,-3.10433,-0.03380112
595.266,64.58078,-3.10467,-0.03684306
597.966,64.85212,-3.1073,-0.03799074
600.666,65.12365,-3.1085,-0.03636611
603.366,65.39449,-3.1118,-0.03564145
606.066,65.66536,-3.11376,-0.03605195
608.766,65.93569,-3.11415,-0.03799186
611.466,66.2068,-3.11541,-0.03798629
614.166,66.47741,-3.11794,-0.04009563
616.866,66.74906,-3.11804,-0.03587844
619.566,67.02045,-3.12035,-0.03553644
622.266,67.29161,-3.12199,-0.04049133
624.966,67.56371,-3.122,-0.03995449
627.666,67.83589,-3.12265,-0.03887898
630.366,68.10761,-3.12562,-0.03686545
633.066,68.38007,-3.12934,-0.03448385
635.766,68.65197,-3.12826,-0.03902154
638.466,68.9235,-3.12991,-0.03186977
641.166,69.19596,-3.13056,-0.035216
643.866,69.46847,-3.13125,-0.03255911
646.566,69.74109,-3.13258,-0.03308005
649.266,70.01312,-3.1335,-0.03506322
651.966,70.28515,-3.13561,-0.03455228
654.666,70.55634,-3.13647,-0.03492155
657.366,70.82874,-3.13873,-0.03812825
660.066,71.10115,-3.13812,-0.036885
662.766,71.37338,-3.1391,-0.04078418
665.466,71.64663,-3.14108,-0.04241574
668.166,71.91875,-3.14207,-0.04299677
670.866,72.1914,-3.14503,-0.04019815
673.566,72.46418,-3.14568,-0.04134662
676.266,72.73625,-3.14635,-0.04475845
678.966,73.00864,-3.14766,-0.04565123
681.666,73.28179,-3.14911,-0.05164905
684.366,73.55479,-3.15166,-0.04780082
687.066,73.82794,-3.15153,-0.05229708
689.766,74.10039,-3.15413,-0.05391247
692.466,74.37202,-3.15512,-0.05419489
695.166,74.64495,-3.15696,-0.05562605
697.866,74.91804,-3.15699,-0.05446138
700.566,75.19066,-3.15961,-0.05417918
703.266,75.46497,-3.15962,-0.0593108
705.966,75.73958,-3.1584,-0.06118806
708.666,76.01408,-3.16017,-0.06187286
711.366,76.28877,-3.16192,-0.06443932
714.066,76.5634,-3.1629,-0.06976786
716.766,76.83706,-3.16356,-0.07308246
719.466,77.11075,-3.16554,-0.07416995
722.166,77.38455,-3.16587,-0.08049729
724.866,77.6584,-3.16817,-0.08545041
727.566,77.93177,-3.16817,-0.08590596
730.266,78.20486,-3.16883,-0.09063484
732.966,78.47842,-3.17146,-0.0956081
735.666,78.75203,-3.17173,-0.10038
738.366,79.0263,-3.17343,-0.1027
741.066,79.30119,-3.17475,-0.1062
743.766,79.57597,-3.17475,-0.10993
746.466,79.85026,-3.17442,-0.11342
749.166,80.12462,-3.17625,-0.11557
751.866,80.39909,-3.17837,-0.11778
754.566,80.67178,-3.17706,-0.1196
757.266,80.94631,-3.17838,-0.12112
759.966,81.2205,-3.17969,-0.12414
762.666,81.49455,-3.18231,-0.12563
765.366,81.76854,-3.18056,-0.13162
768.066,82.0431,-3.18287,-0.13062
770.766,82.31711,-3.18155,-0.13589
773.466,82.5916,-3.1832,-0.13784
776.166,82.86642,-3.1855,-0.13977
778.866,83.14101,-3.18572,-0.14229
781.566,83.4156,-3.18671,-0.14859
784.266,83.69081,-3.18934,-0.14886
786.966,83.96557,-3.18803,-0.15106
789.666,84.24021,-3.18956,-0.15448
792.366,84.51508,-3.18956,-0.15744
795.066,84.78977,-3.19088,-0.1549
797.066,84.99369,-3.18933,-0.1624