File: 01_Data/Plywood/STA/N2/10K_min/Plywood_STA_N2_10KData_22243_R1.csv
##Temp./Â°C,Time/min,Mass loss(subtr.)/mg,DSC(subtr.2)/(mW/mg)
49.94,10.00917,0.00439,0.000695778
52.64,11.22006,0.00495191,0.09861571
55.34,11.62452,0.004235716,0.15573
58.04,11.96431,0.00335512,0.18924
60.74,12.27888,0.002516222,0.21066
63.44,12.58183,0.001006649,0.22985
66.14,12.87825,0.001674321,0.24364
68.84,13.16937,0.001078793,0.25559
71.54,13.45795,0.001100285,0.27104
74.24,13.74327,-0.000225476,0.28184
76.94,14.02564,0.000135319,0.29497
79.64,14.30552,-0.001539253,0.30089
82.34,14.58393,-0.002861031,0.31122
85.04,14.85933,-0.003851621,0.31618
87.74,15.13358,-0.004276453,0.32006
90.44,15.40535,-0.00540041,0.32168
93.14,15.6747,-0.005483254,0.31849
95.84,15.94477,-0.006841653,0.31498
98.54,16.21153,-0.008779859,0.30965
101.24,16.47776,-0.008115165,0.30607
103.94,16.74316,-0.01079983,0.29715
106.64,17.00793,-0.01076329,0.29234
109.34,17.27295,-0.0117401,0.28741
112.04,17.53712,-0.01173929,0.28358
114.74,17.80088,-0.01174005,0.28418
117.44,18.06555,-0.01141,0.28087
120.14,18.32892,-0.01009,0.28208
122.84,18.59289,-0.01163979,0.28025
125.54,18.8556,-0.01082549,0.28164
128.24,19.11846,-0.01009352,0.28577
130.94,19.38036,-0.01043,0.29004
133.64,19.64223,-0.01041585,0.29033
136.34,19.90326,-0.0104196,0.29519
139.04,20.16451,-0.01172338,0.29908
141.74,20.42514,-0.01108,0.29969
144.44,20.68637,-0.01122947,0.30724
147.14,20.94691,-0.01239085,0.30834
149.84,21.20717,-0.01372237,0.31507
152.54,21.46714,-0.01499164,0.31604
155.24,21.72716,-0.01699501,0.32049
157.94,21.986,-0.01701019,0.32431
160.64,22.24578,-0.01700733,0.32796
163.34,22.5048,-0.01799,0.33178
166.04,22.76344,-0.01940599,0.33854
168.74,23.02185,-0.01959912,0.34161
171.44,23.28048,-0.01833001,0.34749
174.14,23.53891,-0.01963933,0.34663
176.84,23.79737,-0.01963999,0.35353
179.54,24.05617,-0.01937754,0.35441
182.24,24.31429,-0.02063011,0.35693
184.94,24.57254,-0.02295286,0.3638
187.64,24.83061,-0.02600983,0.36431
190.34,25.08742,-0.02655,0.36909
193.04,25.34438,-0.02852971,0.37257
195.74,25.60155,-0.0311275,0.37174
198.44,25.85877,-0.03377786,0.37326
201.14,26.11662,-0.03656926,0.36888
203.84,26.37517,-0.04175138,0.36749
206.54,26.63369,-0.04573326,0.36576
209.24,26.89206,-0.05249451,0.3667
211.94,27.14971,-0.05650197,0.37019
214.64,27.40783,-0.06297702,0.37196
217.34,27.66549,-0.06966543,0.37282
220.04,27.92389,-0.07620265,0.37529
222.74,28.18197,-0.08144576,0.37805
225.44,28.43949,-0.09018386,0.38066
228.14,28.69687,-0.09742508,0.38159
230.84,28.95427,-0.10711,0.38404
233.54,29.21167,-0.11408,0.38546
236.24,29.46892,-0.1245,0.38594
238.94,29.72646,-0.13488,0.39086
241.64,29.98413,-0.14576,0.38982
244.34,30.24132,-0.1563,0.39081
247.04,30.49898,-0.16814,0.39313
249.74,30.75661,-0.17991,0.39125
252.44,31.01423,-0.19326,0.39259
255.14,31.27165,-0.2076,0.39157
257.84,31.52981,-0.22244,0.39047
260.54,31.78823,-0.23545,0.39072
263.24,32.04709,-0.25222,0.38999
265.94,32.30507,-0.27057,0.39121
268.64,32.56288,-0.29015,0.39248
271.34,32.81995,-0.31271,0.3908
274.04,33.07811,-0.33772,0.3948
276.74,33.33582,-0.36301,0.39248
279.44,33.59323,-0.38963,0.39013
282.14,33.85105,-0.42175,0.38854
284.84,34.10903,-0.45573,0.38598
287.54,34.36777,-0.49197,0.388
290.24,34.62618,-0.53101,0.3874
292.94,34.88566,-0.57353,0.38792
295.64,35.14491,-0.61613,0.39184
298.34,35.40363,-0.66672,0.39614
301.04,35.66309,-0.71601,0.4034
303.74,35.92142,-0.76921,0.40961
306.44,36.18025,-0.82784,0.41254
309.14,36.43907,-0.88735,0.41788
311.84,36.69746,-0.95037,0.42074
314.54,36.95672,-1.0153,0.42404
317.24,37.21666,-1.08461,0.42557
319.94,37.47645,-1.15706,0.42548
322.64,37.73626,-1.23182,0.42701
325.34,37.99595,-1.30947,0.42655
328.04,38.25602,-1.38885,0.42347
330.74,38.51678,-1.47432,0.42007
333.44,38.77752,-1.5589,0.41147
336.14,39.03776,-1.64655,0.40507
338.84,39.2985,-1.73434,0.39437
341.54,39.55901,-1.82273,0.37826
344.24,39.81972,-1.90964,0.36146
346.94,40.07958,-1.9942,0.33813
349.64,40.33944,-2.07634,0.31367
352.34,40.59869,-2.15073,0.28319
355.04,40.85805,-2.22179,0.25352
357.74,41.11778,-2.28546,0.21896
360.44,41.37814,-2.34058,0.18549
363.14,41.63909,-2.39159,0.15545
365.84,41.90048,-2.43394,0.12797
368.54,42.16262,-2.46733,0.09779569
371.24,42.42455,-2.49598,0.0757998
373.94,42.68711,-2.51991,0.05543529
376.64,42.9502,-2.54082,0.03620884
379.34,43.21256,-2.55658,0.02279185
382.04,43.47432,-2.57071,0.01434253
384.74,43.73715,-2.58269,0.00396156
387.44,43.99976,-2.59495,-0.003422797
390.14,44.26222,-2.60673,-0.01384734
392.84,44.52448,-2.61684,-0.02120003
395.54,44.78628,-2.62757,-0.02866253
398.24,45.04859,-2.63782,-0.03296706
400.94,45.31119,-2.64934,-0.03641564
403.64,45.57419,-2.66056,-0.04499849
406.34,45.83799,-2.67066,-0.04715538
409.04,46.10159,-2.67949,-0.05137784
411.74,46.36543,-2.69153,-0.05122212
414.44,46.62938,-2.7007,-0.05045585
417.14,46.8941,-2.71174,-0.05215466
419.84,47.15869,-2.71985,-0.05531127
422.54,47.42362,-2.72815,-0.04676695
425.24,47.689,-2.73666,-0.04232265
427.94,47.95412,-2.74634,-0.03846587
430.64,48.21983,-2.75363,-0.03376304
433.34,48.48551,-2.76061,-0.02743573
436.04,48.75108,-2.7703,-0.0206208
438.74,49.01596,-2.77729,-0.01631299
441.44,49.28132,-2.78393,-0.01143339
444.14,49.54601,-2.79106,-0.00499934
446.84,49.81044,-2.79833,0.001844765
449.54,50.07583,-2.80575,0.00635997
452.24,50.3419,-2.81232,0.01119631
454.94,50.60761,-2.81715,0.0157875
457.64,50.87391,-2.82426,0.01835294
460.34,51.14028,-2.82995,0.02232964
463.04,51.40627,-2.8375,0.02486603
465.74,51.67209,-2.84101,0.02846068
468.44,51.9372,-2.84485,0.02813611
471.14,52.2031,-2.84947,0.0305696
473.84,52.46909,-2.85469,0.03058824
476.54,52.73576,-2.86128,0.02913824
479.24,53.00298,-2.86335,0.03270928
481.94,53.26996,-2.86862,0.03156305
484.64,53.53735,-2.87335,0.03233485
487.34,53.805,-2.87729,0.03241239
490.04,54.07312,-2.88246,0.03147589
492.74,54.3401,-2.88585,0.03238697
495.44,54.60856,-2.88981,0.03206212
498.14,54.8764,-2.89642,0.03100432
500.84,55.14358,-2.899,0.03139127
503.54,55.41114,-2.90197,0.03076044
506.24,55.67845,-2.90601,0.02907221
508.94,55.94559,-2.91002,0.03357914
511.64,56.21336,-2.91337,0.02989831
514.34,56.48126,-2.91456,0.02739077
517.04,56.74983,-2.9205,0.02862686
519.74,57.01905,-2.92215,0.027347
522.44,57.28779,-2.92645,0.0329763
525.14,57.55614,-2.9284,0.04139138
527.84,57.8242,-2.93335,0.05359279
530.54,58.09234,-2.93729,0.06500562
533.24,58.36104,-2.93907,0.06729948
535.94,58.62944,-2.94288,0.0726969
538.64,58.89767,-2.94702,0.07778479
541.34,59.16596,-2.95078,0.08495275
544.04,59.43464,-2.95239,0.09029292
546.74,59.70345,-2.95605,0.09342804
549.44,59.97235,-2.95769,0.09772825
552.14,60.2412,-2.96069,0.10037
554.84,60.511,-2.96326,0.10311
557.54,60.7803,-2.96361,0.09890332
560.24,61.05039,-2.96493,0.08485303
562.94,61.32081,-2.96824,0.08013475
565.64,61.59119,-2.97149,0.076552
568.34,61.86173,-2.9743,0.07885881
571.04,62.13193,-2.97644,0.0791989
573.74,62.40253,-2.97875,0.07751652
576.44,62.67211,-2.98143,0.07773008
579.14,62.94317,-2.9827,0.07741299
581.84,63.21454,-2.98532,0.07537273
584.54,63.48523,-2.98888,0.07080262
587.24,63.75654,-2.98997,0.0687095
589.94,64.02749,-2.98863,0.06713917
592.64,64.29854,-2.99257,0.0638096
595.34,64.56928,-2.9952,0.06436223
598.04,64.84013,-2.99652,0.06169062
600.74,65.11185,-2.99775,0.06235146
603.44,65.38303,-2.99915,0.06310611
606.14,65.65451,-3.00163,0.06350544
608.84,65.92542,-3.00199,0.06081444
611.54,66.19758,-3.00474,0.06490198
614.24,66.46926,-3.00573,0.06531029
616.94,66.74083,-3.00739,0.06974858
619.64,67.01194,-3.00996,0.06732348
622.34,67.28436,-3.0095,0.06981192
625.04,67.55642,-3.01263,0.07662894
627.74,67.82913,-3.01626,0.07699715
630.44,68.10088,-3.01706,0.08111274
633.14,68.37224,-3.01986,0.08163095
635.84,68.64405,-3.01862,0.08267293
638.54,68.91619,-3.0199,0.08507899
641.24,69.18839,-3.02383,0.08505467
643.94,69.45957,-3.02448,0.08721099
646.64,69.73084,-3.02515,0.09058662
649.34,70.00257,-3.02515,0.09007324
652.04,70.27405,-3.02778,0.08757624
654.74,70.54596,-3.02791,0.08354045
657.44,70.81828,-3.03042,0.08946151
660.14,71.09114,-3.03043,0.08566622
662.84,71.36402,-3.03306,0.08511856
665.54,71.63707,-3.03371,0.08757441
668.24,71.90883,-3.03502,0.08892614
670.94,72.18157,-3.03568,0.0873267
673.64,72.45368,-3.03672,0.0847532
676.34,72.72729,-3.03719,0.08884302
679.04,73.00011,-3.03962,0.09012254
681.74,73.27223,-3.04104,0.0846902
684.44,73.54518,-3.04324,0.08477623
687.14,73.81756,-3.04383,0.0821012
689.84,74.08957,-3.04489,0.0812181
692.54,74.36274,-3.04753,0.08002797
695.24,74.63536,-3.04719,0.08457976
697.94,74.90864,-3.04719,0.08286602
700.64,75.18235,-3.04982,0.08217713
703.34,75.45571,-3.04994,0.07831864
706.04,75.72918,-3.05114,0.07601574
708.74,76.00289,-3.05247,0.07499427
711.44,76.2759,-3.05241,0.08050348
714.14,76.54825,-3.0541,0.0726934
716.84,76.82064,-3.05678,0.07628515
719.54,77.09316,-3.05707,0.07504548
722.24,77.36658,-3.05706,0.07068123
724.94,77.64064,-3.06039,0.07194009
727.64,77.91456,-3.06035,0.06963895
730.34,78.18891,-3.06099,0.06227812
733.04,78.46349,-3.06298,0.05853968
735.74,78.73707,-3.06219,0.05157634
738.44,79.01108,-3.06167,0.05187055
741.14,79.28606,-3.0643,0.04531258
743.84,79.56015,-3.06436,0.03984805
746.54,79.83351,-3.06496,0.03326775
749.24,80.10678,-3.06628,0.03047218
751.94,80.38186,-3.066,0.02608158
754.64,80.65624,-3.06694,0.02520007
757.34,80.93047,-3.06693,0.02099994
760.04,81.20591,-3.06957,0.01896284
762.74,81.48038,-3.06826,0.01129559
765.44,81.75502,-3.06914,0.009224559
768.14,82.02877,-3.07086,0.004946229
770.84,82.30298,-3.07121,0.00027469
773.54,82.57673,-3.07353,-0.004479608
776.24,82.85212,-3.07456,-0.006444457
778.94,83.12631,-3.0745,-0.01102415
781.64,83.40058,-3.07517,-0.02066854
784.34,83.67428,-3.0765,-0.02308851
787.04,83.94883,-3.07584,-0.0259233
789.74,84.22329,-3.07814,-0.03074527
792.44,84.49747,-3.07714,-0.03958595
795.14,84.77196,-3.07714,-0.03629023
797.34,84.99571,-3.07846,-0.04063048