File: 01_Data/Window_Screen/FTIR/IS/Window_Screen_IS_S_220829_R4.dpt
7497.03,0.04682
7473.89,0.04227
7450.74,0.03888
7427.6,0.03571
7404.45,0.03842
7381.31,0.03632
7358.16,0.03451
7335.02,0.04829
7311.87,0.03654
7288.73,0.03384
7265.58,0.03560
7242.44,0.04664
7219.29,0.04022
7196.15,0.03668
7173,0.03568
7149.86,0.03175
7126.71,0.03898
7103.57,0.03948
7080.42,0.04237
7057.28,0.04048
7034.13,0.03700
7010.99,0.03616
6987.84,0.03659
6964.7,0.03713
6941.55,0.03353
6918.41,0.03974
6895.26,0.03674
6872.12,0.03646
6848.97,0.03422
6825.83,0.03755
6802.68,0.03711
6779.54,0.03579
6756.39,0.03777
6733.25,0.03597
6710.1,0.03608
6686.96,0.03800
6663.82,0.03910
6640.67,0.03763
6617.53,0.03289
6594.38,0.03505
6571.24,0.03980
6548.09,0.03861
6524.95,0.03592
6501.8,0.03569
6478.66,0.03596
6455.51,0.03748
6432.37,0.03286
6409.22,0.03567
6386.08,0.03980
6362.93,0.03491
6339.79,0.03454
6316.64,0.04061
6293.5,0.03599
6270.35,0.03490
6247.21,0.03544
6224.06,0.03457
6200.92,0.03957
6177.77,0.03848
6154.63,0.03616
6131.48,0.03656
6108.34,0.03578
6085.19,0.03669
6062.05,0.03732
6038.9,0.03876
6015.76,0.03832
5992.61,0.03829
5969.47,0.03761
5946.32,0.03712
5923.18,0.03704
5900.03,0.03434
5876.89,0.03564
5853.74,0.03780
5830.6,0.03806
5807.45,0.03806
5784.31,0.03721
5761.16,0.03882
5738.02,0.03457
5714.87,0.03728
5691.73,0.03788
5668.58,0.03541
5645.44,0.03771
5622.29,0.03841
5599.15,0.03696
5576,0.03789
5552.86,0.03718
5529.71,0.03863
5506.57,0.03721
5483.42,0.03777
5460.28,0.03763
5437.13,0.03793
5413.99,0.03914
5390.84,0.03904
5367.7,0.03793
5344.55,0.03978
5321.41,0.03736
5298.26,0.03780
5275.12,0.04027
5251.97,0.03884
5228.83,0.03834
5205.68,0.04014
5182.54,0.03904
5159.39,0.03801
5136.25,0.04016
5113.1,0.03889
5089.96,0.04044
5066.81,0.03882
5043.67,0.03917
5020.52,0.03936
4997.38,0.03940
4974.23,0.03968
4951.09,0.03969
4927.94,0.04010
4904.8,0.03907
4881.65,0.03984
4858.51,0.03881
4835.36,0.03864
4812.22,0.03955
4789.07,0.03971
4765.93,0.03998
4742.78,0.03947
4719.64,0.04005
4696.49,0.03943
4673.35,0.04054
4650.2,0.03962
4627.06,0.04030
4603.92,0.03961
4580.77,0.03997
4557.63,0.03956
4534.48,0.04050
4511.34,0.04052
4488.19,0.04055
4465.05,0.04004
4441.9,0.03992
4418.76,0.03970
4395.61,0.03920
4372.47,0.03872
4349.32,0.03857
4326.18,0.03807
4303.03,0.03919
4279.89,0.03832
4256.74,0.03895
4233.6,0.03908
4210.45,0.03886
4187.31,0.03946
4164.16,0.03920
4141.02,0.03971
4117.87,0.03965
4094.73,0.03995
4071.58,0.03978
4048.44,0.04005
4025.29,0.04050
4002.15,0.04130
3979,0.04087
3955.86,0.04158
3932.71,0.04130
3909.57,0.04098
3886.42,0.04122
3863.28,0.04190
3840.13,0.04198
3816.99,0.04238
3793.84,0.04194
3770.7,0.04179
3747.55,0.04190
3724.41,0.04191
3701.26,0.04203
3678.12,0.04116
3654.97,0.04151
3631.83,0.04109
3608.68,0.04062
3585.54,0.04090
3562.39,0.04020
3539.25,0.04067
3516.1,0.04054
3492.96,0.03977
3469.81,0.03932
3446.67,0.03839
3423.52,0.03822
3400.38,0.03834
3377.23,0.03902
3354.09,0.03824
3330.94,0.03819
3307.8,0.03835
3284.65,0.03816
3261.51,0.03932
3238.36,0.03904
3215.22,0.03949
3192.07,0.03944
3168.93,0.03895
3145.78,0.03878
3122.64,0.03945
3099.49,0.03769
3076.35,0.03818
3053.2,0.03690
3030.06,0.03678
3006.91,0.03411
2983.77,0.02882
2960.62,0.02706
2937.48,0.02708
2914.33,0.02830
2891.19,0.02954
2868.04,0.02926
2844.9,0.03102
2821.75,0.03441
2798.61,0.03721
2775.46,0.03849
2752.32,0.03921
2729.17,0.03893
2706.03,0.04032
2682.88,0.04059
2659.74,0.04112
2636.59,0.04142
2613.45,0.04106
2590.3,0.04107
2567.16,0.04198
2544.02,0.04212
2520.87,0.04237
2497.73,0.04312
2474.58,0.04262
2451.44,0.04326
2428.29,0.04335
2405.15,0.04262
2382,0.04192
2358.86,0.04287
2335.71,0.04394
2312.57,0.04440
2289.42,0.04392
2266.28,0.04408
2243.13,0.04392
2219.99,0.04421
2196.84,0.04485
2173.7,0.04470
2150.55,0.04426
2127.41,0.04438
2104.26,0.04453
2081.12,0.04450
2057.97,0.04408
2034.83,0.04414
2011.68,0.04429
1988.54,0.04365
1965.39,0.04309
1942.25,0.04162
1919.1,0.04318
1895.96,0.04280
1872.81,0.04283
1849.67,0.04239
1826.52,0.04004
1803.38,0.03984
1780.23,0.03734
1757.09,0.03350
1733.94,0.02641
1710.8,0.02939
1687.65,0.03284
1664.51,0.03432
1641.36,0.03637
1618.22,0.03654
1595.07,0.03575
1571.93,0.03360
1548.78,0.03443
1525.64,0.03479
1502.49,0.03197
1479.35,0.03091
1456.2,0.02772
1433.06,0.02757
1409.91,0.02803
1386.77,0.02776
1363.62,0.02887
1340.48,0.02722
1317.33,0.02597
1294.19,0.02513
1271.04,0.02752
1247.9,0.03009
1224.75,0.03062
1201.61,0.03027
1178.46,0.03062
1155.32,0.02950
1132.17,0.02684
1109.03,0.02811
1085.88,0.02928
1062.74,0.03060
1039.59,0.03164
1016.45,0.02989
993.304,0.03062
970.159,0.02916
947.014,0.02977
923.869,0.03077
900.724,0.03202
877.579,0.03000
854.434,0.03212
831.289,0.03206
808.144,0.03385
784.999,0.03282
761.854,0.03209
738.709,0.02659
715.565,0.03134
692.42,0.02946
669.275,0.03021
646.13,0.02544
622.985,0.02524
599.84,0.02927