File: 01_Data/Window_Screen/FTIR/IS/Window_Screen_IS_S_220829_R6.dpt
7497.03,0.04064
7473.89,0.04321
7450.74,0.03865
7427.6,0.03757
7404.45,0.03876
7381.31,0.04015
7358.16,0.03967
7335.02,0.04131
7311.87,0.04549
7288.73,0.03604
7265.58,0.04065
7242.44,0.03877
7219.29,0.03829
7196.15,0.03606
7173,0.03664
7149.86,0.04289
7126.71,0.03821
7103.57,0.03609
7080.42,0.04070
7057.28,0.03513
7034.13,0.03578
7010.99,0.04051
6987.84,0.03930
6964.7,0.04170
6941.55,0.03666
6918.41,0.04181
6895.26,0.03863
6872.12,0.03389
6848.97,0.04143
6825.83,0.03402
6802.68,0.03829
6779.54,0.03412
6756.39,0.03851
6733.25,0.03850
6710.1,0.03952
6686.96,0.03904
6663.82,0.03636
6640.67,0.03554
6617.53,0.03609
6594.38,0.03887
6571.24,0.03433
6548.09,0.03468
6524.95,0.03738
6501.8,0.03671
6478.66,0.03802
6455.51,0.04031
6432.37,0.03635
6409.22,0.03614
6386.08,0.03636
6362.93,0.03524
6339.79,0.03430
6316.64,0.03486
6293.5,0.03872
6270.35,0.04023
6247.21,0.03665
6224.06,0.03909
6200.92,0.03317
6177.77,0.03499
6154.63,0.03433
6131.48,0.03471
6108.34,0.03892
6085.19,0.03576
6062.05,0.03740
6038.9,0.03784
6015.76,0.03482
5992.61,0.03711
5969.47,0.03535
5946.32,0.03544
5923.18,0.03869
5900.03,0.03679
5876.89,0.03600
5853.74,0.03691
5830.6,0.03801
5807.45,0.03880
5784.31,0.03479
5761.16,0.03765
5738.02,0.03686
5714.87,0.03996
5691.73,0.03707
5668.58,0.03801
5645.44,0.03949
5622.29,0.03596
5599.15,0.03705
5576,0.03876
5552.86,0.03756
5529.71,0.03730
5506.57,0.03824
5483.42,0.03776
5460.28,0.03832
5437.13,0.03884
5413.99,0.03941
5390.84,0.03773
5367.7,0.03922
5344.55,0.03894
5321.41,0.03998
5298.26,0.03842
5275.12,0.03782
5251.97,0.03723
5228.83,0.03864
5205.68,0.03789
5182.54,0.03972
5159.39,0.03899
5136.25,0.03814
5113.1,0.03819
5089.96,0.04060
5066.81,0.03891
5043.67,0.03910
5020.52,0.03897
4997.38,0.04017
4974.23,0.03977
4951.09,0.03880
4927.94,0.04028
4904.8,0.03973
4881.65,0.03970
4858.51,0.03950
4835.36,0.04052
4812.22,0.03946
4789.07,0.04034
4765.93,0.04072
4742.78,0.04108
4719.64,0.04094
4696.49,0.04063
4673.35,0.03974
4650.2,0.03985
4627.06,0.03974
4603.92,0.04047
4580.77,0.04014
4557.63,0.04168
4534.48,0.04028
4511.34,0.04088
4488.19,0.04041
4465.05,0.04080
4441.9,0.04101
4418.76,0.04046
4395.61,0.04008
4372.47,0.03871
4349.32,0.03883
4326.18,0.03844
4303.03,0.03921
4279.89,0.03953
4256.74,0.04060
4233.6,0.03927
4210.45,0.03992
4187.31,0.04043
4164.16,0.03919
4141.02,0.04032
4117.87,0.04042
4094.73,0.04059
4071.58,0.04044
4048.44,0.04072
4025.29,0.04150
4002.15,0.04070
3979,0.04219
3955.86,0.04136
3932.71,0.04181
3909.57,0.04207
3886.42,0.04194
3863.28,0.04164
3840.13,0.04261
3816.99,0.04237
3793.84,0.04229
3770.7,0.04267
3747.55,0.04315
3724.41,0.04262
3701.26,0.04229
3678.12,0.04235
3654.97,0.04289
3631.83,0.04228
3608.68,0.04120
3585.54,0.04065
3562.39,0.04133
3539.25,0.04081
3516.1,0.04006
3492.96,0.03986
3469.81,0.03974
3446.67,0.03915
3423.52,0.03881
3400.38,0.03840
3377.23,0.03884
3354.09,0.03883
3330.94,0.03920
3307.8,0.03853
3284.65,0.03869
3261.51,0.03933
3238.36,0.03936
3215.22,0.03942
3192.07,0.03943
3168.93,0.03967
3145.78,0.03964
3122.64,0.03980
3099.49,0.03888
3076.35,0.03811
3053.2,0.03787
3030.06,0.03702
3006.91,0.03461
2983.77,0.02941
2960.62,0.02700
2937.48,0.02771
2914.33,0.02918
2891.19,0.03041
2868.04,0.02936
2844.9,0.03123
2821.75,0.03537
2798.61,0.03803
2775.46,0.03977
2752.32,0.03985
2729.17,0.04007
2706.03,0.04052
2682.88,0.04082
2659.74,0.04170
2636.59,0.04188
2613.45,0.04190
2590.3,0.04215
2567.16,0.04221
2544.02,0.04241
2520.87,0.04279
2497.73,0.04351
2474.58,0.04402
2451.44,0.04422
2428.29,0.04348
2405.15,0.04307
2382,0.04309
2358.86,0.04372
2335.71,0.04450
2312.57,0.04454
2289.42,0.04461
2266.28,0.04495
2243.13,0.04491
2219.99,0.04503
2196.84,0.04492
2173.7,0.04526
2150.55,0.04535
2127.41,0.04500
2104.26,0.04450
2081.12,0.04471
2057.97,0.04479
2034.83,0.04487
2011.68,0.04479
1988.54,0.04456
1965.39,0.04370
1942.25,0.04226
1919.1,0.04343
1895.96,0.04371
1872.81,0.04358
1849.67,0.04258
1826.52,0.04046
1803.38,0.04049
1780.23,0.03826
1757.09,0.03414
1733.94,0.02655
1710.8,0.02955
1687.65,0.03333
1664.51,0.03472
1641.36,0.03688
1618.22,0.03674
1595.07,0.03620
1571.93,0.03394
1548.78,0.03490
1525.64,0.03473
1502.49,0.03208
1479.35,0.03157
1456.2,0.02838
1433.06,0.02788
1409.91,0.02844
1386.77,0.02785
1363.62,0.02911
1340.48,0.02717
1317.33,0.02626
1294.19,0.02533
1271.04,0.02837
1247.9,0.03075
1224.75,0.03147
1201.61,0.03023
1178.46,0.03081
1155.32,0.02988
1132.17,0.02704
1109.03,0.02752
1085.88,0.02905
1062.74,0.03156
1039.59,0.03132
1016.45,0.03032
993.304,0.03120
970.159,0.02976
947.014,0.03054
923.869,0.03096
900.724,0.03295
877.579,0.03031
854.434,0.03235
831.289,0.03281
808.144,0.03488
784.999,0.03292
761.854,0.03194
738.709,0.02741
715.565,0.03186
692.42,0.03002
669.275,0.03078
646.13,0.02644
622.985,0.02647
599.84,0.03082