File: 01_Data/Window_Screen/FTIR/IS/Window_Screen_IS_S_220829_R2.dpt
7497.03,0.04429
7473.89,0.03724
7450.74,0.03930
7427.6,0.03538
7404.45,0.04200
7381.31,0.03763
7358.16,0.04237
7335.02,0.04614
7311.87,0.03851
7288.73,0.03314
7265.58,0.03516
7242.44,0.03999
7219.29,0.04207
7196.15,0.03594
7173,0.03911
7149.86,0.03878
7126.71,0.03869
7103.57,0.04022
7080.42,0.03667
7057.28,0.04116
7034.13,0.03785
7010.99,0.03607
6987.84,0.03656
6964.7,0.04123
6941.55,0.04114
6918.41,0.03983
6895.26,0.03833
6872.12,0.03901
6848.97,0.03431
6825.83,0.04126
6802.68,0.04232
6779.54,0.03803
6756.39,0.03245
6733.25,0.03974
6710.1,0.03838
6686.96,0.03848
6663.82,0.03477
6640.67,0.03792
6617.53,0.03717
6594.38,0.03473
6571.24,0.04067
6548.09,0.03810
6524.95,0.03943
6501.8,0.03815
6478.66,0.03560
6455.51,0.03789
6432.37,0.03425
6409.22,0.03748
6386.08,0.03572
6362.93,0.03423
6339.79,0.04102
6316.64,0.03947
6293.5,0.03509
6270.35,0.03874
6247.21,0.03656
6224.06,0.03757
6200.92,0.04041
6177.77,0.04070
6154.63,0.03787
6131.48,0.03591
6108.34,0.03763
6085.19,0.03952
6062.05,0.03905
6038.9,0.03698
6015.76,0.03488
5992.61,0.03592
5969.47,0.03953
5946.32,0.03669
5923.18,0.03669
5900.03,0.03596
5876.89,0.03839
5853.74,0.03644
5830.6,0.03600
5807.45,0.03772
5784.31,0.03829
5761.16,0.03602
5738.02,0.03845
5714.87,0.03944
5691.73,0.03615
5668.58,0.03828
5645.44,0.03606
5622.29,0.03947
5599.15,0.03615
5576,0.03895
5552.86,0.03772
5529.71,0.03856
5506.57,0.03814
5483.42,0.03964
5460.28,0.03749
5437.13,0.03821
5413.99,0.04075
5390.84,0.03831
5367.7,0.03800
5344.55,0.03920
5321.41,0.03934
5298.26,0.03859
5275.12,0.03835
5251.97,0.03910
5228.83,0.03791
5205.68,0.03761
5182.54,0.03895
5159.39,0.03851
5136.25,0.03922
5113.1,0.03922
5089.96,0.03904
5066.81,0.04108
5043.67,0.03866
5020.52,0.04060
4997.38,0.03927
4974.23,0.03998
4951.09,0.03930
4927.94,0.03937
4904.8,0.04079
4881.65,0.04051
4858.51,0.04014
4835.36,0.04019
4812.22,0.03992
4789.07,0.04022
4765.93,0.04067
4742.78,0.03920
4719.64,0.04030
4696.49,0.04030
4673.35,0.04059
4650.2,0.03955
4627.06,0.04028
4603.92,0.03992
4580.77,0.03990
4557.63,0.04061
4534.48,0.04052
4511.34,0.04012
4488.19,0.04140
4465.05,0.04061
4441.9,0.04093
4418.76,0.04035
4395.61,0.03962
4372.47,0.03964
4349.32,0.03899
4326.18,0.03811
4303.03,0.03908
4279.89,0.03943
4256.74,0.03970
4233.6,0.03896
4210.45,0.03847
4187.31,0.03899
4164.16,0.03979
4141.02,0.04018
4117.87,0.04009
4094.73,0.04020
4071.58,0.03974
4048.44,0.03998
4025.29,0.04112
4002.15,0.04004
3979,0.04079
3955.86,0.04167
3932.71,0.04128
3909.57,0.04158
3886.42,0.04174
3863.28,0.04169
3840.13,0.04173
3816.99,0.04229
3793.84,0.04219
3770.7,0.04270
3747.55,0.04261
3724.41,0.04195
3701.26,0.04207
3678.12,0.04189
3654.97,0.04212
3631.83,0.04170
3608.68,0.04108
3585.54,0.04056
3562.39,0.04046
3539.25,0.04035
3516.1,0.03972
3492.96,0.03975
3469.81,0.03952
3446.67,0.03850
3423.52,0.03654
3400.38,0.03797
3377.23,0.03830
3354.09,0.03874
3330.94,0.03823
3307.8,0.03808
3284.65,0.03809
3261.51,0.03858
3238.36,0.03962
3215.22,0.03856
3192.07,0.03857
3168.93,0.03993
3145.78,0.03956
3122.64,0.03886
3099.49,0.03916
3076.35,0.03814
3053.2,0.03728
3030.06,0.03744
3006.91,0.03472
2983.77,0.02893
2960.62,0.02779
2937.48,0.02734
2914.33,0.02865
2891.19,0.02957
2868.04,0.02902
2844.9,0.03128
2821.75,0.03495
2798.61,0.03702
2775.46,0.03929
2752.32,0.03940
2729.17,0.03910
2706.03,0.04092
2682.88,0.04126
2659.74,0.04075
2636.59,0.04164
2613.45,0.04157
2590.3,0.04183
2567.16,0.04184
2544.02,0.04217
2520.87,0.04263
2497.73,0.04307
2474.58,0.04367
2451.44,0.04323
2428.29,0.04300
2405.15,0.04297
2382,0.04266
2358.86,0.04343
2335.71,0.04414
2312.57,0.04473
2289.42,0.04437
2266.28,0.04422
2243.13,0.04472
2219.99,0.04418
2196.84,0.04459
2173.7,0.04486
2150.55,0.04488
2127.41,0.04465
2104.26,0.04469
2081.12,0.04472
2057.97,0.04435
2034.83,0.04456
2011.68,0.04422
1988.54,0.04424
1965.39,0.04332
1942.25,0.04233
1919.1,0.04347
1895.96,0.04291
1872.81,0.04294
1849.67,0.04230
1826.52,0.04014
1803.38,0.04031
1780.23,0.03817
1757.09,0.03415
1733.94,0.02654
1710.8,0.02932
1687.65,0.03343
1664.51,0.03444
1641.36,0.03682
1618.22,0.03635
1595.07,0.03606
1571.93,0.03406
1548.78,0.03515
1525.64,0.03456
1502.49,0.03238
1479.35,0.03088
1456.2,0.02788
1433.06,0.02739
1409.91,0.02796
1386.77,0.02777
1363.62,0.02889
1340.48,0.02722
1317.33,0.02639
1294.19,0.02532
1271.04,0.02787
1247.9,0.03003
1224.75,0.03081
1201.61,0.03066
1178.46,0.03056
1155.32,0.02956
1132.17,0.02720
1109.03,0.02776
1085.88,0.02891
1062.74,0.03150
1039.59,0.03097
1016.45,0.03014
993.304,0.03115
970.159,0.02945
947.014,0.03003
923.869,0.03121
900.724,0.03233
877.579,0.03014
854.434,0.03207
831.289,0.03222
808.144,0.03480
784.999,0.03356
761.854,0.03222
738.709,0.02756
715.565,0.03194
692.42,0.03056
669.275,0.02980
646.13,0.02724
622.985,0.02667
599.84,0.02925