File: 01_Data/Window_Screen/FTIR/IS/Window_Screen_IS_S_220829_R5.dpt
7497.03,0.04332
7473.89,0.03548
7450.74,0.04270
7427.6,0.03715
7404.45,0.02893
7381.31,0.04281
7358.16,0.04498
7335.02,0.04307
7311.87,0.03965
7288.73,0.03495
7265.58,0.04071
7242.44,0.03355
7219.29,0.04139
7196.15,0.03954
7173,0.03457
7149.86,0.03986
7126.71,0.04273
7103.57,0.03958
7080.42,0.03000
7057.28,0.03680
7034.13,0.03826
7010.99,0.03476
6987.84,0.04154
6964.7,0.03832
6941.55,0.03652
6918.41,0.03664
6895.26,0.03694
6872.12,0.03714
6848.97,0.03890
6825.83,0.04013
6802.68,0.03389
6779.54,0.03774
6756.39,0.03410
6733.25,0.04069
6710.1,0.04085
6686.96,0.03624
6663.82,0.03293
6640.67,0.03746
6617.53,0.03994
6594.38,0.03896
6571.24,0.04006
6548.09,0.03770
6524.95,0.03412
6501.8,0.04046
6478.66,0.03620
6455.51,0.03703
6432.37,0.03695
6409.22,0.03534
6386.08,0.03060
6362.93,0.03948
6339.79,0.03711
6316.64,0.03616
6293.5,0.03603
6270.35,0.03616
6247.21,0.03832
6224.06,0.03672
6200.92,0.03403
6177.77,0.03864
6154.63,0.03713
6131.48,0.03657
6108.34,0.03642
6085.19,0.03616
6062.05,0.03924
6038.9,0.03896
6015.76,0.03587
5992.61,0.03638
5969.47,0.03711
5946.32,0.03471
5923.18,0.03859
5900.03,0.03517
5876.89,0.03802
5853.74,0.03624
5830.6,0.03745
5807.45,0.03721
5784.31,0.03790
5761.16,0.03566
5738.02,0.03592
5714.87,0.03545
5691.73,0.03913
5668.58,0.03829
5645.44,0.03728
5622.29,0.03712
5599.15,0.03746
5576,0.03673
5552.86,0.03678
5529.71,0.03554
5506.57,0.03714
5483.42,0.03770
5460.28,0.03992
5437.13,0.03884
5413.99,0.03842
5390.84,0.03832
5367.7,0.03851
5344.55,0.03816
5321.41,0.03824
5298.26,0.03974
5275.12,0.03742
5251.97,0.03772
5228.83,0.03925
5205.68,0.03982
5182.54,0.03838
5159.39,0.03887
5136.25,0.03973
5113.1,0.03969
5089.96,0.03895
5066.81,0.03913
5043.67,0.03949
5020.52,0.03983
4997.38,0.03952
4974.23,0.04018
4951.09,0.03933
4927.94,0.03829
4904.8,0.04042
4881.65,0.03835
4858.51,0.03892
4835.36,0.04023
4812.22,0.04005
4789.07,0.03950
4765.93,0.04035
4742.78,0.04066
4719.64,0.03987
4696.49,0.04045
4673.35,0.04009
4650.2,0.04040
4627.06,0.04045
4603.92,0.04113
4580.77,0.04026
4557.63,0.04057
4534.48,0.04002
4511.34,0.04171
4488.19,0.03995
4465.05,0.04038
4441.9,0.04021
4418.76,0.04000
4395.61,0.04009
4372.47,0.03826
4349.32,0.03886
4326.18,0.03754
4303.03,0.03953
4279.89,0.03931
4256.74,0.03855
4233.6,0.03959
4210.45,0.03826
4187.31,0.03942
4164.16,0.03923
4141.02,0.04001
4117.87,0.03978
4094.73,0.03958
4071.58,0.04000
4048.44,0.04056
4025.29,0.04035
4002.15,0.04039
3979,0.04063
3955.86,0.04126
3932.71,0.04136
3909.57,0.04180
3886.42,0.04093
3863.28,0.04160
3840.13,0.04232
3816.99,0.04148
3793.84,0.04241
3770.7,0.04203
3747.55,0.04236
3724.41,0.04222
3701.26,0.04185
3678.12,0.04254
3654.97,0.04175
3631.83,0.04158
3608.68,0.04211
3585.54,0.04119
3562.39,0.04099
3539.25,0.04089
3516.1,0.03953
3492.96,0.03941
3469.81,0.03968
3446.67,0.03965
3423.52,0.03816
3400.38,0.03832
3377.23,0.03829
3354.09,0.03808
3330.94,0.03827
3307.8,0.03792
3284.65,0.03872
3261.51,0.03841
3238.36,0.03928
3215.22,0.03860
3192.07,0.03860
3168.93,0.03939
3145.78,0.03929
3122.64,0.03891
3099.49,0.03868
3076.35,0.03859
3053.2,0.03707
3030.06,0.03681
3006.91,0.03418
2983.77,0.02892
2960.62,0.02679
2937.48,0.02726
2914.33,0.02859
2891.19,0.02971
2868.04,0.02912
2844.9,0.03112
2821.75,0.03469
2798.61,0.03740
2775.46,0.03906
2752.32,0.03950
2729.17,0.03901
2706.03,0.04036
2682.88,0.04055
2659.74,0.04105
2636.59,0.04168
2613.45,0.04113
2590.3,0.04154
2567.16,0.04137
2544.02,0.04172
2520.87,0.04261
2497.73,0.04294
2474.58,0.04299
2451.44,0.04348
2428.29,0.04318
2405.15,0.04266
2382,0.04267
2358.86,0.04310
2335.71,0.04424
2312.57,0.04397
2289.42,0.04421
2266.28,0.04432
2243.13,0.04419
2219.99,0.04421
2196.84,0.04430
2173.7,0.04469
2150.55,0.04488
2127.41,0.04461
2104.26,0.04428
2081.12,0.04448
2057.97,0.04404
2034.83,0.04455
2011.68,0.04450
1988.54,0.04370
1965.39,0.04331
1942.25,0.04193
1919.1,0.04320
1895.96,0.04330
1872.81,0.04298
1849.67,0.04220
1826.52,0.04024
1803.38,0.04013
1780.23,0.03782
1757.09,0.03369
1733.94,0.02620
1710.8,0.02891
1687.65,0.03278
1664.51,0.03401
1641.36,0.03674
1618.22,0.03638
1595.07,0.03596
1571.93,0.03391
1548.78,0.03519
1525.64,0.03460
1502.49,0.03202
1479.35,0.03091
1456.2,0.02798
1433.06,0.02735
1409.91,0.02816
1386.77,0.02757
1363.62,0.02856
1340.48,0.02641
1317.33,0.02616
1294.19,0.02512
1271.04,0.02755
1247.9,0.03006
1224.75,0.03103
1201.61,0.02990
1178.46,0.03058
1155.32,0.02925
1132.17,0.02717
1109.03,0.02746
1085.88,0.02965
1062.74,0.03153
1039.59,0.03099
1016.45,0.02993
993.304,0.03076
970.159,0.02912
947.014,0.02996
923.869,0.03054
900.724,0.03196
877.579,0.03039
854.434,0.03222
831.289,0.03280
808.144,0.03397
784.999,0.03328
761.854,0.03210
738.709,0.02859
715.565,0.03102
692.42,0.02968
669.275,0.03041
646.13,0.02782
622.985,0.02768
599.84,0.02737