File: 01_Data/Window_Screen/FTIR/IS/Window_Screen_IS_S_220829_R8.dpt
7497.03,0.03665
7473.89,0.03600
7450.74,0.03841
7427.6,0.03874
7404.45,0.03976
7381.31,0.04520
7358.16,0.03723
7335.02,0.03744
7311.87,0.03799
7288.73,0.03388
7265.58,0.04216
7242.44,0.04398
7219.29,0.03559
7196.15,0.03691
7173,0.03883
7149.86,0.04452
7126.71,0.04062
7103.57,0.03877
7080.42,0.04439
7057.28,0.03801
7034.13,0.04081
7010.99,0.03349
6987.84,0.03871
6964.7,0.04235
6941.55,0.03873
6918.41,0.03736
6895.26,0.03827
6872.12,0.04113
6848.97,0.03773
6825.83,0.03782
6802.68,0.04021
6779.54,0.03281
6756.39,0.03842
6733.25,0.03277
6710.1,0.04376
6686.96,0.03634
6663.82,0.04255
6640.67,0.03672
6617.53,0.03751
6594.38,0.03753
6571.24,0.03478
6548.09,0.04102
6524.95,0.03654
6501.8,0.03692
6478.66,0.03498
6455.51,0.03710
6432.37,0.03396
6409.22,0.03502
6386.08,0.03781
6362.93,0.03323
6339.79,0.03700
6316.64,0.03585
6293.5,0.04262
6270.35,0.03473
6247.21,0.04034
6224.06,0.03638
6200.92,0.03767
6177.77,0.03863
6154.63,0.03595
6131.48,0.03775
6108.34,0.03765
6085.19,0.03688
6062.05,0.03788
6038.9,0.03555
6015.76,0.03661
5992.61,0.03657
5969.47,0.03686
5946.32,0.03651
5923.18,0.03796
5900.03,0.03573
5876.89,0.03572
5853.74,0.03791
5830.6,0.03658
5807.45,0.03622
5784.31,0.03599
5761.16,0.03835
5738.02,0.03582
5714.87,0.03868
5691.73,0.03581
5668.58,0.03825
5645.44,0.03818
5622.29,0.03964
5599.15,0.03733
5576,0.03767
5552.86,0.03754
5529.71,0.03806
5506.57,0.03900
5483.42,0.03797
5460.28,0.03799
5437.13,0.03875
5413.99,0.03824
5390.84,0.03727
5367.7,0.03934
5344.55,0.03710
5321.41,0.03683
5298.26,0.03882
5275.12,0.03837
5251.97,0.03938
5228.83,0.03910
5205.68,0.03876
5182.54,0.03827
5159.39,0.03986
5136.25,0.03853
5113.1,0.03927
5089.96,0.04065
5066.81,0.03874
5043.67,0.03968
5020.52,0.03796
4997.38,0.04005
4974.23,0.04020
4951.09,0.03947
4927.94,0.03967
4904.8,0.03965
4881.65,0.03992
4858.51,0.03996
4835.36,0.03999
4812.22,0.04018
4789.07,0.03987
4765.93,0.04012
4742.78,0.03962
4719.64,0.03949
4696.49,0.04028
4673.35,0.03970
4650.2,0.04042
4627.06,0.03991
4603.92,0.04018
4580.77,0.03987
4557.63,0.04021
4534.48,0.04071
4511.34,0.04058
4488.19,0.04087
4465.05,0.04017
4441.9,0.04048
4418.76,0.03937
4395.61,0.03932
4372.47,0.03858
4349.32,0.03841
4326.18,0.03837
4303.03,0.03824
4279.89,0.03876
4256.74,0.03846
4233.6,0.03953
4210.45,0.03931
4187.31,0.03896
4164.16,0.03910
4141.02,0.03965
4117.87,0.04034
4094.73,0.03993
4071.58,0.03982
4048.44,0.04058
4025.29,0.04016
4002.15,0.04053
3979,0.04080
3955.86,0.04123
3932.71,0.04148
3909.57,0.04108
3886.42,0.04115
3863.28,0.04153
3840.13,0.04201
3816.99,0.04164
3793.84,0.04204
3770.7,0.04176
3747.55,0.04156
3724.41,0.04239
3701.26,0.04185
3678.12,0.04180
3654.97,0.04159
3631.83,0.04129
3608.68,0.04140
3585.54,0.04106
3562.39,0.04017
3539.25,0.04007
3516.1,0.04002
3492.96,0.03993
3469.81,0.03946
3446.67,0.03814
3423.52,0.03735
3400.38,0.03802
3377.23,0.03828
3354.09,0.03809
3330.94,0.03870
3307.8,0.03854
3284.65,0.03882
3261.51,0.03816
3238.36,0.03805
3215.22,0.03877
3192.07,0.03814
3168.93,0.03945
3145.78,0.03894
3122.64,0.03925
3099.49,0.03875
3076.35,0.03754
3053.2,0.03650
3030.06,0.03713
3006.91,0.03380
2983.77,0.02887
2960.62,0.02648
2937.48,0.02693
2914.33,0.02853
2891.19,0.02981
2868.04,0.02902
2844.9,0.03109
2821.75,0.03437
2798.61,0.03746
2775.46,0.03927
2752.32,0.03904
2729.17,0.03899
2706.03,0.03984
2682.88,0.04023
2659.74,0.04088
2636.59,0.04074
2613.45,0.04141
2590.3,0.04095
2567.16,0.04147
2544.02,0.04209
2520.87,0.04247
2497.73,0.04267
2474.58,0.04314
2451.44,0.04324
2428.29,0.04284
2405.15,0.04255
2382,0.04202
2358.86,0.04289
2335.71,0.04402
2312.57,0.04405
2289.42,0.04383
2266.28,0.04396
2243.13,0.04409
2219.99,0.04406
2196.84,0.04422
2173.7,0.04453
2150.55,0.04463
2127.41,0.04450
2104.26,0.04412
2081.12,0.04388
2057.97,0.04410
2034.83,0.04391
2011.68,0.04385
1988.54,0.04356
1965.39,0.04299
1942.25,0.04189
1919.1,0.04287
1895.96,0.04300
1872.81,0.04259
1849.67,0.04206
1826.52,0.04009
1803.38,0.03992
1780.23,0.03787
1757.09,0.03345
1733.94,0.02654
1710.8,0.02902
1687.65,0.03259
1664.51,0.03429
1641.36,0.03673
1618.22,0.03605
1595.07,0.03563
1571.93,0.03354
1548.78,0.03448
1525.64,0.03475
1502.49,0.03196
1479.35,0.03082
1456.2,0.02778
1433.06,0.02712
1409.91,0.02769
1386.77,0.02790
1363.62,0.02817
1340.48,0.02673
1317.33,0.02587
1294.19,0.02495
1271.04,0.02806
1247.9,0.03028
1224.75,0.03122
1201.61,0.02985
1178.46,0.03045
1155.32,0.02902
1132.17,0.02624
1109.03,0.02769
1085.88,0.02940
1062.74,0.03178
1039.59,0.03195
1016.45,0.03011
993.304,0.03072
970.159,0.02944
947.014,0.03012
923.869,0.03023
900.724,0.03199
877.579,0.03006
854.434,0.03237
831.289,0.03144
808.144,0.03441
784.999,0.03295
761.854,0.03231
738.709,0.02802
715.565,0.03155
692.42,0.03017
669.275,0.03076
646.13,0.02601
622.985,0.02656
599.84,0.02954