File: 01_Data/Window_Screen/FTIR/IS/Window_Screen_IS_T_220829_R6.dpt
7497.03,0.02342
7473.89,0.02202
7450.74,0.03454
7427.6,0.02476
7404.45,0.02165
7381.31,0.02736
7358.16,0.02121
7335.02,0.02662
7311.87,0.03248
7288.73,0.02736
7265.58,0.03158
7242.44,0.02850
7219.29,0.02464
7196.15,0.01978
7173,0.02728
7149.86,0.02275
7126.71,0.02330
7103.57,0.02875
7080.42,0.02843
7057.28,0.02920
7034.13,0.02740
7010.99,0.02842
6987.84,0.02723
6964.7,0.02359
6941.55,0.02451
6918.41,0.02441
6895.26,0.02005
6872.12,0.02119
6848.97,0.02417
6825.83,0.02093
6802.68,0.02293
6779.54,0.02675
6756.39,0.02663
6733.25,0.01786
6710.1,0.01821
6686.96,0.02695
6663.82,0.02447
6640.67,0.02483
6617.53,0.02303
6594.38,0.01791
6571.24,0.02459
6548.09,0.02017
6524.95,0.02518
6501.8,0.01962
6478.66,0.01845
6455.51,0.02206
6432.37,0.02028
6409.22,0.02633
6386.08,0.02240
6362.93,0.02240
6339.79,0.02075
6316.64,0.02354
6293.5,0.02268
6270.35,0.02121
6247.21,0.01958
6224.06,0.02063
6200.92,0.02369
6177.77,0.02106
6154.63,0.02125
6131.48,0.01881
6108.34,0.02212
6085.19,0.02054
6062.05,0.02250
6038.9,0.02288
6015.76,0.02053
5992.61,0.02206
5969.47,0.02182
5946.32,0.02096
5923.18,0.02170
5900.03,0.02153
5876.89,0.02117
5853.74,0.01991
5830.6,0.02451
5807.45,0.02239
5784.31,0.02039
5761.16,0.02101
5738.02,0.02369
5714.87,0.02139
5691.73,0.02268
5668.58,0.02212
5645.44,0.02336
5622.29,0.02190
5599.15,0.02219
5576,0.02168
5552.86,0.02210
5529.71,0.02171
5506.57,0.02271
5483.42,0.02276
5460.28,0.02199
5437.13,0.02242
5413.99,0.02191
5390.84,0.02217
5367.7,0.02161
5344.55,0.02232
5321.41,0.02112
5298.26,0.02261
5275.12,0.02123
5251.97,0.02259
5228.83,0.02191
5205.68,0.02223
5182.54,0.02303
5159.39,0.02181
5136.25,0.02268
5113.1,0.02196
5089.96,0.02262
5066.81,0.02225
5043.67,0.02134
5020.52,0.02159
4997.38,0.02244
4974.23,0.02185
4951.09,0.02290
4927.94,0.02227
4904.8,0.02135
4881.65,0.02201
4858.51,0.02286
4835.36,0.02195
4812.22,0.02155
4789.07,0.02230
4765.93,0.02269
4742.78,0.02187
4719.64,0.02301
4696.49,0.02302
4673.35,0.02138
4650.2,0.02178
4627.06,0.02135
4603.92,0.02169
4580.77,0.02183
4557.63,0.02218
4534.48,0.02218
4511.34,0.02220
4488.19,0.02183
4465.05,0.02210
4441.9,0.02308
4418.76,0.02213
4395.61,0.02299
4372.47,0.02207
4349.32,0.02174
4326.18,0.02216
4303.03,0.02288
4279.89,0.02246
4256.74,0.02306
4233.6,0.02211
4210.45,0.02289
4187.31,0.02214
4164.16,0.02237
4141.02,0.02223
4117.87,0.02200
4094.73,0.02264
4071.58,0.02254
4048.44,0.02167
4025.29,0.02234
4002.15,0.02158
3979,0.02182
3955.86,0.02289
3932.71,0.02273
3909.57,0.02220
3886.42,0.02240
3863.28,0.02280
3840.13,0.02300
3816.99,0.02241
3793.84,0.02225
3770.7,0.02216
3747.55,0.02282
3724.41,0.02254
3701.26,0.02169
3678.12,0.02185
3654.97,0.02160
3631.83,0.02137
3608.68,0.02201
3585.54,0.02154
3562.39,0.02119
3539.25,0.02143
3516.1,0.02096
3492.96,0.02065
3469.81,0.02092
3446.67,0.02073
3423.52,0.02083
3400.38,0.02019
3377.23,0.02026
3354.09,0.01997
3330.94,0.01972
3307.8,0.02025
3284.65,0.02014
3261.51,0.01996
3238.36,0.02144
3215.22,0.01979
3192.07,0.02067
3168.93,0.02131
3145.78,0.02087
3122.64,0.02104
3099.49,0.02087
3076.35,0.02085
3053.2,0.02047
3030.06,0.02059
3006.91,0.02035
2983.77,0.01970
2960.62,0.01927
2937.48,0.01949
2914.33,0.02034
2891.19,0.02047
2868.04,0.02030
2844.9,0.02119
2821.75,0.02136
2798.61,0.02098
2775.46,0.02098
2752.32,0.02115
2729.17,0.02065
2706.03,0.02113
2682.88,0.02139
2659.74,0.02131
2636.59,0.02111
2613.45,0.02100
2590.3,0.02117
2567.16,0.02105
2544.02,0.02132
2520.87,0.02060
2497.73,0.02084
2474.58,0.02065
2451.44,0.02104
2428.29,0.02070
2405.15,0.02095
2382,0.02142
2358.86,0.02123
2335.71,0.02111
2312.57,0.02072
2289.42,0.02077
2266.28,0.02065
2243.13,0.02054
2219.99,0.02065
2196.84,0.02088
2173.7,0.02087
2150.55,0.02074
2127.41,0.02096
2104.26,0.02074
2081.12,0.02061
2057.97,0.02042
2034.83,0.02067
2011.68,0.02079
1988.54,0.02041
1965.39,0.02078
1942.25,0.02041
1919.1,0.02011
1895.96,0.02039
1872.81,0.02056
1849.67,0.02001
1826.52,0.01999
1803.38,0.01995
1780.23,0.01865
1757.09,0.01756
1733.94,0.01989
1710.8,0.02033
1687.65,0.01960
1664.51,0.01830
1641.36,0.01814
1618.22,0.01897
1595.07,0.01875
1571.93,0.01835
1548.78,0.01837
1525.64,0.01841
1502.49,0.01830
1479.35,0.01829
1456.2,0.01869
1433.06,0.01818
1409.91,0.01805
1386.77,0.01790
1363.62,0.01798
1340.48,0.01771
1317.33,0.01678
1294.19,0.01761
1271.04,0.01928
1247.9,0.02052
1224.75,0.01965
1201.61,0.01886
1178.46,0.01798
1155.32,0.01763
1132.17,0.01816
1109.03,0.01835
1085.88,0.01846
1062.74,0.01955
1039.59,0.01946
1016.45,0.01922
993.304,0.02073
970.159,0.02054
947.014,0.02008
923.869,0.01953
900.724,0.01881
877.579,0.01893
854.434,0.01943
831.289,0.01804
808.144,0.01940
784.999,0.01852
761.854,0.01789
738.709,0.01853
715.565,0.01730
692.42,0.01734
669.275,0.01809
646.13,0.01598
622.985,0.01593
599.84,0.01585