File: 01_Data/Window_Screen/FTIR/IS/Window_Screen_IS_T_220829_R3.dpt
7497.03,0.02641
7473.89,0.02208
7450.74,0.02337
7427.6,0.01540
7404.45,0.02200
7381.31,0.02448
7358.16,0.02522
7335.02,0.02426
7311.87,0.03162
7288.73,0.02558
7265.58,0.02004
7242.44,0.02547
7219.29,0.03247
7196.15,0.02705
7173,0.02063
7149.86,0.02364
7126.71,0.02277
7103.57,0.02334
7080.42,0.02350
7057.28,0.02418
7034.13,0.02401
7010.99,0.02526
6987.84,0.02385
6964.7,0.01821
6941.55,0.02529
6918.41,0.02131
6895.26,0.02619
6872.12,0.02380
6848.97,0.02129
6825.83,0.02332
6802.68,0.02040
6779.54,0.02301
6756.39,0.02349
6733.25,0.02237
6710.1,0.01973
6686.96,0.02202
6663.82,0.02149
6640.67,0.02531
6617.53,0.02257
6594.38,0.02485
6571.24,0.02171
6548.09,0.02267
6524.95,0.02179
6501.8,0.02634
6478.66,0.02087
6455.51,0.02393
6432.37,0.02203
6409.22,0.02241
6386.08,0.02344
6362.93,0.02244
6339.79,0.02410
6316.64,0.02653
6293.5,0.02112
6270.35,0.01813
6247.21,0.02193
6224.06,0.01999
6200.92,0.02240
6177.77,0.02057
6154.63,0.02235
6131.48,0.02053
6108.34,0.02319
6085.19,0.02289
6062.05,0.02183
6038.9,0.02132
6015.76,0.02353
5992.61,0.02242
5969.47,0.01923
5946.32,0.02081
5923.18,0.01790
5900.03,0.02564
5876.89,0.02357
5853.74,0.02040
5830.6,0.02158
5807.45,0.02180
5784.31,0.02294
5761.16,0.02212
5738.02,0.02167
5714.87,0.02037
5691.73,0.02294
5668.58,0.02177
5645.44,0.02365
5622.29,0.02226
5599.15,0.02250
5576,0.02040
5552.86,0.02040
5529.71,0.02210
5506.57,0.02304
5483.42,0.02207
5460.28,0.02037
5437.13,0.02105
5413.99,0.02356
5390.84,0.02153
5367.7,0.02276
5344.55,0.02273
5321.41,0.02289
5298.26,0.02248
5275.12,0.02333
5251.97,0.02187
5228.83,0.02227
5205.68,0.02247
5182.54,0.02263
5159.39,0.02144
5136.25,0.02231
5113.1,0.02251
5089.96,0.02273
5066.81,0.02270
5043.67,0.02184
5020.52,0.02293
4997.38,0.02137
4974.23,0.02179
4951.09,0.02147
4927.94,0.02239
4904.8,0.02148
4881.65,0.02334
4858.51,0.02200
4835.36,0.02265
4812.22,0.02212
4789.07,0.02221
4765.93,0.02238
4742.78,0.02243
4719.64,0.02246
4696.49,0.02350
4673.35,0.02329
4650.2,0.02189
4627.06,0.02257
4603.92,0.02273
4580.77,0.02247
4557.63,0.02237
4534.48,0.02227
4511.34,0.02218
4488.19,0.02165
4465.05,0.02276
4441.9,0.02181
4418.76,0.02261
4395.61,0.02173
4372.47,0.02239
4349.32,0.02128
4326.18,0.02269
4303.03,0.02285
4279.89,0.02233
4256.74,0.02209
4233.6,0.02315
4210.45,0.02298
4187.31,0.02194
4164.16,0.02311
4141.02,0.02296
4117.87,0.02297
4094.73,0.02223
4071.58,0.02214
4048.44,0.02255
4025.29,0.02211
4002.15,0.02261
3979,0.02310
3955.86,0.02251
3932.71,0.02303
3909.57,0.02236
3886.42,0.02272
3863.28,0.02259
3840.13,0.02287
3816.99,0.02261
3793.84,0.02233
3770.7,0.02263
3747.55,0.02256
3724.41,0.02217
3701.26,0.02236
3678.12,0.02198
3654.97,0.02185
3631.83,0.02277
3608.68,0.02162
3585.54,0.02184
3562.39,0.02139
3539.25,0.02059
3516.1,0.02147
3492.96,0.02099
3469.81,0.02059
3446.67,0.02111
3423.52,0.02088
3400.38,0.02108
3377.23,0.02022
3354.09,0.02047
3330.94,0.01963
3307.8,0.02058
3284.65,0.02146
3261.51,0.02094
3238.36,0.02098
3215.22,0.02043
3192.07,0.02068
3168.93,0.02044
3145.78,0.02092
3122.64,0.02149
3099.49,0.02087
3076.35,0.02059
3053.2,0.02069
3030.06,0.02066
3006.91,0.02079
2983.77,0.01975
2960.62,0.01951
2937.48,0.01966
2914.33,0.02035
2891.19,0.02092
2868.04,0.02045
2844.9,0.02081
2821.75,0.02103
2798.61,0.02124
2775.46,0.02125
2752.32,0.02089
2729.17,0.02141
2706.03,0.02153
2682.88,0.02096
2659.74,0.02148
2636.59,0.02110
2613.45,0.02095
2590.3,0.02135
2567.16,0.02113
2544.02,0.02099
2520.87,0.02166
2497.73,0.02106
2474.58,0.02131
2451.44,0.02137
2428.29,0.02093
2405.15,0.02098
2382,0.02089
2358.86,0.02105
2335.71,0.02094
2312.57,0.02126
2289.42,0.02096
2266.28,0.02081
2243.13,0.02077
2219.99,0.02080
2196.84,0.02088
2173.7,0.02077
2150.55,0.02104
2127.41,0.02068
2104.26,0.02079
2081.12,0.02085
2057.97,0.02088
2034.83,0.02065
2011.68,0.02091
1988.54,0.02087
1965.39,0.02053
1942.25,0.02111
1919.1,0.02026
1895.96,0.02067
1872.81,0.02042
1849.67,0.02009
1826.52,0.01985
1803.38,0.01949
1780.23,0.01908
1757.09,0.01778
1733.94,0.01964
1710.8,0.02076
1687.65,0.01938
1664.51,0.01851
1641.36,0.01851
1618.22,0.01911
1595.07,0.01906
1571.93,0.01856
1548.78,0.01793
1525.64,0.01873
1502.49,0.01861
1479.35,0.01826
1456.2,0.01911
1433.06,0.01885
1409.91,0.01846
1386.77,0.01823
1363.62,0.01842
1340.48,0.01743
1317.33,0.01713
1294.19,0.01785
1271.04,0.01965
1247.9,0.02023
1224.75,0.01955
1201.61,0.01853
1178.46,0.01813
1155.32,0.01765
1132.17,0.01847
1109.03,0.01899
1085.88,0.01919
1062.74,0.02028
1039.59,0.02007
1016.45,0.01972
993.304,0.02087
970.159,0.01988
947.014,0.02059
923.869,0.01894
900.724,0.01924
877.579,0.01892
854.434,0.01901
831.289,0.01917
808.144,0.01939
784.999,0.01800
761.854,0.01829
738.709,0.01880
715.565,0.01776
692.42,0.01754
669.275,0.01583
646.13,0.01675
622.985,0.01500
599.84,0.01470