File: 01_Data/Window_Screen/FTIR/IS/Window_Screen_IS_S_220829_R1.dpt
7497.03,0.03987
7473.89,0.03287
7450.74,0.03860
7427.6,0.03418
7404.45,0.04014
7381.31,0.03937
7358.16,0.03376
7335.02,0.03793
7311.87,0.03594
7288.73,0.03944
7265.58,0.03177
7242.44,0.04337
7219.29,0.04372
7196.15,0.03345
7173,0.03438
7149.86,0.04344
7126.71,0.04160
7103.57,0.04081
7080.42,0.04087
7057.28,0.04022
7034.13,0.03535
7010.99,0.03757
6987.84,0.03946
6964.7,0.03494
6941.55,0.03173
6918.41,0.03830
6895.26,0.03905
6872.12,0.03505
6848.97,0.03301
6825.83,0.03165
6802.68,0.03824
6779.54,0.03710
6756.39,0.03464
6733.25,0.03990
6710.1,0.03653
6686.96,0.03538
6663.82,0.03691
6640.67,0.03763
6617.53,0.03898
6594.38,0.03834
6571.24,0.03415
6548.09,0.03912
6524.95,0.03408
6501.8,0.03761
6478.66,0.03800
6455.51,0.03326
6432.37,0.03771
6409.22,0.03820
6386.08,0.03537
6362.93,0.03284
6339.79,0.03812
6316.64,0.03488
6293.5,0.03476
6270.35,0.03702
6247.21,0.03727
6224.06,0.03702
6200.92,0.03859
6177.77,0.03877
6154.63,0.03956
6131.48,0.03554
6108.34,0.03573
6085.19,0.03715
6062.05,0.03584
6038.9,0.03822
6015.76,0.03563
5992.61,0.03539
5969.47,0.03605
5946.32,0.03714
5923.18,0.03624
5900.03,0.03625
5876.89,0.03764
5853.74,0.03682
5830.6,0.03619
5807.45,0.03537
5784.31,0.03677
5761.16,0.03759
5738.02,0.03733
5714.87,0.03741
5691.73,0.03730
5668.58,0.03720
5645.44,0.03822
5622.29,0.03497
5599.15,0.03742
5576,0.03729
5552.86,0.03743
5529.71,0.03764
5506.57,0.03816
5483.42,0.03842
5460.28,0.03804
5437.13,0.03635
5413.99,0.04006
5390.84,0.03736
5367.7,0.03888
5344.55,0.03947
5321.41,0.03789
5298.26,0.03898
5275.12,0.03820
5251.97,0.03947
5228.83,0.03920
5205.68,0.03751
5182.54,0.03818
5159.39,0.03892
5136.25,0.03842
5113.1,0.04016
5089.96,0.03911
5066.81,0.03998
5043.67,0.03947
5020.52,0.03960
4997.38,0.03919
4974.23,0.04069
4951.09,0.03891
4927.94,0.04048
4904.8,0.03916
4881.65,0.04063
4858.51,0.03966
4835.36,0.04092
4812.22,0.03950
4789.07,0.03955
4765.93,0.04060
4742.78,0.03978
4719.64,0.04048
4696.49,0.04023
4673.35,0.03985
4650.2,0.04008
4627.06,0.04006
4603.92,0.03946
4580.77,0.04083
4557.63,0.04109
4534.48,0.04095
4511.34,0.04050
4488.19,0.04132
4465.05,0.04025
4441.9,0.03967
4418.76,0.03920
4395.61,0.03969
4372.47,0.03818
4349.32,0.03849
4326.18,0.03876
4303.03,0.03937
4279.89,0.03848
4256.74,0.03947
4233.6,0.03960
4210.45,0.03890
4187.31,0.04002
4164.16,0.03937
4141.02,0.03971
4117.87,0.04007
4094.73,0.03973
4071.58,0.04051
4048.44,0.04046
4025.29,0.04083
4002.15,0.04083
3979,0.04077
3955.86,0.04134
3932.71,0.04183
3909.57,0.04221
3886.42,0.04114
3863.28,0.04191
3840.13,0.04219
3816.99,0.04265
3793.84,0.04280
3770.7,0.04158
3747.55,0.04257
3724.41,0.04289
3701.26,0.04243
3678.12,0.04217
3654.97,0.04166
3631.83,0.04149
3608.68,0.04088
3585.54,0.04081
3562.39,0.04072
3539.25,0.04036
3516.1,0.03982
3492.96,0.03881
3469.81,0.03911
3446.67,0.03829
3423.52,0.03706
3400.38,0.03795
3377.23,0.03784
3354.09,0.03811
3330.94,0.03765
3307.8,0.03843
3284.65,0.03793
3261.51,0.03809
3238.36,0.03871
3215.22,0.03920
3192.07,0.03925
3168.93,0.03974
3145.78,0.03977
3122.64,0.03864
3099.49,0.03850
3076.35,0.03769
3053.2,0.03722
3030.06,0.03704
3006.91,0.03437
2983.77,0.02925
2960.62,0.02755
2937.48,0.02783
2914.33,0.02828
2891.19,0.02956
2868.04,0.02905
2844.9,0.03183
2821.75,0.03497
2798.61,0.03772
2775.46,0.03914
2752.32,0.03973
2729.17,0.03924
2706.03,0.04058
2682.88,0.04097
2659.74,0.04112
2636.59,0.04166
2613.45,0.04165
2590.3,0.04186
2567.16,0.04179
2544.02,0.04230
2520.87,0.04278
2497.73,0.04335
2474.58,0.04353
2451.44,0.04351
2428.29,0.04327
2405.15,0.04268
2382,0.04288
2358.86,0.04360
2335.71,0.04414
2312.57,0.04455
2289.42,0.04446
2266.28,0.04468
2243.13,0.04452
2219.99,0.04476
2196.84,0.04484
2173.7,0.04484
2150.55,0.04504
2127.41,0.04500
2104.26,0.04501
2081.12,0.04414
2057.97,0.04457
2034.83,0.04430
2011.68,0.04456
1988.54,0.04453
1965.39,0.04319
1942.25,0.04206
1919.1,0.04317
1895.96,0.04348
1872.81,0.04333
1849.67,0.04245
1826.52,0.04053
1803.38,0.04042
1780.23,0.03815
1757.09,0.03413
1733.94,0.02657
1710.8,0.02895
1687.65,0.03274
1664.51,0.03393
1641.36,0.03632
1618.22,0.03673
1595.07,0.03560
1571.93,0.03413
1548.78,0.03438
1525.64,0.03485
1502.49,0.03224
1479.35,0.03120
1456.2,0.02822
1433.06,0.02769
1409.91,0.02777
1386.77,0.02787
1363.62,0.02883
1340.48,0.02681
1317.33,0.02649
1294.19,0.02519
1271.04,0.02808
1247.9,0.03063
1224.75,0.03110
1201.61,0.03033
1178.46,0.03079
1155.32,0.03011
1132.17,0.02730
1109.03,0.02755
1085.88,0.03004
1062.74,0.03198
1039.59,0.03194
1016.45,0.02967
993.304,0.03126
970.159,0.02920
947.014,0.03019
923.869,0.03136
900.724,0.03254
877.579,0.03057
854.434,0.03226
831.289,0.03167
808.144,0.03384
784.999,0.03342
761.854,0.03212
738.709,0.02801
715.565,0.03291
692.42,0.02918
669.275,0.03070
646.13,0.02709
622.985,0.02610
599.84,0.02786