File: 01_Data/Rebond_Foam_Carpet_Pad/FTIR/IS/Rebond_Foam_Carpet_Pad_IS_S_220913_R1.dpt
7497.03,0.09730
7473.89,0.09488
7450.74,0.08768
7427.6,0.09928
7404.45,0.08868
7381.31,0.09139
7358.16,0.10471
7335.02,0.09875
7311.87,0.09643
7288.73,0.09754
7265.58,0.09116
7242.44,0.09247
7219.29,0.08807
7196.15,0.09355
7173,0.09480
7149.86,0.09161
7126.71,0.09410
7103.57,0.09426
7080.42,0.08948
7057.28,0.09586
7034.13,0.09132
7010.99,0.09410
6987.84,0.09823
6964.7,0.09474
6941.55,0.09498
6918.41,0.09535
6895.26,0.10293
6872.12,0.09562
6848.97,0.09680
6825.83,0.09640
6802.68,0.09432
6779.54,0.09312
6756.39,0.09171
6733.25,0.09159
6710.1,0.09669
6686.96,0.09311
6663.82,0.08909
6640.67,0.09487
6617.53,0.09243
6594.38,0.09315
6571.24,0.09503
6548.09,0.09520
6524.95,0.09700
6501.8,0.09494
6478.66,0.09461
6455.51,0.09309
6432.37,0.09550
6409.22,0.09375
6386.08,0.09833
6362.93,0.09662
6339.79,0.09854
6316.64,0.09521
6293.5,0.09603
6270.35,0.09778
6247.21,0.09434
6224.06,0.09750
6200.92,0.09456
6177.77,0.09894
6154.63,0.09792
6131.48,0.09509
6108.34,0.09644
6085.19,0.09527
6062.05,0.09524
6038.9,0.09454
6015.76,0.09122
5992.61,0.09435
5969.47,0.09376
5946.32,0.08988
5923.18,0.09162
5900.03,0.09034
5876.89,0.09237
5853.74,0.09212
5830.6,0.09328
5807.45,0.09054
5784.31,0.09051
5761.16,0.08908
5738.02,0.08974
5714.87,0.09222
5691.73,0.09389
5668.58,0.09383
5645.44,0.09587
5622.29,0.09660
5599.15,0.09626
5576,0.09756
5552.86,0.09862
5529.71,0.09764
5506.57,0.09560
5483.42,0.09707
5460.28,0.09941
5437.13,0.09950
5413.99,0.10059
5390.84,0.09922
5367.7,0.10048
5344.55,0.10082
5321.41,0.10118
5298.26,0.10029
5275.12,0.09929
5251.97,0.09910
5228.83,0.09766
5205.68,0.09837
5182.54,0.09882
5159.39,0.09987
5136.25,0.09919
5113.1,0.10027
5089.96,0.09917
5066.81,0.10016
5043.67,0.09827
5020.52,0.10004
4997.38,0.09740
4974.23,0.09541
4951.09,0.09502
4927.94,0.09478
4904.8,0.09324
4881.65,0.09233
4858.51,0.09293
4835.36,0.09476
4812.22,0.09326
4789.07,0.09590
4765.93,0.09677
4742.78,0.09745
4719.64,0.09602
4696.49,0.09416
4673.35,0.09383
4650.2,0.09350
4627.06,0.09322
4603.92,0.09351
4580.77,0.09516
4557.63,0.09392
4534.48,0.09428
4511.34,0.09558
4488.19,0.09391
4465.05,0.09024
4441.9,0.08387
4418.76,0.07754
4395.61,0.07630
4372.47,0.07358
4349.32,0.07191
4326.18,0.07184
4303.03,0.07484
4279.89,0.07665
4256.74,0.07642
4233.6,0.07669
4210.45,0.07925
4187.31,0.07951
4164.16,0.08011
4141.02,0.08075
4117.87,0.07978
4094.73,0.07870
4071.58,0.07571
4048.44,0.07471
4025.29,0.07455
4002.15,0.07530
3979,0.07724
3955.86,0.08038
3932.71,0.08363
3909.57,0.08543
3886.42,0.08628
3863.28,0.08770
3840.13,0.08935
3816.99,0.09088
3793.84,0.09115
3770.7,0.09272
3747.55,0.09411
3724.41,0.09480
3701.26,0.09300
3678.12,0.08556
3654.97,0.07475
3631.83,0.06775
3608.68,0.06479
3585.54,0.06205
3562.39,0.05929
3539.25,0.05617
3516.1,0.05498
3492.96,0.05363
3469.81,0.05086
3446.67,0.04643
3423.52,0.04248
3400.38,0.03718
3377.23,0.03320
3354.09,0.03012
3330.94,0.02984
3307.8,0.02920
3284.65,0.02922
3261.51,0.03137
3238.36,0.03344
3215.22,0.03502
3192.07,0.03646
3168.93,0.03951
3145.78,0.03992
3122.64,0.03989
3099.49,0.04022
3076.35,0.03785
3053.2,0.03700
3030.06,0.03461
3006.91,0.03559
2983.77,0.02843
2960.62,0.02760
2937.48,0.02709
2914.33,0.02764
2891.19,0.02841
2868.04,0.02882
2844.9,0.03287
2821.75,0.03939
2798.61,0.04327
2775.46,0.04624
2752.32,0.04935
2729.17,0.05242
2706.03,0.05760
2682.88,0.06396
2659.74,0.06683
2636.59,0.06913
2613.45,0.07228
2590.3,0.07103
2567.16,0.07424
2544.02,0.07686
2520.87,0.07809
2497.73,0.07916
2474.58,0.08088
2451.44,0.08220
2428.29,0.08380
2405.15,0.08315
2382,0.08252
2358.86,0.08345
2335.71,0.08188
2312.57,0.07979
2289.42,0.07518
2266.28,0.07290
2243.13,0.06453
2219.99,0.07757
2196.84,0.07966
2173.7,0.08100
2150.55,0.08104
2127.41,0.08119
2104.26,0.08062
2081.12,0.07887
2057.97,0.07783
2034.83,0.07631
2011.68,0.07397
1988.54,0.07218
1965.39,0.06963
1942.25,0.06980
1919.1,0.07161
1895.96,0.06865
1872.81,0.06880
1849.67,0.06993
1826.52,0.06340
1803.38,0.05572
1780.23,0.04946
1757.09,0.03753
1733.94,0.02651
1710.8,0.02754
1687.65,0.02775
1664.51,0.02680
1641.36,0.02652
1618.22,0.02786
1595.07,0.02663
1571.93,0.02678
1548.78,0.02439
1525.64,0.02744
1502.49,0.02854
1479.35,0.02853
1456.2,0.02652
1433.06,0.02984
1409.91,0.02882
1386.77,0.02881
1363.62,0.02975
1340.48,0.02848
1317.33,0.02656
1294.19,0.02666
1271.04,0.02634
1247.9,0.02546
1224.75,0.02582
1201.61,0.02756
1178.46,0.02683
1155.32,0.02559
1132.17,0.02495
1109.03,0.02835
1085.88,0.03048
1062.74,0.03209
1039.59,0.03256
1016.45,0.03335
993.304,0.03628
970.159,0.03757
947.014,0.03836
923.869,0.03593
900.724,0.03904
877.579,0.03662
854.434,0.03782
831.289,0.03568
808.144,0.03529
784.999,0.03638
761.854,0.03224
738.709,0.03741
715.565,0.03432
692.42,0.03392
669.275,0.03425
646.13,0.03547
622.985,0.03853
599.84,0.03503