File: 01_Data/Rebond_Foam_Carpet_Pad/FTIR/IS/Rebond_Foam_Carpet_Pad_IS_S_220913_R8.dpt
7497.03,0.09013
7473.89,0.09088
7450.74,0.08962
7427.6,0.09328
7404.45,0.09367
7381.31,0.09198
7358.16,0.09274
7335.02,0.08990
7311.87,0.08861
7288.73,0.10045
7265.58,0.09547
7242.44,0.09911
7219.29,0.09450
7196.15,0.09712
7173,0.09861
7149.86,0.10024
7126.71,0.09292
7103.57,0.09901
7080.42,0.09197
7057.28,0.09554
7034.13,0.10018
7010.99,0.08863
6987.84,0.09584
6964.7,0.09424
6941.55,0.09184
6918.41,0.09593
6895.26,0.09948
6872.12,0.10186
6848.97,0.09500
6825.83,0.09359
6802.68,0.09082
6779.54,0.09251
6756.39,0.09600
6733.25,0.09451
6710.1,0.09194
6686.96,0.09196
6663.82,0.09111
6640.67,0.09402
6617.53,0.09133
6594.38,0.09219
6571.24,0.09459
6548.09,0.09630
6524.95,0.09295
6501.8,0.09210
6478.66,0.09552
6455.51,0.09303
6432.37,0.09296
6409.22,0.09747
6386.08,0.09320
6362.93,0.09768
6339.79,0.09503
6316.64,0.09414
6293.5,0.09519
6270.35,0.09965
6247.21,0.09465
6224.06,0.09596
6200.92,0.10031
6177.77,0.09760
6154.63,0.09815
6131.48,0.09599
6108.34,0.09647
6085.19,0.09822
6062.05,0.09242
6038.9,0.09582
6015.76,0.09575
5992.61,0.09254
5969.47,0.09033
5946.32,0.09204
5923.18,0.09274
5900.03,0.09302
5876.89,0.09002
5853.74,0.09024
5830.6,0.09126
5807.45,0.09054
5784.31,0.09106
5761.16,0.09113
5738.02,0.08922
5714.87,0.09261
5691.73,0.09107
5668.58,0.09295
5645.44,0.09419
5622.29,0.09770
5599.15,0.09679
5576,0.09810
5552.86,0.09739
5529.71,0.09723
5506.57,0.09688
5483.42,0.09790
5460.28,0.09839
5437.13,0.09725
5413.99,0.09850
5390.84,0.09877
5367.7,0.10067
5344.55,0.09978
5321.41,0.10125
5298.26,0.10035
5275.12,0.10142
5251.97,0.10271
5228.83,0.10075
5205.68,0.09897
5182.54,0.10149
5159.39,0.10122
5136.25,0.09986
5113.1,0.09981
5089.96,0.09945
5066.81,0.09910
5043.67,0.09882
5020.52,0.09862
4997.38,0.09911
4974.23,0.09674
4951.09,0.09506
4927.94,0.09390
4904.8,0.09322
4881.65,0.09231
4858.51,0.09306
4835.36,0.09335
4812.22,0.09581
4789.07,0.09653
4765.93,0.09627
4742.78,0.09536
4719.64,0.09575
4696.49,0.09481
4673.35,0.09214
4650.2,0.09369
4627.06,0.09251
4603.92,0.09343
4580.77,0.09445
4557.63,0.09297
4534.48,0.09492
4511.34,0.09515
4488.19,0.09316
4465.05,0.09036
4441.9,0.08441
4418.76,0.07686
4395.61,0.07594
4372.47,0.07390
4349.32,0.07124
4326.18,0.07151
4303.03,0.07415
4279.89,0.07546
4256.74,0.07603
4233.6,0.07713
4210.45,0.07877
4187.31,0.07978
4164.16,0.08006
4141.02,0.07993
4117.87,0.07952
4094.73,0.07844
4071.58,0.07614
4048.44,0.07391
4025.29,0.07506
4002.15,0.07562
3979,0.07729
3955.86,0.08094
3932.71,0.08303
3909.57,0.08543
3886.42,0.08764
3863.28,0.08827
3840.13,0.08970
3816.99,0.08999
3793.84,0.09150
3770.7,0.09326
3747.55,0.09392
3724.41,0.09619
3701.26,0.09600
3678.12,0.09473
3654.97,0.09049
3631.83,0.08860
3608.68,0.08577
3585.54,0.08161
3562.39,0.07845
3539.25,0.07423
3516.1,0.07001
3492.96,0.06567
3469.81,0.05927
3446.67,0.05138
3423.52,0.04569
3400.38,0.03770
3377.23,0.03276
3354.09,0.03054
3330.94,0.02977
3307.8,0.02925
3284.65,0.03027
3261.51,0.03117
3238.36,0.03357
3215.22,0.03582
3192.07,0.03663
3168.93,0.03935
3145.78,0.04071
3122.64,0.04061
3099.49,0.03997
3076.35,0.03832
3053.2,0.03677
3030.06,0.03527
3006.91,0.03481
2983.77,0.02846
2960.62,0.02776
2937.48,0.02692
2914.33,0.02780
2891.19,0.02832
2868.04,0.02867
2844.9,0.03254
2821.75,0.03923
2798.61,0.04348
2775.46,0.04651
2752.32,0.04873
2729.17,0.05145
2706.03,0.05726
2682.88,0.06373
2659.74,0.06618
2636.59,0.06888
2613.45,0.07189
2590.3,0.07063
2567.16,0.07443
2544.02,0.07669
2520.87,0.07780
2497.73,0.07878
2474.58,0.08043
2451.44,0.08243
2428.29,0.08350
2405.15,0.08286
2382,0.08245
2358.86,0.08139
2335.71,0.07992
2312.57,0.07932
2289.42,0.07507
2266.28,0.07233
2243.13,0.06502
2219.99,0.07796
2196.84,0.08032
2173.7,0.08108
2150.55,0.08157
2127.41,0.08156
2104.26,0.08086
2081.12,0.07973
2057.97,0.07875
2034.83,0.07651
2011.68,0.07432
1988.54,0.07252
1965.39,0.06976
1942.25,0.06937
1919.1,0.07141
1895.96,0.06862
1872.81,0.06883
1849.67,0.06998
1826.52,0.06323
1803.38,0.05570
1780.23,0.04972
1757.09,0.03746
1733.94,0.02645
1710.8,0.02732
1687.65,0.02791
1664.51,0.02662
1641.36,0.02668
1618.22,0.02781
1595.07,0.02685
1571.93,0.02701
1548.78,0.02448
1525.64,0.02711
1502.49,0.02851
1479.35,0.02835
1456.2,0.02681
1433.06,0.03036
1409.91,0.02845
1386.77,0.02847
1363.62,0.02954
1340.48,0.02833
1317.33,0.02701
1294.19,0.02661
1271.04,0.02639
1247.9,0.02572
1224.75,0.02648
1201.61,0.02788
1178.46,0.02717
1155.32,0.02542
1132.17,0.02567
1109.03,0.02821
1085.88,0.02937
1062.74,0.03207
1039.59,0.03224
1016.45,0.03309
993.304,0.03604
970.159,0.03706
947.014,0.03820
923.869,0.03621
900.724,0.03968
877.579,0.03678
854.434,0.03771
831.289,0.03575
808.144,0.03564
784.999,0.03752
761.854,0.03181
738.709,0.03818
715.565,0.03403
692.42,0.03624
669.275,0.03532
646.13,0.03654
622.985,0.03658
599.84,0.03651