File: 01_Data/Rebond_Foam_Carpet_Pad/FTIR/IS/Rebond_Foam_Carpet_Pad_IS_S_220913_R7.dpt
7497.03,0.09502
7473.89,0.08547
7450.74,0.10280
7427.6,0.09172
7404.45,0.09964
7381.31,0.09441
7358.16,0.10044
7335.02,0.09331
7311.87,0.08920
7288.73,0.09012
7265.58,0.08973
7242.44,0.09661
7219.29,0.09110
7196.15,0.09950
7173,0.09122
7149.86,0.09363
7126.71,0.08701
7103.57,0.09487
7080.42,0.09354
7057.28,0.09348
7034.13,0.09262
7010.99,0.09599
6987.84,0.09408
6964.7,0.09658
6941.55,0.08947
6918.41,0.09431
6895.26,0.09958
6872.12,0.09257
6848.97,0.09185
6825.83,0.09338
6802.68,0.09147
6779.54,0.08926
6756.39,0.09305
6733.25,0.09630
6710.1,0.09553
6686.96,0.09248
6663.82,0.08711
6640.67,0.09424
6617.53,0.09387
6594.38,0.09565
6571.24,0.09159
6548.09,0.09766
6524.95,0.09202
6501.8,0.09547
6478.66,0.09746
6455.51,0.09711
6432.37,0.09579
6409.22,0.09501
6386.08,0.09409
6362.93,0.09633
6339.79,0.09718
6316.64,0.09543
6293.5,0.09599
6270.35,0.09849
6247.21,0.09180
6224.06,0.09463
6200.92,0.09851
6177.77,0.09791
6154.63,0.09648
6131.48,0.09821
6108.34,0.09533
6085.19,0.09791
6062.05,0.09474
6038.9,0.09299
6015.76,0.09627
5992.61,0.09668
5969.47,0.09388
5946.32,0.09290
5923.18,0.08985
5900.03,0.09148
5876.89,0.09300
5853.74,0.08797
5830.6,0.08937
5807.45,0.09063
5784.31,0.09204
5761.16,0.09093
5738.02,0.08782
5714.87,0.09245
5691.73,0.09513
5668.58,0.09562
5645.44,0.09680
5622.29,0.09456
5599.15,0.09772
5576,0.09686
5552.86,0.09620
5529.71,0.09711
5506.57,0.09679
5483.42,0.09698
5460.28,0.09880
5437.13,0.09901
5413.99,0.09737
5390.84,0.09757
5367.7,0.09911
5344.55,0.09893
5321.41,0.09941
5298.26,0.09903
5275.12,0.10053
5251.97,0.10228
5228.83,0.09922
5205.68,0.09921
5182.54,0.10006
5159.39,0.10034
5136.25,0.09907
5113.1,0.09916
5089.96,0.09918
5066.81,0.10059
5043.67,0.09944
5020.52,0.10022
4997.38,0.09794
4974.23,0.09720
4951.09,0.09552
4927.94,0.09229
4904.8,0.09294
4881.65,0.09241
4858.51,0.09266
4835.36,0.09404
4812.22,0.09578
4789.07,0.09631
4765.93,0.09720
4742.78,0.09593
4719.64,0.09593
4696.49,0.09340
4673.35,0.09295
4650.2,0.09346
4627.06,0.09184
4603.92,0.09295
4580.77,0.09359
4557.63,0.09438
4534.48,0.09528
4511.34,0.09493
4488.19,0.09243
4465.05,0.09062
4441.9,0.08449
4418.76,0.07701
4395.61,0.07538
4372.47,0.07355
4349.32,0.07086
4326.18,0.07243
4303.03,0.07576
4279.89,0.07549
4256.74,0.07567
4233.6,0.07710
4210.45,0.07913
4187.31,0.08048
4164.16,0.07993
4141.02,0.08012
4117.87,0.07960
4094.73,0.07815
4071.58,0.07598
4048.44,0.07399
4025.29,0.07445
4002.15,0.07523
3979,0.07729
3955.86,0.08070
3932.71,0.08341
3909.57,0.08547
3886.42,0.08686
3863.28,0.08760
3840.13,0.08952
3816.99,0.09076
3793.84,0.09138
3770.7,0.09307
3747.55,0.09446
3724.41,0.09570
3701.26,0.09605
3678.12,0.09441
3654.97,0.08983
3631.83,0.08730
3608.68,0.08364
3585.54,0.08068
3562.39,0.07785
3539.25,0.07310
3516.1,0.06974
3492.96,0.06526
3469.81,0.05812
3446.67,0.05167
3423.52,0.04483
3400.38,0.03695
3377.23,0.03288
3354.09,0.03085
3330.94,0.02934
3307.8,0.02968
3284.65,0.02976
3261.51,0.03021
3238.36,0.03262
3215.22,0.03579
3192.07,0.03718
3168.93,0.03983
3145.78,0.04046
3122.64,0.04070
3099.49,0.03977
3076.35,0.03825
3053.2,0.03744
3030.06,0.03474
3006.91,0.03504
2983.77,0.02846
2960.62,0.02800
2937.48,0.02666
2914.33,0.02774
2891.19,0.02837
2868.04,0.02874
2844.9,0.03248
2821.75,0.03976
2798.61,0.04315
2775.46,0.04612
2752.32,0.04882
2729.17,0.05207
2706.03,0.05781
2682.88,0.06377
2659.74,0.06673
2636.59,0.06846
2613.45,0.07142
2590.3,0.07077
2567.16,0.07365
2544.02,0.07656
2520.87,0.07815
2497.73,0.07883
2474.58,0.08092
2451.44,0.08194
2428.29,0.08390
2405.15,0.08312
2382,0.08207
2358.86,0.08125
2335.71,0.08055
2312.57,0.07944
2289.42,0.07506
2266.28,0.07248
2243.13,0.06439
2219.99,0.07787
2196.84,0.07986
2173.7,0.08103
2150.55,0.08165
2127.41,0.08186
2104.26,0.08073
2081.12,0.07980
2057.97,0.07865
2034.83,0.07656
2011.68,0.07409
1988.54,0.07237
1965.39,0.06962
1942.25,0.06959
1919.1,0.07136
1895.96,0.06864
1872.81,0.06870
1849.67,0.06972
1826.52,0.06355
1803.38,0.05586
1780.23,0.04930
1757.09,0.03752
1733.94,0.02624
1710.8,0.02716
1687.65,0.02805
1664.51,0.02635
1641.36,0.02685
1618.22,0.02792
1595.07,0.02691
1571.93,0.02650
1548.78,0.02452
1525.64,0.02737
1502.49,0.02856
1479.35,0.02851
1456.2,0.02714
1433.06,0.02998
1409.91,0.02867
1386.77,0.02854
1363.62,0.02985
1340.48,0.02830
1317.33,0.02644
1294.19,0.02667
1271.04,0.02689
1247.9,0.02575
1224.75,0.02618
1201.61,0.02819
1178.46,0.02696
1155.32,0.02550
1132.17,0.02569
1109.03,0.02833
1085.88,0.02998
1062.74,0.03210
1039.59,0.03210
1016.45,0.03379
993.304,0.03596
970.159,0.03711
947.014,0.03810
923.869,0.03605
900.724,0.03976
877.579,0.03623
854.434,0.03761
831.289,0.03670
808.144,0.03511
784.999,0.03627
761.854,0.03141
738.709,0.03696
715.565,0.03367
692.42,0.03602
669.275,0.03526
646.13,0.03653
622.985,0.03605
599.84,0.03741