File: 01_Data/Rebond_Foam_Carpet_Pad/FTIR/IS/Rebond_Foam_Carpet_Pad_IS_S_220913_R6.dpt
7497.03,0.08655
7473.89,0.09242
7450.74,0.09525
7427.6,0.09425
7404.45,0.08829
7381.31,0.09366
7358.16,0.09426
7335.02,0.09844
7311.87,0.08912
7288.73,0.09194
7265.58,0.09570
7242.44,0.08770
7219.29,0.09194
7196.15,0.09290
7173,0.08995
7149.86,0.08791
7126.71,0.09285
7103.57,0.08841
7080.42,0.08684
7057.28,0.09829
7034.13,0.09447
7010.99,0.09282
6987.84,0.09114
6964.7,0.08838
6941.55,0.09184
6918.41,0.09536
6895.26,0.09461
6872.12,0.09371
6848.97,0.09952
6825.83,0.09347
6802.68,0.09197
6779.54,0.09814
6756.39,0.09452
6733.25,0.09453
6710.1,0.09224
6686.96,0.09487
6663.82,0.09033
6640.67,0.09359
6617.53,0.09276
6594.38,0.09215
6571.24,0.09429
6548.09,0.09470
6524.95,0.09609
6501.8,0.09495
6478.66,0.09713
6455.51,0.09741
6432.37,0.08975
6409.22,0.09459
6386.08,0.09760
6362.93,0.09460
6339.79,0.09558
6316.64,0.09365
6293.5,0.09200
6270.35,0.09454
6247.21,0.09509
6224.06,0.09420
6200.92,0.09735
6177.77,0.09646
6154.63,0.09675
6131.48,0.09776
6108.34,0.09832
6085.19,0.09588
6062.05,0.09594
6038.9,0.09354
6015.76,0.09488
5992.61,0.09312
5969.47,0.09404
5946.32,0.09310
5923.18,0.08964
5900.03,0.08988
5876.89,0.08924
5853.74,0.09113
5830.6,0.09037
5807.45,0.08866
5784.31,0.08886
5761.16,0.09118
5738.02,0.09106
5714.87,0.09111
5691.73,0.09269
5668.58,0.09347
5645.44,0.09499
5622.29,0.09626
5599.15,0.09593
5576,0.09536
5552.86,0.09791
5529.71,0.09763
5506.57,0.09826
5483.42,0.09674
5460.28,0.09901
5437.13,0.09878
5413.99,0.09984
5390.84,0.09880
5367.7,0.09914
5344.55,0.09943
5321.41,0.09969
5298.26,0.10021
5275.12,0.09981
5251.97,0.09991
5228.83,0.10008
5205.68,0.10087
5182.54,0.09910
5159.39,0.09852
5136.25,0.09923
5113.1,0.10031
5089.96,0.09927
5066.81,0.09994
5043.67,0.09944
5020.52,0.09958
4997.38,0.09808
4974.23,0.09593
4951.09,0.09508
4927.94,0.09454
4904.8,0.09282
4881.65,0.09193
4858.51,0.09163
4835.36,0.09379
4812.22,0.09381
4789.07,0.09566
4765.93,0.09676
4742.78,0.09545
4719.64,0.09491
4696.49,0.09280
4673.35,0.09264
4650.2,0.09287
4627.06,0.09112
4603.92,0.09220
4580.77,0.09352
4557.63,0.09466
4534.48,0.09475
4511.34,0.09444
4488.19,0.09330
4465.05,0.09096
4441.9,0.08360
4418.76,0.07803
4395.61,0.07560
4372.47,0.07405
4349.32,0.07122
4326.18,0.07197
4303.03,0.07412
4279.89,0.07607
4256.74,0.07591
4233.6,0.07681
4210.45,0.07885
4187.31,0.08057
4164.16,0.07962
4141.02,0.07993
4117.87,0.07916
4094.73,0.07799
4071.58,0.07597
4048.44,0.07409
4025.29,0.07389
4002.15,0.07541
3979,0.07706
3955.86,0.08017
3932.71,0.08263
3909.57,0.08508
3886.42,0.08587
3863.28,0.08767
3840.13,0.08859
3816.99,0.09035
3793.84,0.09167
3770.7,0.09307
3747.55,0.09493
3724.41,0.09533
3701.26,0.09574
3678.12,0.09319
3654.97,0.08874
3631.83,0.08558
3608.68,0.08257
3585.54,0.08032
3562.39,0.07586
3539.25,0.07218
3516.1,0.06844
3492.96,0.06450
3469.81,0.05768
3446.67,0.05098
3423.52,0.04447
3400.38,0.03752
3377.23,0.03264
3354.09,0.03086
3330.94,0.02949
3307.8,0.02880
3284.65,0.02944
3261.51,0.03109
3238.36,0.03322
3215.22,0.03535
3192.07,0.03704
3168.93,0.03928
3145.78,0.04013
3122.64,0.04038
3099.49,0.04010
3076.35,0.03779
3053.2,0.03713
3030.06,0.03456
3006.91,0.03551
2983.77,0.02878
2960.62,0.02795
2937.48,0.02653
2914.33,0.02725
2891.19,0.02876
2868.04,0.02876
2844.9,0.03200
2821.75,0.03871
2798.61,0.04309
2775.46,0.04626
2752.32,0.04887
2729.17,0.05167
2706.03,0.05765
2682.88,0.06331
2659.74,0.06648
2636.59,0.06859
2613.45,0.07169
2590.3,0.07052
2567.16,0.07407
2544.02,0.07641
2520.87,0.07808
2497.73,0.07883
2474.58,0.08030
2451.44,0.08193
2428.29,0.08313
2405.15,0.08281
2382,0.08208
2358.86,0.08071
2335.71,0.08043
2312.57,0.07912
2289.42,0.07477
2266.28,0.07218
2243.13,0.06483
2219.99,0.07733
2196.84,0.07980
2173.7,0.08065
2150.55,0.08141
2127.41,0.08133
2104.26,0.08050
2081.12,0.07967
2057.97,0.07826
2034.83,0.07620
2011.68,0.07405
1988.54,0.07259
1965.39,0.06950
1942.25,0.06953
1919.1,0.07117
1895.96,0.06844
1872.81,0.06844
1849.67,0.06971
1826.52,0.06310
1803.38,0.05578
1780.23,0.04934
1757.09,0.03707
1733.94,0.02644
1710.8,0.02716
1687.65,0.02766
1664.51,0.02652
1641.36,0.02630
1618.22,0.02782
1595.07,0.02651
1571.93,0.02646
1548.78,0.02438
1525.64,0.02752
1502.49,0.02827
1479.35,0.02859
1456.2,0.02698
1433.06,0.03023
1409.91,0.02867
1386.77,0.02804
1363.62,0.02962
1340.48,0.02825
1317.33,0.02682
1294.19,0.02629
1271.04,0.02644
1247.9,0.02511
1224.75,0.02574
1201.61,0.02781
1178.46,0.02701
1155.32,0.02585
1132.17,0.02547
1109.03,0.02861
1085.88,0.02920
1062.74,0.03189
1039.59,0.03241
1016.45,0.03319
993.304,0.03567
970.159,0.03667
947.014,0.03790
923.869,0.03527
900.724,0.03937
877.579,0.03611
854.434,0.03785
831.289,0.03675
808.144,0.03544
784.999,0.03669
761.854,0.03109
738.709,0.03785
715.565,0.03406
692.42,0.03537
669.275,0.03410
646.13,0.03563
622.985,0.03709
599.84,0.04082