File: 01_Data/Rebond_Foam_Carpet_Pad/FTIR/IS/Rebond_Foam_Carpet_Pad_IS_T_220913_R2.dpt
7497.03,0.01382
7473.89,0.03687
7450.74,0.02109
7427.6,0.03159
7404.45,0.03788
7381.31,0.02684
7358.16,0.02269
7335.02,0.02271
7311.87,0.03203
7288.73,0.02659
7265.58,0.02289
7242.44,0.02946
7219.29,0.02403
7196.15,0.02288
7173,0.02966
7149.86,0.02160
7126.71,0.01554
7103.57,0.02608
7080.42,0.02248
7057.28,0.02459
7034.13,0.02673
7010.99,0.02584
6987.84,0.02591
6964.7,0.02644
6941.55,0.02350
6918.41,0.02925
6895.26,0.02195
6872.12,0.01875
6848.97,0.02001
6825.83,0.02318
6802.68,0.02043
6779.54,0.02153
6756.39,0.02645
6733.25,0.02054
6710.1,0.02179
6686.96,0.01682
6663.82,0.02400
6640.67,0.02111
6617.53,0.02332
6594.38,0.02211
6571.24,0.02214
6548.09,0.02454
6524.95,0.02285
6501.8,0.02259
6478.66,0.02017
6455.51,0.02283
6432.37,0.02022
6409.22,0.02101
6386.08,0.02312
6362.93,0.02601
6339.79,0.02220
6316.64,0.02236
6293.5,0.02043
6270.35,0.02102
6247.21,0.02091
6224.06,0.02326
6200.92,0.02629
6177.77,0.02197
6154.63,0.02357
6131.48,0.02086
6108.34,0.02226
6085.19,0.02026
6062.05,0.02031
6038.9,0.02131
6015.76,0.01920
5992.61,0.02293
5969.47,0.01962
5946.32,0.02113
5923.18,0.02260
5900.03,0.02168
5876.89,0.02155
5853.74,0.02212
5830.6,0.02031
5807.45,0.02299
5784.31,0.02238
5761.16,0.02466
5738.02,0.01939
5714.87,0.02142
5691.73,0.02200
5668.58,0.02153
5645.44,0.02278
5622.29,0.02263
5599.15,0.02268
5576,0.02063
5552.86,0.02404
5529.71,0.02246
5506.57,0.02252
5483.42,0.02065
5460.28,0.02052
5437.13,0.02293
5413.99,0.02249
5390.84,0.02356
5367.7,0.02247
5344.55,0.02255
5321.41,0.02281
5298.26,0.02210
5275.12,0.02258
5251.97,0.02210
5228.83,0.02040
5205.68,0.02162
5182.54,0.02254
5159.39,0.02320
5136.25,0.02087
5113.1,0.02325
5089.96,0.02245
5066.81,0.02281
5043.67,0.02231
5020.52,0.02227
4997.38,0.02134
4974.23,0.02220
4951.09,0.02290
4927.94,0.02313
4904.8,0.02165
4881.65,0.02185
4858.51,0.02197
4835.36,0.02179
4812.22,0.02261
4789.07,0.02286
4765.93,0.02350
4742.78,0.02306
4719.64,0.02317
4696.49,0.02324
4673.35,0.02205
4650.2,0.02310
4627.06,0.02228
4603.92,0.02237
4580.77,0.02200
4557.63,0.02307
4534.48,0.02221
4511.34,0.02279
4488.19,0.02257
4465.05,0.02312
4441.9,0.02230
4418.76,0.02291
4395.61,0.02341
4372.47,0.02211
4349.32,0.02285
4326.18,0.02218
4303.03,0.02282
4279.89,0.02226
4256.74,0.02159
4233.6,0.02334
4210.45,0.02332
4187.31,0.02215
4164.16,0.02329
4141.02,0.02192
4117.87,0.02217
4094.73,0.02289
4071.58,0.02285
4048.44,0.02231
4025.29,0.02194
4002.15,0.02279
3979,0.02297
3955.86,0.02237
3932.71,0.02284
3909.57,0.02319
3886.42,0.02265
3863.28,0.02228
3840.13,0.02281
3816.99,0.02329
3793.84,0.02305
3770.7,0.02275
3747.55,0.02295
3724.41,0.02253
3701.26,0.02297
3678.12,0.02271
3654.97,0.02219
3631.83,0.02250
3608.68,0.02216
3585.54,0.02217
3562.39,0.02131
3539.25,0.02217
3516.1,0.02096
3492.96,0.02139
3469.81,0.02133
3446.67,0.02115
3423.52,0.02095
3400.38,0.02090
3377.23,0.02098
3354.09,0.02083
3330.94,0.02036
3307.8,0.02039
3284.65,0.02040
3261.51,0.02100
3238.36,0.02117
3215.22,0.02108
3192.07,0.02009
3168.93,0.02109
3145.78,0.02122
3122.64,0.02138
3099.49,0.02065
3076.35,0.02034
3053.2,0.02150
3030.06,0.02114
3006.91,0.02034
2983.77,0.01990
2960.62,0.01979
2937.48,0.01998
2914.33,0.02060
2891.19,0.02009
2868.04,0.02073
2844.9,0.02121
2821.75,0.02088
2798.61,0.02156
2775.46,0.02103
2752.32,0.02094
2729.17,0.02108
2706.03,0.02162
2682.88,0.02133
2659.74,0.02147
2636.59,0.02170
2613.45,0.02134
2590.3,0.02146
2567.16,0.02149
2544.02,0.02186
2520.87,0.02131
2497.73,0.02140
2474.58,0.02126
2451.44,0.02152
2428.29,0.02170
2405.15,0.02099
2382,0.02137
2358.86,0.02153
2335.71,0.02139
2312.57,0.02127
2289.42,0.02131
2266.28,0.02076
2243.13,0.02123
2219.99,0.02095
2196.84,0.02100
2173.7,0.02106
2150.55,0.02129
2127.41,0.02110
2104.26,0.02092
2081.12,0.02096
2057.97,0.02072
2034.83,0.02112
2011.68,0.02071
1988.54,0.02107
1965.39,0.02112
1942.25,0.02073
1919.1,0.02096
1895.96,0.02060
1872.81,0.02059
1849.67,0.02035
1826.52,0.02009
1803.38,0.01977
1780.23,0.01943
1757.09,0.01748
1733.94,0.01947
1710.8,0.02047
1687.65,0.01900
1664.51,0.01847
1641.36,0.01871
1618.22,0.01889
1595.07,0.01904
1571.93,0.01849
1548.78,0.01836
1525.64,0.01852
1502.49,0.01875
1479.35,0.01818
1456.2,0.01856
1433.06,0.01893
1409.91,0.01859
1386.77,0.01821
1363.62,0.01846
1340.48,0.01768
1317.33,0.01742
1294.19,0.01783
1271.04,0.01942
1247.9,0.02050
1224.75,0.01931
1201.61,0.01857
1178.46,0.01864
1155.32,0.01798
1132.17,0.01822
1109.03,0.01865
1085.88,0.01831
1062.74,0.01964
1039.59,0.02001
1016.45,0.02037
993.304,0.02090
970.159,0.02042
947.014,0.01970
923.869,0.01935
900.724,0.01882
877.579,0.01882
854.434,0.01893
831.289,0.01923
808.144,0.01881
784.999,0.01892
761.854,0.01869
738.709,0.01836
715.565,0.01845
692.42,0.01740
669.275,0.01672
646.13,0.01647
622.985,0.01455
599.84,0.01583