File: 01_Data/Rebond_Foam_Carpet_Pad/FTIR/IS/Rebond_Foam_Carpet_Pad_IS_S_220913_R2.dpt
7497.03,0.10227
7473.89,0.08868
7450.74,0.08982
7427.6,0.09536
7404.45,0.09583
7381.31,0.09210
7358.16,0.08558
7335.02,0.09728
7311.87,0.09250
7288.73,0.09130
7265.58,0.09359
7242.44,0.08887
7219.29,0.09380
7196.15,0.08969
7173,0.09409
7149.86,0.09238
7126.71,0.09818
7103.57,0.09570
7080.42,0.09392
7057.28,0.09309
7034.13,0.08787
7010.99,0.09543
6987.84,0.09651
6964.7,0.09418
6941.55,0.09409
6918.41,0.08912
6895.26,0.09087
6872.12,0.09572
6848.97,0.09474
6825.83,0.09243
6802.68,0.09549
6779.54,0.09543
6756.39,0.09174
6733.25,0.09430
6710.1,0.09015
6686.96,0.09683
6663.82,0.09613
6640.67,0.09705
6617.53,0.09479
6594.38,0.09807
6571.24,0.09328
6548.09,0.09571
6524.95,0.09277
6501.8,0.09193
6478.66,0.09845
6455.51,0.09747
6432.37,0.09775
6409.22,0.09454
6386.08,0.09515
6362.93,0.09445
6339.79,0.09587
6316.64,0.09663
6293.5,0.09504
6270.35,0.09679
6247.21,0.09568
6224.06,0.09488
6200.92,0.09549
6177.77,0.09892
6154.63,0.09729
6131.48,0.09825
6108.34,0.09640
6085.19,0.09526
6062.05,0.09479
6038.9,0.09181
6015.76,0.09484
5992.61,0.09614
5969.47,0.09106
5946.32,0.09119
5923.18,0.09250
5900.03,0.08983
5876.89,0.09058
5853.74,0.08897
5830.6,0.09194
5807.45,0.09229
5784.31,0.09272
5761.16,0.08975
5738.02,0.09130
5714.87,0.09106
5691.73,0.09260
5668.58,0.09131
5645.44,0.09307
5622.29,0.09520
5599.15,0.09720
5576,0.09625
5552.86,0.09557
5529.71,0.09773
5506.57,0.09600
5483.42,0.09559
5460.28,0.09858
5437.13,0.09742
5413.99,0.09971
5390.84,0.09982
5367.7,0.09975
5344.55,0.09990
5321.41,0.09961
5298.26,0.09881
5275.12,0.09717
5251.97,0.09791
5228.83,0.09933
5205.68,0.09945
5182.54,0.09876
5159.39,0.09844
5136.25,0.09888
5113.1,0.09911
5089.96,0.09961
5066.81,0.09995
5043.67,0.09835
5020.52,0.09833
4997.38,0.09887
4974.23,0.09543
4951.09,0.09370
4927.94,0.09371
4904.8,0.09273
4881.65,0.09267
4858.51,0.09248
4835.36,0.09356
4812.22,0.09386
4789.07,0.09526
4765.93,0.09771
4742.78,0.09492
4719.64,0.09508
4696.49,0.09333
4673.35,0.09192
4650.2,0.09213
4627.06,0.09220
4603.92,0.09355
4580.77,0.09316
4557.63,0.09308
4534.48,0.09461
4511.34,0.09317
4488.19,0.09334
4465.05,0.08992
4441.9,0.08357
4418.76,0.07673
4395.61,0.07653
4372.47,0.07336
4349.32,0.07058
4326.18,0.07140
4303.03,0.07438
4279.89,0.07488
4256.74,0.07594
4233.6,0.07646
4210.45,0.07839
4187.31,0.07913
4164.16,0.08037
4141.02,0.07992
4117.87,0.08037
4094.73,0.07802
4071.58,0.07572
4048.44,0.07374
4025.29,0.07429
4002.15,0.07498
3979,0.07755
3955.86,0.08054
3932.71,0.08299
3909.57,0.08478
3886.42,0.08643
3863.28,0.08777
3840.13,0.08953
3816.99,0.09037
3793.84,0.09079
3770.7,0.09197
3747.55,0.09434
3724.41,0.09444
3701.26,0.09338
3678.12,0.08910
3654.97,0.07987
3631.83,0.07424
3608.68,0.07037
3585.54,0.06780
3562.39,0.06528
3539.25,0.06183
3516.1,0.05953
3492.96,0.05749
3469.81,0.05300
3446.67,0.04796
3423.52,0.04349
3400.38,0.03654
3377.23,0.03211
3354.09,0.03069
3330.94,0.02981
3307.8,0.02949
3284.65,0.02947
3261.51,0.03031
3238.36,0.03269
3215.22,0.03562
3192.07,0.03660
3168.93,0.03919
3145.78,0.04054
3122.64,0.04005
3099.49,0.03970
3076.35,0.03798
3053.2,0.03660
3030.06,0.03446
3006.91,0.03518
2983.77,0.02795
2960.62,0.02812
2937.48,0.02682
2914.33,0.02778
2891.19,0.02796
2868.04,0.02811
2844.9,0.03224
2821.75,0.03905
2798.61,0.04270
2775.46,0.04621
2752.32,0.04881
2729.17,0.05194
2706.03,0.05746
2682.88,0.06320
2659.74,0.06609
2636.59,0.06850
2613.45,0.07157
2590.3,0.07039
2567.16,0.07392
2544.02,0.07662
2520.87,0.07774
2497.73,0.07872
2474.58,0.08044
2451.44,0.08183
2428.29,0.08324
2405.15,0.08289
2382,0.08187
2358.86,0.08074
2335.71,0.07976
2312.57,0.07907
2289.42,0.07456
2266.28,0.07207
2243.13,0.06416
2219.99,0.07700
2196.84,0.07959
2173.7,0.08071
2150.55,0.08102
2127.41,0.08093
2104.26,0.08053
2081.12,0.07882
2057.97,0.07791
2034.83,0.07608
2011.68,0.07362
1988.54,0.07202
1965.39,0.06910
1942.25,0.06900
1919.1,0.07083
1895.96,0.06825
1872.81,0.06821
1849.67,0.06952
1826.52,0.06308
1803.38,0.05570
1780.23,0.04898
1757.09,0.03716
1733.94,0.02657
1710.8,0.02739
1687.65,0.02766
1664.51,0.02648
1641.36,0.02632
1618.22,0.02747
1595.07,0.02675
1571.93,0.02664
1548.78,0.02458
1525.64,0.02720
1502.49,0.02873
1479.35,0.02874
1456.2,0.02684
1433.06,0.03006
1409.91,0.02845
1386.77,0.02846
1363.62,0.02977
1340.48,0.02808
1317.33,0.02677
1294.19,0.02617
1271.04,0.02616
1247.9,0.02529
1224.75,0.02584
1201.61,0.02766
1178.46,0.02685
1155.32,0.02540
1132.17,0.02522
1109.03,0.02814
1085.88,0.03032
1062.74,0.03196
1039.59,0.03283
1016.45,0.03280
993.304,0.03602
970.159,0.03743
947.014,0.03791
923.869,0.03579
900.724,0.03920
877.579,0.03583
854.434,0.03698
831.289,0.03587
808.144,0.03602
784.999,0.03582
761.854,0.03176
738.709,0.03782
715.565,0.03489
692.42,0.03540
669.275,0.03534
646.13,0.03797
622.985,0.03782
599.84,0.03556