File: 01_Data/Rebond_Foam_Carpet_Pad/FTIR/IS/Rebond_Foam_Carpet_Pad_IS_S_220913_R5.dpt
7497.03,0.08938
7473.89,0.09126
7450.74,0.08891
7427.6,0.08590
7404.45,0.09800
7381.31,0.09229
7358.16,0.08964
7335.02,0.08938
7311.87,0.09264
7288.73,0.09188
7265.58,0.09125
7242.44,0.09194
7219.29,0.09079
7196.15,0.09984
7173,0.09433
7149.86,0.08962
7126.71,0.09227
7103.57,0.09370
7080.42,0.09624
7057.28,0.09596
7034.13,0.09529
7010.99,0.09347
6987.84,0.09175
6964.7,0.09683
6941.55,0.09756
6918.41,0.09440
6895.26,0.09555
6872.12,0.09850
6848.97,0.09630
6825.83,0.09173
6802.68,0.09459
6779.54,0.09195
6756.39,0.09338
6733.25,0.09522
6710.1,0.09370
6686.96,0.09755
6663.82,0.09071
6640.67,0.09388
6617.53,0.09498
6594.38,0.09356
6571.24,0.09393
6548.09,0.09228
6524.95,0.09301
6501.8,0.09445
6478.66,0.09528
6455.51,0.09429
6432.37,0.09412
6409.22,0.09745
6386.08,0.09968
6362.93,0.09143
6339.79,0.09535
6316.64,0.09386
6293.5,0.09417
6270.35,0.09451
6247.21,0.09667
6224.06,0.09449
6200.92,0.09880
6177.77,0.09481
6154.63,0.09748
6131.48,0.09729
6108.34,0.09416
6085.19,0.09767
6062.05,0.09621
6038.9,0.09638
6015.76,0.09292
5992.61,0.09345
5969.47,0.09272
5946.32,0.09112
5923.18,0.09232
5900.03,0.09095
5876.89,0.08950
5853.74,0.08863
5830.6,0.09114
5807.45,0.08884
5784.31,0.09265
5761.16,0.08918
5738.02,0.09029
5714.87,0.09197
5691.73,0.09366
5668.58,0.09536
5645.44,0.09561
5622.29,0.09618
5599.15,0.09556
5576,0.09693
5552.86,0.09681
5529.71,0.09739
5506.57,0.09844
5483.42,0.09602
5460.28,0.09813
5437.13,0.09845
5413.99,0.09803
5390.84,0.09860
5367.7,0.09990
5344.55,0.10039
5321.41,0.10100
5298.26,0.10059
5275.12,0.09978
5251.97,0.09993
5228.83,0.10024
5205.68,0.10105
5182.54,0.09897
5159.39,0.09955
5136.25,0.09955
5113.1,0.10066
5089.96,0.10050
5066.81,0.09962
5043.67,0.10051
5020.52,0.10017
4997.38,0.09933
4974.23,0.09675
4951.09,0.09524
4927.94,0.09318
4904.8,0.09233
4881.65,0.09320
4858.51,0.09220
4835.36,0.09309
4812.22,0.09471
4789.07,0.09680
4765.93,0.09701
4742.78,0.09669
4719.64,0.09565
4696.49,0.09372
4673.35,0.09280
4650.2,0.09360
4627.06,0.09211
4603.92,0.09262
4580.77,0.09454
4557.63,0.09573
4534.48,0.09565
4511.34,0.09497
4488.19,0.09364
4465.05,0.09113
4441.9,0.08510
4418.76,0.07721
4395.61,0.07600
4372.47,0.07383
4349.32,0.07141
4326.18,0.07253
4303.03,0.07549
4279.89,0.07630
4256.74,0.07618
4233.6,0.07722
4210.45,0.07901
4187.31,0.08047
4164.16,0.08032
4141.02,0.08044
4117.87,0.08034
4094.73,0.07872
4071.58,0.07641
4048.44,0.07479
4025.29,0.07485
4002.15,0.07642
3979,0.07790
3955.86,0.08122
3932.71,0.08306
3909.57,0.08564
3886.42,0.08716
3863.28,0.08821
3840.13,0.08992
3816.99,0.09099
3793.84,0.09223
3770.7,0.09318
3747.55,0.09548
3724.41,0.09641
3701.26,0.09619
3678.12,0.09406
3654.97,0.08885
3631.83,0.08498
3608.68,0.08220
3585.54,0.07906
3562.39,0.07505
3539.25,0.07146
3516.1,0.06767
3492.96,0.06480
3469.81,0.05740
3446.67,0.05117
3423.52,0.04535
3400.38,0.03719
3377.23,0.03242
3354.09,0.03084
3330.94,0.03028
3307.8,0.02992
3284.65,0.02950
3261.51,0.03056
3238.36,0.03401
3215.22,0.03532
3192.07,0.03672
3168.93,0.03982
3145.78,0.04069
3122.64,0.04044
3099.49,0.03974
3076.35,0.03842
3053.2,0.03759
3030.06,0.03469
3006.91,0.03557
2983.77,0.02882
2960.62,0.02809
2937.48,0.02684
2914.33,0.02748
2891.19,0.02828
2868.04,0.02816
2844.9,0.03235
2821.75,0.03912
2798.61,0.04306
2775.46,0.04637
2752.32,0.04954
2729.17,0.05212
2706.03,0.05777
2682.88,0.06405
2659.74,0.06675
2636.59,0.06882
2613.45,0.07210
2590.3,0.07136
2567.16,0.07453
2544.02,0.07715
2520.87,0.07836
2497.73,0.07968
2474.58,0.08115
2451.44,0.08247
2428.29,0.08377
2405.15,0.08385
2382,0.08275
2358.86,0.08183
2335.71,0.08046
2312.57,0.07953
2289.42,0.07546
2266.28,0.07292
2243.13,0.06488
2219.99,0.07803
2196.84,0.08027
2173.7,0.08130
2150.55,0.08197
2127.41,0.08173
2104.26,0.08097
2081.12,0.08009
2057.97,0.07898
2034.83,0.07693
2011.68,0.07433
1988.54,0.07278
1965.39,0.07008
1942.25,0.07001
1919.1,0.07167
1895.96,0.06880
1872.81,0.06941
1849.67,0.07048
1826.52,0.06350
1803.38,0.05605
1780.23,0.04966
1757.09,0.03782
1733.94,0.02653
1710.8,0.02734
1687.65,0.02809
1664.51,0.02737
1641.36,0.02668
1618.22,0.02797
1595.07,0.02698
1571.93,0.02677
1548.78,0.02463
1525.64,0.02691
1502.49,0.02837
1479.35,0.02876
1456.2,0.02720
1433.06,0.03025
1409.91,0.02857
1386.77,0.02823
1363.62,0.02968
1340.48,0.02844
1317.33,0.02643
1294.19,0.02627
1271.04,0.02596
1247.9,0.02599
1224.75,0.02583
1201.61,0.02789
1178.46,0.02651
1155.32,0.02578
1132.17,0.02531
1109.03,0.02854
1085.88,0.03012
1062.74,0.03175
1039.59,0.03273
1016.45,0.03328
993.304,0.03655
970.159,0.03736
947.014,0.03801
923.869,0.03542
900.724,0.03917
877.579,0.03630
854.434,0.03731
831.289,0.03670
808.144,0.03507
784.999,0.03691
761.854,0.03158
738.709,0.03731
715.565,0.03410
692.42,0.03636
669.275,0.03555
646.13,0.03802
622.985,0.03699
599.84,0.03620