File: 01_Data/Rebond_Foam_Carpet_Pad/FTIR/IS/Rebond_Foam_Carpet_Pad_IS_S_220913_R4.dpt
7497.03,0.08893
7473.89,0.08973
7450.74,0.09267
7427.6,0.09340
7404.45,0.09124
7381.31,0.09605
7358.16,0.09487
7335.02,0.09806
7311.87,0.09139
7288.73,0.09244
7265.58,0.08943
7242.44,0.09747
7219.29,0.09849
7196.15,0.09531
7173,0.09336
7149.86,0.08893
7126.71,0.09098
7103.57,0.09269
7080.42,0.09026
7057.28,0.09609
7034.13,0.09672
7010.99,0.09386
6987.84,0.09053
6964.7,0.09421
6941.55,0.09616
6918.41,0.09167
6895.26,0.09263
6872.12,0.09524
6848.97,0.09438
6825.83,0.09319
6802.68,0.09327
6779.54,0.09320
6756.39,0.09587
6733.25,0.09303
6710.1,0.09208
6686.96,0.09704
6663.82,0.09425
6640.67,0.09262
6617.53,0.09466
6594.38,0.09042
6571.24,0.09539
6548.09,0.09857
6524.95,0.09363
6501.8,0.09249
6478.66,0.09398
6455.51,0.09199
6432.37,0.08886
6409.22,0.09584
6386.08,0.09650
6362.93,0.09329
6339.79,0.09581
6316.64,0.09460
6293.5,0.09394
6270.35,0.09764
6247.21,0.09386
6224.06,0.09647
6200.92,0.09939
6177.77,0.09796
6154.63,0.09716
6131.48,0.09577
6108.34,0.09390
6085.19,0.09581
6062.05,0.09576
6038.9,0.09676
6015.76,0.09830
5992.61,0.09508
5969.47,0.09282
5946.32,0.09140
5923.18,0.09131
5900.03,0.09004
5876.89,0.09176
5853.74,0.09005
5830.6,0.09055
5807.45,0.08766
5784.31,0.09018
5761.16,0.09066
5738.02,0.09162
5714.87,0.09095
5691.73,0.09255
5668.58,0.09395
5645.44,0.09315
5622.29,0.09570
5599.15,0.09787
5576,0.09441
5552.86,0.09479
5529.71,0.09652
5506.57,0.09669
5483.42,0.09679
5460.28,0.09824
5437.13,0.09859
5413.99,0.09986
5390.84,0.10047
5367.7,0.10006
5344.55,0.09947
5321.41,0.10091
5298.26,0.10093
5275.12,0.09996
5251.97,0.10015
5228.83,0.09932
5205.68,0.10106
5182.54,0.09935
5159.39,0.09956
5136.25,0.10005
5113.1,0.10008
5089.96,0.09922
5066.81,0.09986
5043.67,0.09921
5020.52,0.09791
4997.38,0.09731
4974.23,0.09539
4951.09,0.09703
4927.94,0.09466
4904.8,0.09155
4881.65,0.09276
4858.51,0.09232
4835.36,0.09433
4812.22,0.09506
4789.07,0.09577
4765.93,0.09680
4742.78,0.09673
4719.64,0.09571
4696.49,0.09403
4673.35,0.09210
4650.2,0.09290
4627.06,0.09177
4603.92,0.09325
4580.77,0.09355
4557.63,0.09432
4534.48,0.09466
4511.34,0.09437
4488.19,0.09368
4465.05,0.09077
4441.9,0.08472
4418.76,0.07790
4395.61,0.07611
4372.47,0.07444
4349.32,0.07182
4326.18,0.07194
4303.03,0.07472
4279.89,0.07591
4256.74,0.07565
4233.6,0.07689
4210.45,0.07933
4187.31,0.08031
4164.16,0.07955
4141.02,0.08001
4117.87,0.07993
4094.73,0.07811
4071.58,0.07639
4048.44,0.07405
4025.29,0.07465
4002.15,0.07483
3979,0.07801
3955.86,0.08063
3932.71,0.08309
3909.57,0.08506
3886.42,0.08659
3863.28,0.08773
3840.13,0.08913
3816.99,0.09023
3793.84,0.09187
3770.7,0.09412
3747.55,0.09465
3724.41,0.09595
3701.26,0.09496
3678.12,0.09327
3654.97,0.08601
3631.83,0.08181
3608.68,0.07843
3585.54,0.07569
3562.39,0.07284
3539.25,0.06882
3516.1,0.06452
3492.96,0.06245
3469.81,0.05738
3446.67,0.05037
3423.52,0.04375
3400.38,0.03684
3377.23,0.03268
3354.09,0.03093
3330.94,0.03001
3307.8,0.02969
3284.65,0.03018
3261.51,0.03059
3238.36,0.03355
3215.22,0.03546
3192.07,0.03711
3168.93,0.03938
3145.78,0.04034
3122.64,0.04057
3099.49,0.03976
3076.35,0.03846
3053.2,0.03744
3030.06,0.03481
3006.91,0.03555
2983.77,0.02870
2960.62,0.02800
2937.48,0.02688
2914.33,0.02779
2891.19,0.02851
2868.04,0.02769
2844.9,0.03254
2821.75,0.03933
2798.61,0.04291
2775.46,0.04626
2752.32,0.04949
2729.17,0.05233
2706.03,0.05792
2682.88,0.06334
2659.74,0.06665
2636.59,0.06859
2613.45,0.07220
2590.3,0.07091
2567.16,0.07416
2544.02,0.07702
2520.87,0.07794
2497.73,0.07930
2474.58,0.08064
2451.44,0.08249
2428.29,0.08351
2405.15,0.08281
2382,0.08200
2358.86,0.08152
2335.71,0.08031
2312.57,0.07910
2289.42,0.07538
2266.28,0.07243
2243.13,0.06432
2219.99,0.07762
2196.84,0.07997
2173.7,0.08090
2150.55,0.08126
2127.41,0.08121
2104.26,0.08071
2081.12,0.07976
2057.97,0.07840
2034.83,0.07619
2011.68,0.07454
1988.54,0.07241
1965.39,0.06954
1942.25,0.06988
1919.1,0.07175
1895.96,0.06865
1872.81,0.06864
1849.67,0.06958
1826.52,0.06299
1803.38,0.05594
1780.23,0.04950
1757.09,0.03736
1733.94,0.02629
1710.8,0.02767
1687.65,0.02789
1664.51,0.02634
1641.36,0.02606
1618.22,0.02802
1595.07,0.02659
1571.93,0.02676
1548.78,0.02423
1525.64,0.02718
1502.49,0.02816
1479.35,0.02859
1456.2,0.02711
1433.06,0.02985
1409.91,0.02894
1386.77,0.02839
1363.62,0.02959
1340.48,0.02821
1317.33,0.02664
1294.19,0.02621
1271.04,0.02636
1247.9,0.02606
1224.75,0.02652
1201.61,0.02739
1178.46,0.02701
1155.32,0.02552
1132.17,0.02502
1109.03,0.02822
1085.88,0.03047
1062.74,0.03181
1039.59,0.03290
1016.45,0.03296
993.304,0.03592
970.159,0.03713
947.014,0.03810
923.869,0.03564
900.724,0.03914
877.579,0.03600
854.434,0.03689
831.289,0.03645
808.144,0.03513
784.999,0.03651
761.854,0.03186
738.709,0.03764
715.565,0.03441
692.42,0.03454
669.275,0.03650
646.13,0.03850
622.985,0.03779
599.84,0.03597