File: 01_Data/Rebond_Foam_Carpet_Pad/FTIR/IS/Rebond_Foam_Carpet_Pad_IS_S_220913_R3.dpt
7497.03,0.08352
7473.89,0.09017
7450.74,0.10320
7427.6,0.10331
7404.45,0.08960
7381.31,0.09727
7358.16,0.08427
7335.02,0.09412
7311.87,0.09501
7288.73,0.09194
7265.58,0.09156
7242.44,0.09838
7219.29,0.09810
7196.15,0.08632
7173,0.08637
7149.86,0.08960
7126.71,0.09157
7103.57,0.09612
7080.42,0.09193
7057.28,0.09333
7034.13,0.08973
7010.99,0.09040
6987.84,0.09053
6964.7,0.09120
6941.55,0.09700
6918.41,0.08734
6895.26,0.09572
6872.12,0.09485
6848.97,0.09347
6825.83,0.09606
6802.68,0.09627
6779.54,0.09826
6756.39,0.09190
6733.25,0.09548
6710.1,0.09060
6686.96,0.09642
6663.82,0.09577
6640.67,0.09317
6617.53,0.09170
6594.38,0.09815
6571.24,0.09156
6548.09,0.09650
6524.95,0.09510
6501.8,0.09567
6478.66,0.09534
6455.51,0.09416
6432.37,0.09720
6409.22,0.09619
6386.08,0.09645
6362.93,0.09741
6339.79,0.09422
6316.64,0.09639
6293.5,0.09502
6270.35,0.09699
6247.21,0.09335
6224.06,0.09616
6200.92,0.09518
6177.77,0.09604
6154.63,0.09449
6131.48,0.09572
6108.34,0.09313
6085.19,0.09564
6062.05,0.09485
6038.9,0.09554
6015.76,0.09419
5992.61,0.09270
5969.47,0.09538
5946.32,0.08977
5923.18,0.09172
5900.03,0.09156
5876.89,0.09193
5853.74,0.09177
5830.6,0.09180
5807.45,0.09136
5784.31,0.09107
5761.16,0.09051
5738.02,0.09151
5714.87,0.09299
5691.73,0.09222
5668.58,0.09451
5645.44,0.09377
5622.29,0.09251
5599.15,0.09664
5576,0.09667
5552.86,0.09492
5529.71,0.09739
5506.57,0.09661
5483.42,0.09748
5460.28,0.09699
5437.13,0.09928
5413.99,0.09835
5390.84,0.09967
5367.7,0.09895
5344.55,0.10162
5321.41,0.10043
5298.26,0.10038
5275.12,0.09800
5251.97,0.09903
5228.83,0.09769
5205.68,0.09867
5182.54,0.09980
5159.39,0.09958
5136.25,0.09870
5113.1,0.09861
5089.96,0.09800
5066.81,0.10007
5043.67,0.09880
5020.52,0.09813
4997.38,0.09824
4974.23,0.09764
4951.09,0.09458
4927.94,0.09307
4904.8,0.09366
4881.65,0.09171
4858.51,0.09104
4835.36,0.09296
4812.22,0.09641
4789.07,0.09577
4765.93,0.09664
4742.78,0.09769
4719.64,0.09378
4696.49,0.09451
4673.35,0.09208
4650.2,0.09218
4627.06,0.09047
4603.92,0.09387
4580.77,0.09356
4557.63,0.09496
4534.48,0.09535
4511.34,0.09458
4488.19,0.09329
4465.05,0.09076
4441.9,0.08438
4418.76,0.07803
4395.61,0.07630
4372.47,0.07355
4349.32,0.07127
4326.18,0.07195
4303.03,0.07410
4279.89,0.07568
4256.74,0.07571
4233.6,0.07713
4210.45,0.07879
4187.31,0.08005
4164.16,0.07965
4141.02,0.08010
4117.87,0.07935
4094.73,0.07858
4071.58,0.07571
4048.44,0.07442
4025.29,0.07435
4002.15,0.07507
3979,0.07743
3955.86,0.08075
3932.71,0.08325
3909.57,0.08572
3886.42,0.08662
3863.28,0.08771
3840.13,0.08894
3816.99,0.08984
3793.84,0.09108
3770.7,0.09331
3747.55,0.09429
3724.41,0.09472
3701.26,0.09358
3678.12,0.09150
3654.97,0.08359
3631.83,0.07881
3608.68,0.07519
3585.54,0.07294
3562.39,0.06933
3539.25,0.06571
3516.1,0.06236
3492.96,0.06006
3469.81,0.05507
3446.67,0.04984
3423.52,0.04413
3400.38,0.03771
3377.23,0.03211
3354.09,0.03038
3330.94,0.02986
3307.8,0.02917
3284.65,0.02969
3261.51,0.03051
3238.36,0.03293
3215.22,0.03540
3192.07,0.03652
3168.93,0.03977
3145.78,0.04015
3122.64,0.04043
3099.49,0.04067
3076.35,0.03805
3053.2,0.03698
3030.06,0.03483
3006.91,0.03511
2983.77,0.02883
2960.62,0.02789
2937.48,0.02664
2914.33,0.02736
2891.19,0.02858
2868.04,0.02870
2844.9,0.03202
2821.75,0.03928
2798.61,0.04300
2775.46,0.04656
2752.32,0.04903
2729.17,0.05189
2706.03,0.05764
2682.88,0.06321
2659.74,0.06681
2636.59,0.06891
2613.45,0.07188
2590.3,0.07073
2567.16,0.07407
2544.02,0.07660
2520.87,0.07790
2497.73,0.07832
2474.58,0.08026
2451.44,0.08194
2428.29,0.08358
2405.15,0.08301
2382,0.08223
2358.86,0.08124
2335.71,0.08036
2312.57,0.07873
2289.42,0.07494
2266.28,0.07231
2243.13,0.06439
2219.99,0.07730
2196.84,0.08002
2173.7,0.08098
2150.55,0.08122
2127.41,0.08101
2104.26,0.08105
2081.12,0.07931
2057.97,0.07797
2034.83,0.07642
2011.68,0.07414
1988.54,0.07184
1965.39,0.06994
1942.25,0.06957
1919.1,0.07087
1895.96,0.06863
1872.81,0.06857
1849.67,0.06958
1826.52,0.06300
1803.38,0.05570
1780.23,0.04965
1757.09,0.03752
1733.94,0.02640
1710.8,0.02761
1687.65,0.02763
1664.51,0.02703
1641.36,0.02670
1618.22,0.02780
1595.07,0.02619
1571.93,0.02639
1548.78,0.02433
1525.64,0.02716
1502.49,0.02875
1479.35,0.02861
1456.2,0.02669
1433.06,0.03031
1409.91,0.02865
1386.77,0.02828
1363.62,0.02966
1340.48,0.02830
1317.33,0.02627
1294.19,0.02640
1271.04,0.02629
1247.9,0.02571
1224.75,0.02645
1201.61,0.02721
1178.46,0.02682
1155.32,0.02551
1132.17,0.02509
1109.03,0.02876
1085.88,0.03013
1062.74,0.03122
1039.59,0.03300
1016.45,0.03281
993.304,0.03565
970.159,0.03741
947.014,0.03881
923.869,0.03597
900.724,0.03887
877.579,0.03604
854.434,0.03719
831.289,0.03682
808.144,0.03531
784.999,0.03668
761.854,0.03078
738.709,0.03719
715.565,0.03454
692.42,0.03582
669.275,0.03460
646.13,0.03748
622.985,0.03649
599.84,0.03638