File: 01_Data/PlasticC/Cone/PlasticC_HRRPUA_50.csv
Time after Ignition,PlasticC_R1,PlasticC_R2,PlasticC_R3,Mean,Std. Dev.
0.0,8.6,15.0,5.9,9.8,4.7
0.5,17.2,27.1,7.1,17.1,10.0
1.0,24.0,37.1,14.0,25.1,11.6
1.5,39.6,58.2,24.3,40.7,17.0
2.0,52.2,75.5,37.0,54.9,19.4
2.5,69.4,88.5,60.3,72.7,14.4
3.0,86.8,114.7,93.3,98.2,14.6
3.5,112.0,130.1,127.4,123.2,9.7
4.0,136.8,160.4,157.2,151.5,12.8
4.5,161.5,188.4,184.9,178.3,14.7
5.0,194.8,208.3,219.3,207.4,12.3
5.5,206.8,236.1,244.3,229.1,19.7
6.0,242.4,257.7,268.9,256.3,13.3
6.5,266.1,284.1,297.3,282.5,15.7
7.0,285.1,301.7,328.4,305.1,21.9
7.5,307.2,319.2,339.2,321.9,16.2
8.0,338.1,347.1,361.6,348.9,11.9
8.5,361.8,348.2,390.4,366.8,21.5
9.0,379.9,365.0,402.4,382.5,18.8
9.5,389.0,380.0,418.3,395.8,20.0
10.0,401.1,391.1,438.9,410.4,25.2
10.5,419.8,404.4,460.3,428.2,28.9
11.0,444.0,413.5,461.0,439.5,24.1
11.5,427.7,438.8,463.6,443.4,18.4
12.0,475.0,440.1,505.9,473.7,32.9
12.5,479.5,457.9,519.5,485.6,31.2
13.0,484.0,460.7,528.6,491.1,34.5
13.5,509.7,481.5,527.2,506.1,23.1
14.0,518.3,508.3,542.2,522.9,17.4
14.5,544.4,511.2,560.4,538.7,25.1
15.0,562.0,522.7,556.7,547.1,21.3
15.5,575.3,527.0,565.8,556.0,25.6
16.0,569.2,546.2,613.0,576.1,33.9
16.5,582.8,547.9,603.8,578.2,28.2
17.0,585.1,575.8,632.0,597.6,30.1
17.5,598.3,562.9,665.5,608.9,52.1
18.0,614.3,593.2,667.8,625.1,38.5
18.5,604.7,592.4,687.6,628.2,51.8
19.0,611.7,617.0,691.8,640.2,44.8
19.5,620.5,619.5,695.9,645.3,43.8
20.0,609.7,634.5,725.6,656.6,61.0
20.5,630.3,656.7,727.6,671.5,50.3
21.0,651.4,658.9,720.6,677.0,37.9
21.5,639.5,665.3,742.4,682.4,53.5
22.0,658.3,700.5,760.1,706.3,51.1
22.5,671.9,722.3,723.3,705.8,29.4
23.0,673.4,698.4,743.9,705.2,35.7
23.5,682.4,694.0,758.6,711.7,41.1
24.0,699.8,725.5,760.3,728.5,30.4
24.5,718.0,732.4,806.4,752.2,47.4
25.0,715.3,723.6,805.9,748.3,50.1
25.5,703.8,742.8,756.4,734.3,27.3
26.0,713.7,754.8,769.0,745.9,28.7
26.5,716.3,776.8,788.3,760.5,38.7
27.0,770.7,731.5,776.0,759.4,24.3
27.5,728.7,751.3,797.5,759.2,35.1
28.0,740.2,760.3,821.3,773.9,42.3
28.5,725.1,745.6,825.9,765.6,53.3
29.0,721.5,785.5,809.4,772.1,45.4
29.5,732.7,765.5,829.1,775.8,49.0
30.0,759.6,775.6,820.7,785.3,31.7
30.5,771.8,770.1,877.1,806.4,61.3
31.0,765.7,806.0,831.4,801.0,33.1
31.5,777.6,806.2,849.5,811.1,36.2
32.0,773.0,802.7,860.4,812.0,44.4
32.5,806.0,789.9,871.1,822.3,43.0
33.0,782.2,815.2,877.1,824.8,48.2
33.5,813.2,806.2,848.1,822.5,22.4
34.0,821.3,807.8,849.7,826.3,21.4
34.5,836.0,841.2,887.1,854.8,28.1
35.0,849.9,793.7,868.9,837.5,39.1
35.5,832.0,850.7,909.5,864.1,40.4
36.0,849.9,835.6,937.0,874.2,54.9
36.5,838.8,845.6,908.6,864.3,38.5
37.0,853.6,878.9,887.6,873.4,17.6
37.5,863.4,862.2,944.5,890.1,47.2
38.0,889.0,856.7,961.8,902.5,53.9
38.5,854.9,847.6,988.7,897.1,79.4
39.0,943.3,890.1,944.5,925.9,31.1
39.5,855.9,877.2,976.3,903.2,64.3
40.0,896.4,909.4,982.2,929.3,46.3
40.5,911.7,908.3,1042.9,954.3,76.7
41.0,934.7,892.1,1046.0,957.6,79.5
41.5,930.7,892.8,1055.1,959.5,84.9
42.0,917.3,914.4,1009.2,947.0,53.9
42.5,894.8,936.8,1056.4,962.7,83.8
43.0,937.6,921.0,1063.8,974.1,78.1
43.5,935.0,917.5,1021.5,958.0,55.7
44.0,967.3,898.9,1094.5,986.9,99.2
44.5,927.4,962.5,1030.9,973.6,52.7
45.0,954.2,948.4,1088.9,997.2,79.5
45.5,974.7,961.6,1076.9,1004.4,63.1
46.0,972.3,940.2,1028.2,980.2,44.5
46.5,1014.3,980.0,1091.4,1028.6,57.1
47.0,1022.1,960.9,1080.1,1021.0,59.6
47.5,1014.1,978.3,1045.4,1012.6,33.6
48.0,1006.6,932.6,1102.1,1013.8,85.0
48.5,983.7,965.4,1087.7,1012.3,66.0
49.0,1011.9,966.9,1058.8,1012.5,46.0
49.5,1022.3,996.6,1102.1,1040.3,55.0
50.0,1025.6,998.5,1102.3,1042.1,53.8
50.5,1025.4,994.1,1078.6,1032.7,42.7
51.0,1011.3,1013.9,1163.7,1063.0,87.3
51.5,1050.5,1043.2,1137.8,1077.2,52.7
52.0,1044.5,1032.0,1136.3,1070.9,57.0
52.5,1059.4,1077.2,1159.0,1098.5,53.1
53.0,1111.9,1032.4,1138.5,1094.3,55.2
53.5,1075.1,1048.9,1129.4,1084.5,41.0
54.0,1097.1,1038.0,1216.7,1117.3,91.0
54.5,1098.6,1037.3,1192.3,1109.4,78.1
55.0,1086.6,1033.5,1243.5,1121.2,109.2
55.5,1148.4,1091.1,1168.1,1135.9,40.0
56.0,1109.4,1039.3,1198.3,1115.7,79.7
56.5,1157.3,1073.7,1184.4,1138.5,57.7
57.0,1096.4,1063.6,1225.7,1128.6,85.7
57.5,1116.3,1044.1,1186.6,1115.7,71.2
58.0,1099.6,1100.7,1203.2,1134.5,59.5
58.5,1074.4,1038.5,1220.8,1111.2,96.5
59.0,1094.3,1068.2,1264.1,1142.2,106.4
59.5,1122.3,1126.6,1175.4,1141.4,29.5
60.0,1142.7,1098.5,1242.6,1161.3,73.8
60.5,1167.5,1173.7,1195.5,1178.9,14.7
61.0,1230.9,1125.1,1257.4,1204.5,70.0
61.5,1149.7,1147.9,1254.6,1184.1,61.1
62.0,1154.3,1159.0,1254.8,1189.4,56.7
62.5,1157.2,1132.3,1315.1,1201.5,99.1
63.0,1153.9,1197.6,1252.8,1201.4,49.6
63.5,1129.3,1137.0,1269.8,1178.7,79.0
64.0,1192.7,1128.2,1293.9,1205.0,83.5
64.5,1143.7,1127.2,1319.7,1196.9,106.7
65.0,1174.2,1157.5,1299.8,1210.5,77.8
65.5,1184.8,1192.1,1286.5,1221.1,56.7
66.0,1200.9,1196.0,1231.6,1209.5,19.3
66.5,1245.5,1211.1,1277.4,1244.7,33.2
67.0,1248.6,1174.1,1284.3,1235.6,56.2
67.5,1151.2,1154.3,1332.7,1212.7,103.9
68.0,1129.9,1155.8,1327.7,1204.4,107.5
68.5,1188.6,1163.6,1382.4,1244.9,119.7
69.0,1256.8,1092.0,1319.0,1222.6,117.3
69.5,1265.8,1205.3,1318.6,1263.2,56.7
70.0,1235.4,1189.3,1373.2,1266.0,95.7
70.5,1289.3,1209.9,1329.6,1276.3,60.9
71.0,1247.0,1170.7,1368.0,1261.9,99.5
71.5,1259.4,1197.0,1367.2,1274.5,86.1
72.0,1244.0,1172.5,1317.0,1244.5,72.2
72.5,1223.5,1198.9,1331.4,1251.3,70.5
73.0,1264.5,1158.4,1342.1,1255.0,92.2
73.5,1317.7,1160.1,1359.0,1278.9,105.0
74.0,1274.7,1197.3,1335.9,1269.3,69.5
74.5,1263.6,1178.9,1295.2,1245.9,60.1
75.0,1289.9,1155.4,1414.5,1286.6,129.6
75.5,1247.1,1226.7,1359.4,1277.7,71.5
76.0,1242.8,1217.0,1346.5,1268.8,68.5
76.5,1323.3,1224.0,1355.9,1301.1,68.7
77.0,1292.4,1246.9,1410.3,1316.6,84.3
77.5,1304.5,1190.6,1343.2,1279.4,79.4
78.0,1268.6,1179.3,1305.5,1251.1,64.9
78.5,1279.3,1175.8,1354.9,1270.0,89.9
79.0,1329.3,1191.8,1341.3,1287.5,83.1
79.5,1330.9,1144.0,1327.4,1267.5,106.9
80.0,1285.1,1214.3,1370.3,1289.9,78.1
80.5,1282.0,1194.7,1402.5,1293.0,104.3
81.0,1290.4,1176.7,1325.1,1264.1,77.7
81.5,1312.1,1232.7,1420.3,1321.7,94.1
82.0,1297.9,1241.2,1362.6,1300.6,60.7
82.5,1323.8,1206.6,1327.4,1285.9,68.7
83.0,1312.0,1142.4,1332.6,1262.4,104.4
83.5,1315.1,1275.4,1385.2,1325.3,55.6
84.0,1355.0,1211.0,1406.2,1324.1,101.2
84.5,1290.5,1249.6,1374.5,1304.9,63.7
85.0,1313.7,1260.1,1381.9,1318.6,61.0
85.5,1460.6,1213.7,1305.0,1326.4,124.9
86.0,1262.5,1266.3,1389.4,1306.1,72.2
86.5,1313.3,1252.8,1383.7,1316.6,65.5
87.0,1346.4,1187.7,1350.9,1295.0,92.9
87.5,1315.7,1184.0,1315.4,1271.7,75.9
88.0,1329.4,1186.5,1320.5,1278.8,80.0
88.5,1309.6,1166.0,1272.2,1249.3,74.5
89.0,1257.0,1189.5,1263.4,1236.6,40.9
89.5,1299.0,1260.9,1271.3,1277.1,19.7
90.0,1324.3,1226.2,1264.3,1271.6,49.4
90.5,1311.9,1153.5,1265.1,1243.5,81.4
91.0,1338.9,1174.4,1318.5,1277.3,89.7
91.5,1207.5,1188.1,1262.7,1219.4,38.7
92.0,1269.5,1201.4,1267.2,1246.0,38.7
92.5,1254.5,1212.8,1212.9,1226.8,24.1
93.0,1249.5,1202.0,1234.8,1228.8,24.3
93.5,1285.2,1208.3,1257.7,1250.4,39.0
94.0,1253.7,1243.0,1211.9,1236.2,21.7
94.5,1256.9,1190.2,1170.8,1206.0,45.2
95.0,1267.9,1190.0,1163.6,1207.2,54.2
95.5,1255.0,1177.0,1166.9,1199.7,48.2
96.0,1272.7,1195.1,1157.6,1208.5,58.7
96.5,1226.6,1165.4,1132.5,1174.9,47.7
97.0,1182.7,1165.1,1178.6,1175.5,9.2
97.5,1229.1,1130.3,1135.0,1164.8,55.8
98.0,1203.1,1124.7,1077.6,1135.2,63.4
98.5,1254.9,1174.9,1086.8,1172.2,84.1
99.0,1170.4,1109.6,1013.2,1097.7,79.3
99.5,1164.5,1088.9,1033.2,1095.6,65.9
100.0,1185.9,1112.6,1016.4,1105.0,85.0
100.5,1160.9,1105.2,954.9,1073.6,106.6
101.0,1170.6,1134.9,936.3,1080.6,126.3
101.5,1175.1,1078.8,921.5,1058.5,128.0
102.0,1123.3,1113.9,928.1,1055.1,110.1
102.5,1086.7,1079.3,846.3,1004.1,136.7
103.0,1088.8,1091.2,831.9,1003.9,149.0
103.5,1088.8,1080.9,837.8,1002.5,142.7
104.0,1047.0,1063.9,797.9,969.6,149.0
104.5,1025.8,1043.7,774.4,948.0,150.5
105.0,999.9,1016.1,761.7,925.9,142.5
105.5,996.8,982.4,740.4,906.5,144.0
106.0,989.3,940.2,709.0,879.5,149.7
106.5,956.8,922.2,669.9,849.6,156.6
107.0,889.9,935.9,650.6,825.4,153.2
107.5,887.0,903.6,619.1,803.2,159.7
108.0,842.0,897.6,610.6,783.4,152.2
108.5,823.7,879.5,572.3,758.5,163.7
109.0,810.8,825.4,548.6,728.3,155.8
109.5,795.0,814.7,525.6,711.8,161.5
110.0,774.4,821.8,522.7,706.3,160.8
110.5,741.6,805.2,486.5,677.8,168.6
111.0,714.0,762.9,479.3,652.1,151.6
111.5,692.0,756.5,451.8,633.4,160.6
112.0,659.5,722.4,425.0,602.3,156.7
112.5,627.4,723.3,400.7,583.8,165.7
113.0,607.2,676.0,384.3,555.8,152.5
113.5,570.9,657.5,368.8,532.4,148.1
114.0,543.9,654.3,343.5,513.9,157.5
114.5,507.7,640.9,319.9,489.5,161.2
115.0,490.4,603.2,301.6,465.1,152.4
115.5,456.5,589.1,280.5,442.0,154.8
116.0,419.2,568.9,259.4,415.8,154.8
116.5,383.8,544.6,236.6,388.3,154.1
117.0,351.6,529.2,,440.4,125.5
117.5,319.9,504.5,,412.2,130.5
118.0,282.4,468.7,,375.5,131.8
118.5,256.7,441.4,,349.0,130.6
119.0,230.6,415.2,,322.9,130.5
119.5,206.5,385.7,,296.1,126.7
120.0,183.9,366.1,,275.0,128.8