File: 01_Data/PlasticC/Cone/PlasticC_HRRPUA_25.csv
Time after Ignition,PlasticC_R1,PlasticC_R2,PlasticC_R3,Mean,Std. Dev.
0.0,16.5,22.2,17.6,18.8,3.0
0.75,22.1,32.0,24.5,26.2,5.2
1.5,32.5,48.1,35.5,38.7,8.3
2.25,46.1,59.6,46.4,50.7,7.7
3.0,59.0,80.1,64.5,67.9,10.9
3.75,82.1,102.9,79.9,88.3,12.7
4.5,106.3,126.0,112.2,114.8,10.1
5.25,146.7,149.2,131.4,142.4,9.7
6.0,186.3,174.0,177.0,179.1,6.4
6.75,222.6,197.1,218.9,212.9,13.8
7.5,268.3,232.1,256.0,252.1,18.4
8.25,295.5,273.4,296.2,288.4,13.0
9.0,326.3,290.1,345.8,320.7,28.3
9.75,354.5,329.0,380.1,354.5,25.5
10.5,382.3,350.7,419.3,384.1,34.3
11.25,394.4,387.8,430.5,404.2,23.0
12.0,417.5,399.8,466.1,427.8,34.4
12.75,431.2,413.3,468.2,437.6,28.0
13.5,445.1,443.5,489.4,459.3,26.1
14.25,448.0,455.2,493.3,465.5,24.3
15.0,460.3,472.8,510.7,481.3,26.3
15.75,457.7,475.9,519.7,484.5,31.9
16.5,465.2,499.6,538.1,501.0,36.5
17.25,484.0,520.3,531.9,512.1,25.0
18.0,503.8,522.7,560.1,528.8,28.7
18.75,490.8,548.3,563.3,534.1,38.3
19.5,523.2,551.4,558.5,544.4,18.7
20.25,532.1,547.3,575.2,551.5,21.9
21.0,523.2,556.8,578.2,552.7,27.7
21.75,535.6,572.6,568.9,559.0,20.4
22.5,544.5,567.1,608.8,573.5,32.6
23.25,531.4,601.1,591.0,574.5,37.7
24.0,537.4,589.8,595.6,574.2,32.1
24.75,553.9,596.2,596.3,582.2,24.5
25.5,555.6,606.0,611.0,590.9,30.7
26.25,569.4,630.9,623.5,607.9,33.5
27.0,567.6,628.0,604.7,600.1,30.5
27.75,588.1,616.8,602.0,602.3,14.3
28.5,591.7,614.6,628.3,611.6,18.5
29.25,623.6,612.6,593.1,609.8,15.5
30.0,594.8,623.3,637.9,618.7,21.9
30.75,607.8,659.6,646.1,637.8,26.8
31.5,624.9,649.6,726.9,667.2,53.2
32.25,625.3,698.9,672.2,665.5,37.3
33.0,639.2,659.5,692.6,663.8,27.0
33.75,632.9,675.5,706.3,671.6,36.9
34.5,651.6,672.4,723.1,682.4,36.8
35.25,652.9,690.6,749.6,697.7,48.7
36.0,636.9,708.7,739.3,695.0,52.6
36.75,656.3,721.8,745.8,708.0,46.3
37.5,714.0,696.0,724.5,711.5,14.4
38.25,646.8,726.7,745.8,706.4,52.5
39.0,669.0,731.1,752.6,717.6,43.4
39.75,686.9,728.7,808.8,741.4,62.0
40.5,683.4,756.1,792.8,744.1,55.7
41.25,707.8,802.8,757.0,755.8,47.5
42.0,754.3,791.6,794.1,780.0,22.3
42.75,683.9,788.3,756.4,742.8,53.5
43.5,714.4,802.7,759.2,758.7,44.2
44.25,718.0,789.6,800.1,769.3,44.7
45.0,762.5,837.5,810.4,803.5,38.0
45.75,770.3,794.6,816.7,793.9,23.2
46.5,753.6,808.6,808.8,790.3,31.8
47.25,779.1,822.9,828.9,810.3,27.2
48.0,823.3,803.5,801.2,809.3,12.2
48.75,801.7,819.2,819.7,813.6,10.2
49.5,790.9,853.0,806.1,816.7,32.3
50.25,782.6,835.4,807.2,808.4,26.4
51.0,801.8,882.1,778.7,820.9,54.3
51.75,844.7,847.9,800.5,831.0,26.5
52.5,836.1,842.0,828.1,835.4,6.9
53.25,791.9,854.9,842.9,829.9,33.5
54.0,833.8,850.1,831.4,838.4,10.1
54.75,841.3,892.1,851.7,861.7,26.8
55.5,855.3,905.7,819.8,860.3,43.2
56.25,831.4,915.4,859.0,868.6,42.8
57.0,838.7,891.3,856.6,862.2,26.7
57.75,873.8,902.3,870.0,882.0,17.6
58.5,858.3,929.1,873.5,887.0,37.2
59.25,870.1,909.2,890.8,890.0,19.6
60.0,872.5,952.0,876.3,900.3,44.9
60.75,929.8,943.7,883.1,918.9,31.7
61.5,899.6,967.6,896.5,921.3,40.2
62.25,918.1,949.5,906.6,924.7,22.2
63.0,927.3,926.2,907.3,920.2,11.2
63.75,855.2,921.2,900.4,892.3,33.7
64.5,898.4,981.9,881.3,920.5,53.8
65.25,885.3,967.9,918.5,923.9,41.5
66.0,909.6,953.6,924.1,929.1,22.5
66.75,889.1,1010.5,951.9,950.5,60.7
67.5,897.8,942.2,887.0,909.0,29.3
68.25,916.1,939.9,947.9,934.6,16.5
69.0,925.7,985.9,906.3,939.3,41.5
69.75,941.3,991.7,950.7,961.2,26.8
70.5,904.1,957.9,957.3,939.7,30.9
71.25,901.9,977.5,932.8,937.4,38.0
72.0,904.1,987.5,925.6,939.1,43.3
72.75,880.7,1002.3,919.1,934.0,62.2
73.5,877.0,993.2,915.4,928.5,59.2
74.25,884.1,994.0,903.0,927.0,58.8
75.0,888.1,999.1,893.1,926.8,62.7
75.75,898.6,950.6,921.1,923.5,26.1
76.5,911.6,1016.1,959.6,962.5,52.3
77.25,875.5,998.4,971.5,948.5,64.6
78.0,914.7,1000.2,956.5,957.1,42.8
78.75,904.0,1013.7,953.2,957.0,55.0
79.5,930.0,1009.7,964.2,968.0,40.0
80.25,970.7,1011.4,964.1,982.1,25.6
81.0,900.7,1003.8,967.9,957.5,52.4
81.75,922.9,1068.1,964.0,985.0,74.8
82.5,920.7,1014.9,948.0,961.2,48.4
83.25,957.0,1011.4,983.2,983.9,27.2
84.0,943.5,1020.6,938.4,967.5,46.1
84.75,943.6,994.7,907.9,948.7,43.6
85.5,942.3,1010.6,903.2,952.1,54.4
86.25,944.0,997.4,945.8,962.4,30.3
87.0,964.9,988.4,896.7,950.0,47.6
87.75,924.0,1012.9,890.7,942.5,63.2
88.5,956.5,985.3,933.9,958.6,25.8
89.25,941.0,968.1,912.2,940.4,28.0
90.0,958.4,962.3,927.4,949.4,19.1
90.75,1002.4,1006.3,939.6,982.8,37.4
91.5,972.6,968.2,946.7,962.5,13.9
92.25,1015.0,996.5,981.9,997.8,16.6
93.0,950.4,1031.0,961.7,981.1,43.6
93.75,1018.3,979.1,948.6,982.0,34.9
94.5,971.4,1019.4,926.8,972.5,46.3
95.25,949.8,1016.1,956.6,974.1,36.5
96.0,980.9,1019.9,919.4,973.4,50.7
96.75,929.4,982.7,924.8,945.6,32.2
97.5,969.4,978.8,915.0,954.4,34.5
98.25,936.3,986.9,894.5,939.2,46.3
99.0,929.6,955.8,899.4,928.2,28.2
99.75,914.2,998.3,928.6,947.0,45.0
100.5,913.7,922.2,874.6,903.5,25.4
101.25,944.7,962.4,930.7,945.9,15.9
102.0,879.4,951.2,978.4,936.3,51.2
102.75,948.3,939.4,982.6,956.8,22.8
103.5,923.7,954.2,936.5,938.1,15.3
104.25,940.2,943.8,935.9,940.0,3.9
105.0,885.6,985.8,955.2,942.2,51.4
105.75,889.9,908.1,939.9,912.7,25.3
106.5,936.6,915.7,938.5,930.3,12.6
107.25,951.9,926.8,934.0,937.6,12.9
108.0,901.4,890.0,934.3,908.6,23.0
108.75,956.1,931.5,909.9,932.5,23.2
109.5,942.3,876.6,934.1,917.7,35.8
110.25,928.5,867.0,937.6,911.0,38.4
111.0,881.0,864.9,910.9,885.6,23.4
111.75,890.5,861.0,882.3,877.9,15.2
112.5,911.2,866.7,904.5,894.2,24.0
113.25,924.3,848.0,913.7,895.3,41.3
114.0,889.9,895.8,902.2,896.0,6.1
114.75,873.6,841.3,874.8,863.2,19.0
115.5,919.4,820.6,887.6,875.8,50.4
116.25,868.3,820.8,852.5,847.2,24.2
117.0,822.7,857.5,849.6,843.3,18.2
117.75,853.1,820.6,829.9,834.5,16.8
118.5,858.4,812.2,812.6,827.7,26.5
119.25,822.8,801.6,822.8,815.7,12.3
120.0,871.7,804.4,827.1,834.4,34.3
120.75,834.0,778.0,800.8,804.3,28.1
121.5,850.6,812.0,817.3,826.6,20.9
122.25,824.7,791.7,782.8,799.7,22.1
123.0,780.1,794.5,802.1,792.2,11.2
123.75,806.1,778.8,744.2,776.4,31.0
124.5,812.0,727.2,726.2,755.1,49.2
125.25,799.6,776.1,710.8,762.1,46.0
126.0,837.1,747.1,704.2,762.8,67.9
126.75,809.1,724.0,717.6,750.2,51.1
127.5,795.1,718.5,688.5,734.0,55.0
128.25,802.9,704.9,716.7,741.5,53.5
129.0,770.7,700.9,692.2,721.3,43.0
129.75,755.0,679.9,674.1,703.0,45.1
130.5,759.9,675.3,657.9,697.7,54.6
131.25,734.5,658.1,653.8,682.1,45.4
132.0,725.6,653.2,630.0,669.6,49.9
132.75,698.2,601.4,621.0,640.2,51.2
133.5,691.4,598.2,622.1,637.2,48.4
134.25,676.3,573.6,594.5,614.8,54.3
135.0,696.2,558.6,590.8,615.2,72.0
135.75,669.3,540.7,551.8,587.3,71.2
136.5,633.1,510.5,536.7,560.1,64.5
137.25,621.8,492.9,512.9,542.5,69.4
138.0,608.3,468.4,483.8,520.2,76.7
138.75,586.9,452.0,467.1,502.0,73.9
139.5,583.0,412.6,461.1,485.6,87.8
140.25,570.3,394.3,455.3,473.3,89.4
141.0,545.0,377.0,425.6,449.2,86.4
141.75,520.1,335.8,403.8,419.9,93.2
142.5,520.9,312.1,396.5,409.8,105.0
143.25,488.2,297.6,368.6,384.8,96.3
144.0,465.7,272.3,351.9,363.3,97.2
144.75,452.5,250.6,329.9,344.4,101.7
145.5,433.8,226.6,305.8,322.1,104.6
146.25,427.9,206.7,294.3,309.6,111.4
147.0,410.2,181.3,272.8,288.1,115.2
147.75,401.9,162.5,252.9,272.4,120.9
148.5,377.8,140.2,233.3,250.4,119.7
149.25,353.8,119.7,215.3,229.6,117.7
150.0,313.1,102.8,200.0,205.3,105.2
150.75,285.9,88.0,184.9,186.3,99.0
151.5,250.7,76.1,171.0,166.0,87.4
152.25,220.5,,159.4,190.0,43.2
153.0,198.5,,149.9,174.2,34.4
153.75,175.2,,141.0,158.1,24.2
154.5,156.7,,132.1,144.4,17.4
155.25,141.0,,122.8,131.9,12.8
156.0,127.2,,113.2,120.2,9.8
156.75,110.8,,107.1,109.0,2.6
157.5,98.5,,99.7,99.1,0.9
158.25,89.1,,92.0,90.5,2.1
159.0,77.4,,86.1,81.7,6.1
159.75,69.6,,82.1,75.9,8.8
160.5,62.4,,77.1,69.7,10.4
161.25,55.5,,73.5,64.5,12.7
162.0,49.7,,68.2,58.9,13.1
162.75,44.0,,64.6,54.3,14.5
163.5,39.3,,60.5,49.9,15.0
164.25,35.0,,55.6,45.3,14.6
165.0,30.6,,52.0,41.3,15.1
165.75,27.0,,47.8,37.4,14.7
166.5,24.0,,45.8,34.9,15.4
167.25,21.8,,43.0,32.4,15.0
168.0,20.0,,40.7,30.3,14.6
168.75,18.1,,39.4,28.8,15.1