File: 01_Data/Corian_Countertop/FTIR/IS/Corian_Countertop_IS_S_221003_R2.dpt
7497.03,0.38292
7473.89,0.35862
7450.74,0.35229
7427.6,0.33726
7404.45,0.33919
7381.31,0.33850
7358.16,0.32909
7335.02,0.31446
7311.87,0.30259
7288.73,0.28778
7265.58,0.28836
7242.44,0.27672
7219.29,0.27922
7196.15,0.24518
7173,0.21849
7149.86,0.12758
7126.71,0.18998
7103.57,0.17595
7080.42,0.14837
7057.28,0.10791
7034.13,0.11862
7010.99,0.15696
6987.84,0.12591
6964.7,0.10404
6941.55,0.11571
6918.41,0.10619
6895.26,0.09448
6872.12,0.11718
6848.97,0.09877
6825.83,0.12141
6802.68,0.15335
6779.54,0.17752
6756.39,0.18830
6733.25,0.20007
6710.1,0.20966
6686.96,0.20321
6663.82,0.19811
6640.67,0.18226
6617.53,0.16270
6594.38,0.13862
6571.24,0.14294
6548.09,0.15820
6524.95,0.15814
6501.8,0.15021
6478.66,0.14240
6455.51,0.12914
6432.37,0.13553
6409.22,0.15687
6386.08,0.17743
6362.93,0.18899
6339.79,0.19796
6316.64,0.20171
6293.5,0.21042
6270.35,0.22063
6247.21,0.22772
6224.06,0.23584
6200.92,0.24215
6177.77,0.24528
6154.63,0.24551
6131.48,0.25055
6108.34,0.24885
6085.19,0.24690
6062.05,0.23121
6038.9,0.20052
6015.76,0.16933
5992.61,0.15803
5969.47,0.14159
5946.32,0.13030
5923.18,0.14880
5900.03,0.15095
5876.89,0.14696
5853.74,0.15006
5830.6,0.15215
5807.45,0.14996
5784.31,0.15386
5761.16,0.15874
5738.02,0.17017
5714.87,0.17902
5691.73,0.18824
5668.58,0.19123
5645.44,0.19158
5622.29,0.18022
5599.15,0.17464
5576,0.17685
5552.86,0.18290
5529.71,0.18129
5506.57,0.17651
5483.42,0.17185
5460.28,0.16699
5437.13,0.16676
5413.99,0.16311
5390.84,0.15730
5367.7,0.15777
5344.55,0.15832
5321.41,0.15373
5298.26,0.14327
5275.12,0.12639
5251.97,0.11587
5228.83,0.11657
5205.68,0.12432
5182.54,0.12878
5159.39,0.12749
5136.25,0.12260
5113.1,0.12082
5089.96,0.12509
5066.81,0.12589
5043.67,0.12378
5020.52,0.12117
4997.38,0.11770
4974.23,0.11546
4951.09,0.11097
4927.94,0.11010
4904.8,0.10727
4881.65,0.10440
4858.51,0.10392
4835.36,0.10049
4812.22,0.09770
4789.07,0.09486
4765.93,0.08986
4742.78,0.08480
4719.64,0.08000
4696.49,0.07556
4673.35,0.07391
4650.2,0.07379
4627.06,0.06888
4603.92,0.06537
4580.77,0.06314
4557.63,0.06176
4534.48,0.05827
4511.34,0.05708
4488.19,0.05544
4465.05,0.05420
4441.9,0.05393
4418.76,0.05332
4395.61,0.05386
4372.47,0.05313
4349.32,0.05414
4326.18,0.05474
4303.03,0.05519
4279.89,0.05423
4256.74,0.05428
4233.6,0.05397
4210.45,0.05379
4187.31,0.05404
4164.16,0.05397
4141.02,0.05415
4117.87,0.05482
4094.73,0.05411
4071.58,0.05463
4048.44,0.05479
4025.29,0.05523
4002.15,0.05474
3979,0.05419
3955.86,0.05535
3932.71,0.05416
3909.57,0.05393
3886.42,0.05432
3863.28,0.05414
3840.13,0.05419
3816.99,0.05478
3793.84,0.05395
3770.7,0.05350
3747.55,0.05358
3724.41,0.05331
3701.26,0.05310
3678.12,0.05285
3654.97,0.05229
3631.83,0.05360
3608.68,0.05290
3585.54,0.05265
3562.39,0.05296
3539.25,0.05756
3516.1,0.05803
3492.96,0.06405
3469.81,0.07238
3446.67,0.06660
3423.52,0.05567
3400.38,0.05302
3377.23,0.05573
3354.09,0.05458
3330.94,0.05417
3307.8,0.05322
3284.65,0.05281
3261.51,0.05278
3238.36,0.05254
3215.22,0.05287
3192.07,0.05347
3168.93,0.05321
3145.78,0.05387
3122.64,0.05314
3099.49,0.05324
3076.35,0.05280
3053.2,0.05142
3030.06,0.04888
3006.91,0.04796
2983.77,0.04984
2960.62,0.04869
2937.48,0.05236
2914.33,0.05419
2891.19,0.05334
2868.04,0.05324
2844.9,0.05329
2821.75,0.05406
2798.61,0.05431
2775.46,0.05454
2752.32,0.05477
2729.17,0.05514
2706.03,0.05534
2682.88,0.05541
2659.74,0.05461
2636.59,0.05454
2613.45,0.05380
2590.3,0.05388
2567.16,0.05372
2544.02,0.05382
2520.87,0.05361
2497.73,0.05398
2474.58,0.05339
2451.44,0.05344
2428.29,0.05265
2405.15,0.05263
2382,0.05209
2358.86,0.05222
2335.71,0.05187
2312.57,0.05191
2289.42,0.05197
2266.28,0.05160
2243.13,0.05101
2219.99,0.05131
2196.84,0.05063
2173.7,0.05010
2150.55,0.04997
2127.41,0.04968
2104.26,0.04956
2081.12,0.04969
2057.97,0.04940
2034.83,0.04938
2011.68,0.04904
1988.54,0.04884
1965.39,0.04823
1942.25,0.04861
1919.1,0.04834
1895.96,0.04771
1872.81,0.04718
1849.67,0.04611
1826.52,0.04535
1803.38,0.04368
1780.23,0.04096
1757.09,0.03166
1733.94,0.05697
1710.8,0.07076
1687.65,0.05706
1664.51,0.05387
1641.36,0.05232
1618.22,0.05201
1595.07,0.05102
1571.93,0.04953
1548.78,0.04826
1525.64,0.04653
1502.49,0.04318
1479.35,0.04536
1456.2,0.04521
1433.06,0.05485
1409.91,0.05025
1386.77,0.04920
1363.62,0.04881
1340.48,0.04674
1317.33,0.04396
1294.19,0.03947
1271.04,0.04143
1247.9,0.04365
1224.75,0.05008
1201.61,0.03843
1178.46,0.05200
1155.32,0.05871
1132.17,0.08456
1109.03,0.07446
1085.88,0.07352
1062.74,0.07305
1039.59,0.08592
1016.45,0.07200
993.304,0.05726
970.159,0.06211
947.014,0.06373
923.869,0.06101
900.724,0.06265
877.579,0.06582
854.434,0.06354
831.289,0.06816
808.144,0.07206
784.999,0.06930
761.854,0.06323
738.709,0.07018
715.565,0.06482
692.42,0.06304
669.275,0.06752
646.13,0.06423
622.985,0.06466
599.84,0.06981