File: 01_Data/Corian_Countertop/FTIR/IS/Corian_Countertop_IS_S_221003_R3.dpt
7497.03,0.38051
7473.89,0.37467
7450.74,0.34686
7427.6,0.33597
7404.45,0.33444
7381.31,0.33310
7358.16,0.32829
7335.02,0.32253
7311.87,0.30081
7288.73,0.29630
7265.58,0.28517
7242.44,0.27842
7219.29,0.26726
7196.15,0.24981
7173,0.20704
7149.86,0.12711
7126.71,0.18554
7103.57,0.18241
7080.42,0.14602
7057.28,0.10687
7034.13,0.11896
7010.99,0.15524
6987.84,0.12600
6964.7,0.11121
6941.55,0.11297
6918.41,0.10596
6895.26,0.09007
6872.12,0.12441
6848.97,0.09944
6825.83,0.12275
6802.68,0.14943
6779.54,0.17409
6756.39,0.18716
6733.25,0.20162
6710.1,0.20830
6686.96,0.20412
6663.82,0.19229
6640.67,0.17677
6617.53,0.16399
6594.38,0.13895
6571.24,0.14397
6548.09,0.16035
6524.95,0.15812
6501.8,0.15661
6478.66,0.13867
6455.51,0.13214
6432.37,0.13784
6409.22,0.15852
6386.08,0.17647
6362.93,0.18320
6339.79,0.19511
6316.64,0.20100
6293.5,0.20970
6270.35,0.21675
6247.21,0.22466
6224.06,0.24000
6200.92,0.24227
6177.77,0.24557
6154.63,0.24778
6131.48,0.25119
6108.34,0.25006
6085.19,0.24626
6062.05,0.23085
6038.9,0.20259
6015.76,0.17016
5992.61,0.15757
5969.47,0.14044
5946.32,0.13254
5923.18,0.14592
5900.03,0.15280
5876.89,0.14945
5853.74,0.14927
5830.6,0.15167
5807.45,0.15058
5784.31,0.15611
5761.16,0.16169
5738.02,0.17296
5714.87,0.17774
5691.73,0.18939
5668.58,0.19295
5645.44,0.19227
5622.29,0.18126
5599.15,0.17572
5576,0.17677
5552.86,0.18219
5529.71,0.18505
5506.57,0.17558
5483.42,0.17121
5460.28,0.16878
5437.13,0.16827
5413.99,0.16419
5390.84,0.15828
5367.7,0.15759
5344.55,0.15862
5321.41,0.15398
5298.26,0.14204
5275.12,0.12742
5251.97,0.11596
5228.83,0.11675
5205.68,0.12558
5182.54,0.12908
5159.39,0.12609
5136.25,0.12203
5113.1,0.12316
5089.96,0.12501
5066.81,0.12563
5043.67,0.12452
5020.52,0.12103
4997.38,0.11956
4974.23,0.11526
4951.09,0.11144
4927.94,0.10974
4904.8,0.10841
4881.65,0.10546
4858.51,0.10373
4835.36,0.10097
4812.22,0.09754
4789.07,0.09518
4765.93,0.08996
4742.78,0.08514
4719.64,0.08225
4696.49,0.07680
4673.35,0.07416
4650.2,0.07334
4627.06,0.06951
4603.92,0.06636
4580.77,0.06260
4557.63,0.06195
4534.48,0.05835
4511.34,0.05787
4488.19,0.05602
4465.05,0.05358
4441.9,0.05276
4418.76,0.05339
4395.61,0.05332
4372.47,0.05361
4349.32,0.05375
4326.18,0.05363
4303.03,0.05479
4279.89,0.05471
4256.74,0.05533
4233.6,0.05425
4210.45,0.05346
4187.31,0.05372
4164.16,0.05436
4141.02,0.05473
4117.87,0.05544
4094.73,0.05396
4071.58,0.05489
4048.44,0.05565
4025.29,0.05464
4002.15,0.05463
3979,0.05462
3955.86,0.05523
3932.71,0.05434
3909.57,0.05448
3886.42,0.05477
3863.28,0.05378
3840.13,0.05402
3816.99,0.05471
3793.84,0.05445
3770.7,0.05394
3747.55,0.05422
3724.41,0.05375
3701.26,0.05370
3678.12,0.05343
3654.97,0.05240
3631.83,0.05414
3608.68,0.05357
3585.54,0.05227
3562.39,0.05284
3539.25,0.05796
3516.1,0.05917
3492.96,0.06419
3469.81,0.07295
3446.67,0.06720
3423.52,0.05564
3400.38,0.05361
3377.23,0.05606
3354.09,0.05420
3330.94,0.05382
3307.8,0.05282
3284.65,0.05290
3261.51,0.05319
3238.36,0.05290
3215.22,0.05305
3192.07,0.05295
3168.93,0.05352
3145.78,0.05397
3122.64,0.05317
3099.49,0.05318
3076.35,0.05263
3053.2,0.05150
3030.06,0.04930
3006.91,0.04806
2983.77,0.04964
2960.62,0.04838
2937.48,0.05236
2914.33,0.05444
2891.19,0.05336
2868.04,0.05297
2844.9,0.05401
2821.75,0.05401
2798.61,0.05449
2775.46,0.05516
2752.32,0.05510
2729.17,0.05579
2706.03,0.05548
2682.88,0.05538
2659.74,0.05487
2636.59,0.05499
2613.45,0.05440
2590.3,0.05417
2567.16,0.05393
2544.02,0.05354
2520.87,0.05404
2497.73,0.05415
2474.58,0.05365
2451.44,0.05369
2428.29,0.05277
2405.15,0.05247
2382,0.05217
2358.86,0.05274
2335.71,0.05209
2312.57,0.05151
2289.42,0.05195
2266.28,0.05131
2243.13,0.05153
2219.99,0.05106
2196.84,0.05071
2173.7,0.05062
2150.55,0.05020
2127.41,0.04986
2104.26,0.05000
2081.12,0.04970
2057.97,0.04943
2034.83,0.04947
2011.68,0.04902
1988.54,0.04896
1965.39,0.04912
1942.25,0.04845
1919.1,0.04823
1895.96,0.04772
1872.81,0.04730
1849.67,0.04652
1826.52,0.04532
1803.38,0.04358
1780.23,0.04110
1757.09,0.03238
1733.94,0.05746
1710.8,0.07096
1687.65,0.05763
1664.51,0.05449
1641.36,0.05264
1618.22,0.05193
1595.07,0.05108
1571.93,0.04989
1548.78,0.04861
1525.64,0.04681
1502.49,0.04361
1479.35,0.04557
1456.2,0.04589
1433.06,0.05511
1409.91,0.05096
1386.77,0.04965
1363.62,0.04932
1340.48,0.04728
1317.33,0.04430
1294.19,0.03996
1271.04,0.04167
1247.9,0.04377
1224.75,0.05042
1201.61,0.03836
1178.46,0.05230
1155.32,0.05951
1132.17,0.08365
1109.03,0.07526
1085.88,0.07335
1062.74,0.07382
1039.59,0.08614
1016.45,0.07233
993.304,0.05790
970.159,0.06247
947.014,0.06331
923.869,0.06139
900.724,0.06250
877.579,0.06567
854.434,0.06388
831.289,0.06929
808.144,0.07234
784.999,0.06892
761.854,0.06344
738.709,0.07030
715.565,0.06479
692.42,0.06335
669.275,0.06872
646.13,0.06545
622.985,0.06782
599.84,0.07149