File: 01_Data/Corian_Countertop/FTIR/IS/Corian_Countertop_IS_S_221003_R8.dpt
7497.03,0.38190
7473.89,0.37421
7450.74,0.34474
7427.6,0.33761
7404.45,0.32975
7381.31,0.33192
7358.16,0.32693
7335.02,0.31129
7311.87,0.30815
7288.73,0.29162
7265.58,0.28335
7242.44,0.26654
7219.29,0.26450
7196.15,0.23832
7173,0.20863
7149.86,0.12416
7126.71,0.18813
7103.57,0.18223
7080.42,0.14847
7057.28,0.10925
7034.13,0.11939
7010.99,0.15529
6987.84,0.12481
6964.7,0.10484
6941.55,0.11373
6918.41,0.11170
6895.26,0.09078
6872.12,0.12011
6848.97,0.09479
6825.83,0.12077
6802.68,0.16060
6779.54,0.17511
6756.39,0.18747
6733.25,0.20552
6710.1,0.20353
6686.96,0.20556
6663.82,0.19686
6640.67,0.18456
6617.53,0.16538
6594.38,0.13894
6571.24,0.14701
6548.09,0.16241
6524.95,0.16268
6501.8,0.15067
6478.66,0.14058
6455.51,0.13404
6432.37,0.13776
6409.22,0.15957
6386.08,0.17669
6362.93,0.18204
6339.79,0.19332
6316.64,0.20072
6293.5,0.20637
6270.35,0.21862
6247.21,0.23033
6224.06,0.23567
6200.92,0.24097
6177.77,0.24264
6154.63,0.24564
6131.48,0.25035
6108.34,0.24850
6085.19,0.24526
6062.05,0.23300
6038.9,0.20250
6015.76,0.16977
5992.61,0.15675
5969.47,0.14064
5946.32,0.13372
5923.18,0.14714
5900.03,0.15219
5876.89,0.14728
5853.74,0.14963
5830.6,0.15229
5807.45,0.15058
5784.31,0.15442
5761.16,0.16122
5738.02,0.17207
5714.87,0.17910
5691.73,0.18601
5668.58,0.19308
5645.44,0.19165
5622.29,0.18099
5599.15,0.17642
5576,0.17727
5552.86,0.18187
5529.71,0.18086
5506.57,0.17492
5483.42,0.17076
5460.28,0.16775
5437.13,0.16716
5413.99,0.16148
5390.84,0.15603
5367.7,0.15878
5344.55,0.15902
5321.41,0.15233
5298.26,0.14322
5275.12,0.12665
5251.97,0.11619
5228.83,0.11658
5205.68,0.12457
5182.54,0.12979
5159.39,0.12781
5136.25,0.12197
5113.1,0.12013
5089.96,0.12447
5066.81,0.12510
5043.67,0.12339
5020.52,0.12141
4997.38,0.11765
4974.23,0.11490
4951.09,0.11199
4927.94,0.10924
4904.8,0.10712
4881.65,0.10402
4858.51,0.10266
4835.36,0.10020
4812.22,0.09651
4789.07,0.09510
4765.93,0.08990
4742.78,0.08445
4719.64,0.08171
4696.49,0.07685
4673.35,0.07331
4650.2,0.07264
4627.06,0.06906
4603.92,0.06562
4580.77,0.06199
4557.63,0.06068
4534.48,0.05897
4511.34,0.05720
4488.19,0.05599
4465.05,0.05380
4441.9,0.05340
4418.76,0.05360
4395.61,0.05322
4372.47,0.05377
4349.32,0.05464
4326.18,0.05457
4303.03,0.05427
4279.89,0.05497
4256.74,0.05457
4233.6,0.05431
4210.45,0.05404
4187.31,0.05483
4164.16,0.05435
4141.02,0.05380
4117.87,0.05425
4094.73,0.05420
4071.58,0.05498
4048.44,0.05502
4025.29,0.05496
4002.15,0.05478
3979,0.05474
3955.86,0.05537
3932.71,0.05450
3909.57,0.05364
3886.42,0.05435
3863.28,0.05318
3840.13,0.05433
3816.99,0.05391
3793.84,0.05419
3770.7,0.05383
3747.55,0.05314
3724.41,0.05394
3701.26,0.05302
3678.12,0.05320
3654.97,0.05243
3631.83,0.05461
3608.68,0.05361
3585.54,0.05262
3562.39,0.05306
3539.25,0.05763
3516.1,0.05849
3492.96,0.06397
3469.81,0.07311
3446.67,0.06678
3423.52,0.05476
3400.38,0.05375
3377.23,0.05643
3354.09,0.05400
3330.94,0.05348
3307.8,0.05331
3284.65,0.05311
3261.51,0.05217
3238.36,0.05311
3215.22,0.05268
3192.07,0.05375
3168.93,0.05305
3145.78,0.05352
3122.64,0.05236
3099.49,0.05265
3076.35,0.05249
3053.2,0.05147
3030.06,0.04901
3006.91,0.04815
2983.77,0.04980
2960.62,0.04835
2937.48,0.05205
2914.33,0.05414
2891.19,0.05279
2868.04,0.05324
2844.9,0.05392
2821.75,0.05359
2798.61,0.05442
2775.46,0.05454
2752.32,0.05512
2729.17,0.05540
2706.03,0.05563
2682.88,0.05541
2659.74,0.05479
2636.59,0.05370
2613.45,0.05395
2590.3,0.05371
2567.16,0.05342
2544.02,0.05360
2520.87,0.05325
2497.73,0.05362
2474.58,0.05376
2451.44,0.05301
2428.29,0.05277
2405.15,0.05256
2382,0.05236
2358.86,0.05187
2335.71,0.05193
2312.57,0.05186
2289.42,0.05152
2266.28,0.05166
2243.13,0.05129
2219.99,0.05076
2196.84,0.05043
2173.7,0.05035
2150.55,0.04978
2127.41,0.04987
2104.26,0.04946
2081.12,0.04968
2057.97,0.04905
2034.83,0.04894
2011.68,0.04876
1988.54,0.04822
1965.39,0.04839
1942.25,0.04826
1919.1,0.04825
1895.96,0.04754
1872.81,0.04699
1849.67,0.04613
1826.52,0.04501
1803.38,0.04363
1780.23,0.04059
1757.09,0.03211
1733.94,0.05678
1710.8,0.07043
1687.65,0.05748
1664.51,0.05407
1641.36,0.05226
1618.22,0.05173
1595.07,0.05082
1571.93,0.04946
1548.78,0.04794
1525.64,0.04654
1502.49,0.04378
1479.35,0.04521
1456.2,0.04541
1433.06,0.05458
1409.91,0.05053
1386.77,0.04916
1363.62,0.04901
1340.48,0.04680
1317.33,0.04399
1294.19,0.03910
1271.04,0.04128
1247.9,0.04361
1224.75,0.05001
1201.61,0.03812
1178.46,0.05173
1155.32,0.05918
1132.17,0.08409
1109.03,0.07469
1085.88,0.07365
1062.74,0.07368
1039.59,0.08594
1016.45,0.07199
993.304,0.05786
970.159,0.06183
947.014,0.06315
923.869,0.06110
900.724,0.06216
877.579,0.06522
854.434,0.06331
831.289,0.06802
808.144,0.07148
784.999,0.06958
761.854,0.06353
738.709,0.07005
715.565,0.06649
692.42,0.06468
669.275,0.06830
646.13,0.06527
622.985,0.06521
599.84,0.06980