File: 01_Data/Corian_Countertop/FTIR/IS/Corian_Countertop_IS_S_221003_R6.dpt
7497.03,0.37666
7473.89,0.36493
7450.74,0.34398
7427.6,0.32904
7404.45,0.33706
7381.31,0.33296
7358.16,0.32771
7335.02,0.31799
7311.87,0.30875
7288.73,0.28447
7265.58,0.28510
7242.44,0.27244
7219.29,0.25839
7196.15,0.24496
7173,0.20399
7149.86,0.12250
7126.71,0.19107
7103.57,0.18174
7080.42,0.14900
7057.28,0.10564
7034.13,0.12005
7010.99,0.15131
6987.84,0.12648
6964.7,0.10976
6941.55,0.11353
6918.41,0.10501
6895.26,0.08902
6872.12,0.11792
6848.97,0.09430
6825.83,0.12622
6802.68,0.15209
6779.54,0.17639
6756.39,0.19217
6733.25,0.19848
6710.1,0.20397
6686.96,0.20891
6663.82,0.19472
6640.67,0.18554
6617.53,0.16163
6594.38,0.14159
6571.24,0.14572
6548.09,0.16083
6524.95,0.15801
6501.8,0.15463
6478.66,0.14115
6455.51,0.13259
6432.37,0.13517
6409.22,0.15951
6386.08,0.17785
6362.93,0.18792
6339.79,0.19143
6316.64,0.20261
6293.5,0.20888
6270.35,0.21782
6247.21,0.23156
6224.06,0.23734
6200.92,0.23917
6177.77,0.23982
6154.63,0.24577
6131.48,0.25008
6108.34,0.24903
6085.19,0.24453
6062.05,0.23129
6038.9,0.19892
6015.76,0.16926
5992.61,0.15510
5969.47,0.13971
5946.32,0.13018
5923.18,0.14597
5900.03,0.15106
5876.89,0.14723
5853.74,0.14959
5830.6,0.15163
5807.45,0.15245
5784.31,0.15715
5761.16,0.16048
5738.02,0.17011
5714.87,0.17713
5691.73,0.18635
5668.58,0.19299
5645.44,0.19163
5622.29,0.17882
5599.15,0.17522
5576,0.17948
5552.86,0.18085
5529.71,0.18153
5506.57,0.17599
5483.42,0.17069
5460.28,0.16686
5437.13,0.16769
5413.99,0.16389
5390.84,0.15658
5367.7,0.15860
5344.55,0.15764
5321.41,0.15270
5298.26,0.14173
5275.12,0.12587
5251.97,0.11632
5228.83,0.11596
5205.68,0.12518
5182.54,0.12883
5159.39,0.12497
5136.25,0.12282
5113.1,0.12243
5089.96,0.12435
5066.81,0.12639
5043.67,0.12210
5020.52,0.12079
4997.38,0.11798
4974.23,0.11551
4951.09,0.11252
4927.94,0.10850
4904.8,0.10695
4881.65,0.10464
4858.51,0.10243
4835.36,0.10055
4812.22,0.09751
4789.07,0.09547
4765.93,0.08954
4742.78,0.08521
4719.64,0.08096
4696.49,0.07606
4673.35,0.07367
4650.2,0.07316
4627.06,0.06846
4603.92,0.06612
4580.77,0.06263
4557.63,0.06112
4534.48,0.05890
4511.34,0.05689
4488.19,0.05485
4465.05,0.05386
4441.9,0.05282
4418.76,0.05380
4395.61,0.05288
4372.47,0.05311
4349.32,0.05338
4326.18,0.05421
4303.03,0.05366
4279.89,0.05540
4256.74,0.05423
4233.6,0.05337
4210.45,0.05407
4187.31,0.05413
4164.16,0.05410
4141.02,0.05484
4117.87,0.05422
4094.73,0.05373
4071.58,0.05455
4048.44,0.05468
4025.29,0.05463
4002.15,0.05521
3979,0.05475
3955.86,0.05392
3932.71,0.05413
3909.57,0.05428
3886.42,0.05372
3863.28,0.05420
3840.13,0.05405
3816.99,0.05332
3793.84,0.05443
3770.7,0.05421
3747.55,0.05384
3724.41,0.05282
3701.26,0.05273
3678.12,0.05273
3654.97,0.05213
3631.83,0.05364
3608.68,0.05246
3585.54,0.05227
3562.39,0.05319
3539.25,0.05824
3516.1,0.05828
3492.96,0.06378
3469.81,0.07280
3446.67,0.06675
3423.52,0.05510
3400.38,0.05292
3377.23,0.05598
3354.09,0.05440
3330.94,0.05382
3307.8,0.05285
3284.65,0.05266
3261.51,0.05248
3238.36,0.05327
3215.22,0.05333
3192.07,0.05343
3168.93,0.05333
3145.78,0.05265
3122.64,0.05289
3099.49,0.05281
3076.35,0.05274
3053.2,0.05106
3030.06,0.04839
3006.91,0.04848
2983.77,0.04960
2960.62,0.04816
2937.48,0.05253
2914.33,0.05446
2891.19,0.05306
2868.04,0.05287
2844.9,0.05345
2821.75,0.05364
2798.61,0.05455
2775.46,0.05466
2752.32,0.05471
2729.17,0.05473
2706.03,0.05514
2682.88,0.05504
2659.74,0.05505
2636.59,0.05414
2613.45,0.05381
2590.3,0.05349
2567.16,0.05375
2544.02,0.05354
2520.87,0.05328
2497.73,0.05355
2474.58,0.05377
2451.44,0.05345
2428.29,0.05256
2405.15,0.05254
2382,0.05230
2358.86,0.05193
2335.71,0.05181
2312.57,0.05187
2289.42,0.05169
2266.28,0.05134
2243.13,0.05146
2219.99,0.05074
2196.84,0.05025
2173.7,0.04982
2150.55,0.04994
2127.41,0.04937
2104.26,0.04969
2081.12,0.04943
2057.97,0.04885
2034.83,0.04920
2011.68,0.04903
1988.54,0.04891
1965.39,0.04869
1942.25,0.04800
1919.1,0.04787
1895.96,0.04779
1872.81,0.04711
1849.67,0.04600
1826.52,0.04523
1803.38,0.04387
1780.23,0.04065
1757.09,0.03149
1733.94,0.05700
1710.8,0.07047
1687.65,0.05698
1664.51,0.05413
1641.36,0.05225
1618.22,0.05158
1595.07,0.05084
1571.93,0.04986
1548.78,0.04817
1525.64,0.04675
1502.49,0.04353
1479.35,0.04504
1456.2,0.04558
1433.06,0.05492
1409.91,0.05019
1386.77,0.04925
1363.62,0.04876
1340.48,0.04695
1317.33,0.04411
1294.19,0.03935
1271.04,0.04118
1247.9,0.04365
1224.75,0.05006
1201.61,0.03831
1178.46,0.05169
1155.32,0.05868
1132.17,0.08366
1109.03,0.07438
1085.88,0.07268
1062.74,0.07308
1039.59,0.08632
1016.45,0.07216
993.304,0.05755
970.159,0.06155
947.014,0.06313
923.869,0.06157
900.724,0.06197
877.579,0.06537
854.434,0.06333
831.289,0.06740
808.144,0.07092
784.999,0.06923
761.854,0.06324
738.709,0.07061
715.565,0.06486
692.42,0.06394
669.275,0.06658
646.13,0.06523
622.985,0.06637
599.84,0.07096