File: 01_Data/Corian_Countertop/FTIR/IS/Corian_Countertop_IS_S_221003_R7.dpt
7497.03,0.38237
7473.89,0.36382
7450.74,0.34742
7427.6,0.33366
7404.45,0.33924
7381.31,0.33132
7358.16,0.32636
7335.02,0.31125
7311.87,0.30286
7288.73,0.29997
7265.58,0.28916
7242.44,0.27480
7219.29,0.26751
7196.15,0.24923
7173,0.20989
7149.86,0.12519
7126.71,0.18680
7103.57,0.18536
7080.42,0.15549
7057.28,0.10694
7034.13,0.11763
7010.99,0.15330
6987.84,0.12751
6964.7,0.10831
6941.55,0.11745
6918.41,0.10616
6895.26,0.09400
6872.12,0.12122
6848.97,0.09779
6825.83,0.11971
6802.68,0.15772
6779.54,0.18225
6756.39,0.19106
6733.25,0.19909
6710.1,0.20461
6686.96,0.20377
6663.82,0.19727
6640.67,0.18424
6617.53,0.16817
6594.38,0.13853
6571.24,0.14476
6548.09,0.15624
6524.95,0.16417
6501.8,0.15395
6478.66,0.14296
6455.51,0.12935
6432.37,0.13889
6409.22,0.15958
6386.08,0.17845
6362.93,0.18964
6339.79,0.19415
6316.64,0.20229
6293.5,0.20927
6270.35,0.22032
6247.21,0.23400
6224.06,0.23950
6200.92,0.24128
6177.77,0.24312
6154.63,0.24621
6131.48,0.25128
6108.34,0.24706
6085.19,0.24911
6062.05,0.23206
6038.9,0.20180
6015.76,0.16986
5992.61,0.15789
5969.47,0.13955
5946.32,0.13273
5923.18,0.14806
5900.03,0.15308
5876.89,0.14931
5853.74,0.15109
5830.6,0.15570
5807.45,0.14974
5784.31,0.15546
5761.16,0.16215
5738.02,0.17295
5714.87,0.17827
5691.73,0.18710
5668.58,0.19391
5645.44,0.19190
5622.29,0.18062
5599.15,0.17581
5576,0.17715
5552.86,0.18149
5529.71,0.18417
5506.57,0.17588
5483.42,0.17195
5460.28,0.16972
5437.13,0.16907
5413.99,0.16435
5390.84,0.15826
5367.7,0.15925
5344.55,0.16054
5321.41,0.15302
5298.26,0.14334
5275.12,0.12795
5251.97,0.11797
5228.83,0.11698
5205.68,0.12475
5182.54,0.12930
5159.39,0.12659
5136.25,0.12534
5113.1,0.12229
5089.96,0.12593
5066.81,0.12497
5043.67,0.12361
5020.52,0.12158
4997.38,0.11948
4974.23,0.11593
4951.09,0.11229
4927.94,0.10945
4904.8,0.10656
4881.65,0.10519
4858.51,0.10372
4835.36,0.09972
4812.22,0.09791
4789.07,0.09462
4765.93,0.08985
4742.78,0.08451
4719.64,0.08159
4696.49,0.07710
4673.35,0.07383
4650.2,0.07385
4627.06,0.06947
4603.92,0.06608
4580.77,0.06336
4557.63,0.06186
4534.48,0.05871
4511.34,0.05747
4488.19,0.05565
4465.05,0.05377
4441.9,0.05340
4418.76,0.05384
4395.61,0.05389
4372.47,0.05375
4349.32,0.05482
4326.18,0.05449
4303.03,0.05546
4279.89,0.05441
4256.74,0.05457
4233.6,0.05421
4210.45,0.05442
4187.31,0.05388
4164.16,0.05448
4141.02,0.05414
4117.87,0.05443
4094.73,0.05502
4071.58,0.05536
4048.44,0.05502
4025.29,0.05523
4002.15,0.05500
3979,0.05486
3955.86,0.05531
3932.71,0.05475
3909.57,0.05441
3886.42,0.05439
3863.28,0.05406
3840.13,0.05401
3816.99,0.05404
3793.84,0.05445
3770.7,0.05430
3747.55,0.05402
3724.41,0.05391
3701.26,0.05276
3678.12,0.05335
3654.97,0.05292
3631.83,0.05399
3608.68,0.05370
3585.54,0.05323
3562.39,0.05336
3539.25,0.05774
3516.1,0.05877
3492.96,0.06433
3469.81,0.07344
3446.67,0.06727
3423.52,0.05551
3400.38,0.05277
3377.23,0.05633
3354.09,0.05391
3330.94,0.05374
3307.8,0.05314
3284.65,0.05289
3261.51,0.05363
3238.36,0.05331
3215.22,0.05302
3192.07,0.05367
3168.93,0.05352
3145.78,0.05378
3122.64,0.05395
3099.49,0.05305
3076.35,0.05246
3053.2,0.05166
3030.06,0.04963
3006.91,0.04860
2983.77,0.04983
2960.62,0.04858
2937.48,0.05257
2914.33,0.05473
2891.19,0.05329
2868.04,0.05322
2844.9,0.05439
2821.75,0.05401
2798.61,0.05458
2775.46,0.05459
2752.32,0.05490
2729.17,0.05522
2706.03,0.05546
2682.88,0.05528
2659.74,0.05459
2636.59,0.05483
2613.45,0.05439
2590.3,0.05377
2567.16,0.05396
2544.02,0.05350
2520.87,0.05399
2497.73,0.05368
2474.58,0.05343
2451.44,0.05364
2428.29,0.05267
2405.15,0.05268
2382,0.05238
2358.86,0.05265
2335.71,0.05253
2312.57,0.05225
2289.42,0.05211
2266.28,0.05128
2243.13,0.05162
2219.99,0.05129
2196.84,0.05080
2173.7,0.05105
2150.55,0.05013
2127.41,0.05005
2104.26,0.05000
2081.12,0.04984
2057.97,0.04956
2034.83,0.04921
2011.68,0.04917
1988.54,0.04914
1965.39,0.04875
1942.25,0.04880
1919.1,0.04881
1895.96,0.04790
1872.81,0.04724
1849.67,0.04666
1826.52,0.04536
1803.38,0.04355
1780.23,0.04131
1757.09,0.03214
1733.94,0.05709
1710.8,0.07083
1687.65,0.05754
1664.51,0.05468
1641.36,0.05261
1618.22,0.05199
1595.07,0.05132
1571.93,0.04986
1548.78,0.04835
1525.64,0.04705
1502.49,0.04369
1479.35,0.04517
1456.2,0.04595
1433.06,0.05470
1409.91,0.05105
1386.77,0.04945
1363.62,0.04934
1340.48,0.04741
1317.33,0.04444
1294.19,0.03971
1271.04,0.04162
1247.9,0.04385
1224.75,0.04985
1201.61,0.03850
1178.46,0.05251
1155.32,0.05923
1132.17,0.08427
1109.03,0.07538
1085.88,0.07372
1062.74,0.07408
1039.59,0.08642
1016.45,0.07218
993.304,0.05845
970.159,0.06235
947.014,0.06306
923.869,0.06198
900.724,0.06290
877.579,0.06610
854.434,0.06418
831.289,0.06911
808.144,0.07149
784.999,0.07009
761.854,0.06265
738.709,0.07026
715.565,0.06484
692.42,0.06287
669.275,0.06804
646.13,0.06446
622.985,0.06646
599.84,0.06936