File: 01_Data/Corian_Countertop/FTIR/IS/Corian_Countertop_IS_T_221003_R5.dpt
7497.03,0.02864
7473.89,0.03042
7450.74,0.02792
7427.6,0.02485
7404.45,0.02428
7381.31,0.02018
7358.16,0.02279
7335.02,0.02642
7311.87,0.02737
7288.73,0.02918
7265.58,0.02040
7242.44,0.01671
7219.29,0.02201
7196.15,0.01874
7173,0.03105
7149.86,0.02016
7126.71,0.02624
7103.57,0.02518
7080.42,0.01719
7057.28,0.01967
7034.13,0.02807
7010.99,0.01875
6987.84,0.01852
6964.7,0.03244
6941.55,0.02133
6918.41,0.02518
6895.26,0.01782
6872.12,0.02431
6848.97,0.01837
6825.83,0.02284
6802.68,0.02246
6779.54,0.02359
6756.39,0.02264
6733.25,0.02134
6710.1,0.02323
6686.96,0.02535
6663.82,0.02472
6640.67,0.02042
6617.53,0.02344
6594.38,0.02708
6571.24,0.02259
6548.09,0.02378
6524.95,0.02068
6501.8,0.02182
6478.66,0.02516
6455.51,0.02290
6432.37,0.02222
6409.22,0.02339
6386.08,0.02493
6362.93,0.02251
6339.79,0.02255
6316.64,0.02185
6293.5,0.02284
6270.35,0.02640
6247.21,0.02513
6224.06,0.02175
6200.92,0.02235
6177.77,0.02387
6154.63,0.02043
6131.48,0.01882
6108.34,0.02250
6085.19,0.02308
6062.05,0.02374
6038.9,0.02320
6015.76,0.02314
5992.61,0.01942
5969.47,0.02279
5946.32,0.02258
5923.18,0.02108
5900.03,0.02153
5876.89,0.02143
5853.74,0.01972
5830.6,0.02282
5807.45,0.02185
5784.31,0.02084
5761.16,0.02103
5738.02,0.02218
5714.87,0.02115
5691.73,0.02182
5668.58,0.02197
5645.44,0.02178
5622.29,0.02106
5599.15,0.02129
5576,0.02284
5552.86,0.02280
5529.71,0.02217
5506.57,0.02123
5483.42,0.02087
5460.28,0.02240
5437.13,0.02232
5413.99,0.02262
5390.84,0.02345
5367.7,0.02466
5344.55,0.02277
5321.41,0.02267
5298.26,0.02251
5275.12,0.02179
5251.97,0.02154
5228.83,0.02118
5205.68,0.02129
5182.54,0.02119
5159.39,0.02309
5136.25,0.02237
5113.1,0.02238
5089.96,0.02152
5066.81,0.02092
5043.67,0.02152
5020.52,0.02283
4997.38,0.02321
4974.23,0.02245
4951.09,0.02322
4927.94,0.02240
4904.8,0.02195
4881.65,0.02253
4858.51,0.02234
4835.36,0.02195
4812.22,0.02242
4789.07,0.02386
4765.93,0.02235
4742.78,0.02252
4719.64,0.02242
4696.49,0.02237
4673.35,0.02327
4650.2,0.02130
4627.06,0.02284
4603.92,0.02247
4580.77,0.02245
4557.63,0.02208
4534.48,0.02168
4511.34,0.02283
4488.19,0.02212
4465.05,0.02274
4441.9,0.02227
4418.76,0.02208
4395.61,0.02257
4372.47,0.02203
4349.32,0.02236
4326.18,0.02225
4303.03,0.02303
4279.89,0.02318
4256.74,0.02251
4233.6,0.02272
4210.45,0.02249
4187.31,0.02196
4164.16,0.02247
4141.02,0.02241
4117.87,0.02258
4094.73,0.02293
4071.58,0.02242
4048.44,0.02235
4025.29,0.02268
4002.15,0.02271
3979,0.02275
3955.86,0.02259
3932.71,0.02278
3909.57,0.02256
3886.42,0.02292
3863.28,0.02251
3840.13,0.02222
3816.99,0.02231
3793.84,0.02243
3770.7,0.02243
3747.55,0.02327
3724.41,0.02265
3701.26,0.02283
3678.12,0.02232
3654.97,0.02204
3631.83,0.02170
3608.68,0.02169
3585.54,0.02156
3562.39,0.02148
3539.25,0.02140
3516.1,0.02125
3492.96,0.02074
3469.81,0.02108
3446.67,0.02084
3423.52,0.02096
3400.38,0.01968
3377.23,0.02071
3354.09,0.02000
3330.94,0.02010
3307.8,0.02019
3284.65,0.02038
3261.51,0.02017
3238.36,0.02013
3215.22,0.02122
3192.07,0.02051
3168.93,0.02097
3145.78,0.02087
3122.64,0.02074
3099.49,0.02059
3076.35,0.02050
3053.2,0.02034
3030.06,0.02027
3006.91,0.02004
2983.77,0.01946
2960.62,0.01948
2937.48,0.01939
2914.33,0.02038
2891.19,0.02001
2868.04,0.02061
2844.9,0.02033
2821.75,0.02075
2798.61,0.02148
2775.46,0.02134
2752.32,0.02144
2729.17,0.02166
2706.03,0.02143
2682.88,0.02142
2659.74,0.02126
2636.59,0.02113
2613.45,0.02158
2590.3,0.02100
2567.16,0.02091
2544.02,0.02088
2520.87,0.02103
2497.73,0.02138
2474.58,0.02107
2451.44,0.02088
2428.29,0.02083
2405.15,0.02104
2382,0.02096
2358.86,0.02133
2335.71,0.02107
2312.57,0.02078
2289.42,0.02094
2266.28,0.02093
2243.13,0.02085
2219.99,0.02096
2196.84,0.02083
2173.7,0.02101
2150.55,0.02071
2127.41,0.02135
2104.26,0.02100
2081.12,0.02128
2057.97,0.02074
2034.83,0.02095
2011.68,0.02084
1988.54,0.02097
1965.39,0.02061
1942.25,0.02053
1919.1,0.02083
1895.96,0.02039
1872.81,0.02068
1849.67,0.02036
1826.52,0.01985
1803.38,0.01962
1780.23,0.01909
1757.09,0.01749
1733.94,0.01963
1710.8,0.02066
1687.65,0.01932
1664.51,0.01830
1641.36,0.01851
1618.22,0.01895
1595.07,0.01867
1571.93,0.01837
1548.78,0.01796
1525.64,0.01882
1502.49,0.01836
1479.35,0.01860
1456.2,0.01843
1433.06,0.01905
1409.91,0.01811
1386.77,0.01789
1363.62,0.01828
1340.48,0.01772
1317.33,0.01702
1294.19,0.01773
1271.04,0.01871
1247.9,0.02006
1224.75,0.01974
1201.61,0.01875
1178.46,0.01778
1155.32,0.01742
1132.17,0.01832
1109.03,0.01927
1085.88,0.01861
1062.74,0.01978
1039.59,0.01882
1016.45,0.01984
993.304,0.02118
970.159,0.02058
947.014,0.01984
923.869,0.01955
900.724,0.01911
877.579,0.01873
854.434,0.01898
831.289,0.01957
808.144,0.01919
784.999,0.01828
761.854,0.01787
738.709,0.01821
715.565,0.01716
692.42,0.01673
669.275,0.01711
646.13,0.01459
622.985,0.01514
599.84,0.01265