File: 01_Data/Corian_Countertop/FTIR/IS/Corian_Countertop_IS_S_221003_R4.dpt
7497.03,0.38424
7473.89,0.35853
7450.74,0.35078
7427.6,0.34097
7404.45,0.32923
7381.31,0.33606
7358.16,0.33886
7335.02,0.31680
7311.87,0.31410
7288.73,0.29644
7265.58,0.28893
7242.44,0.27300
7219.29,0.26586
7196.15,0.24655
7173,0.20571
7149.86,0.12925
7126.71,0.18830
7103.57,0.18379
7080.42,0.14795
7057.28,0.11000
7034.13,0.11306
7010.99,0.15604
6987.84,0.12770
6964.7,0.10526
6941.55,0.11191
6918.41,0.10598
6895.26,0.09063
6872.12,0.12266
6848.97,0.09842
6825.83,0.11563
6802.68,0.16395
6779.54,0.17255
6756.39,0.18915
6733.25,0.20534
6710.1,0.21304
6686.96,0.20705
6663.82,0.19476
6640.67,0.18357
6617.53,0.16378
6594.38,0.14205
6571.24,0.14482
6548.09,0.15987
6524.95,0.15733
6501.8,0.15245
6478.66,0.14683
6455.51,0.13275
6432.37,0.14240
6409.22,0.15338
6386.08,0.17491
6362.93,0.18899
6339.79,0.19495
6316.64,0.20410
6293.5,0.21025
6270.35,0.21921
6247.21,0.22857
6224.06,0.23658
6200.92,0.24550
6177.77,0.24262
6154.63,0.24800
6131.48,0.25285
6108.34,0.25005
6085.19,0.24768
6062.05,0.23308
6038.9,0.20088
6015.76,0.16972
5992.61,0.15565
5969.47,0.14010
5946.32,0.13082
5923.18,0.14754
5900.03,0.15398
5876.89,0.14552
5853.74,0.15244
5830.6,0.15152
5807.45,0.15066
5784.31,0.15596
5761.16,0.16243
5738.02,0.17299
5714.87,0.18108
5691.73,0.18947
5668.58,0.19251
5645.44,0.19091
5622.29,0.18340
5599.15,0.17685
5576,0.17854
5552.86,0.18245
5529.71,0.18375
5506.57,0.17988
5483.42,0.17106
5460.28,0.16981
5437.13,0.17016
5413.99,0.16434
5390.84,0.15773
5367.7,0.15971
5344.55,0.15956
5321.41,0.15220
5298.26,0.14347
5275.12,0.12726
5251.97,0.11559
5228.83,0.11738
5205.68,0.12561
5182.54,0.12994
5159.39,0.12797
5136.25,0.12290
5113.1,0.12257
5089.96,0.12457
5066.81,0.12625
5043.67,0.12411
5020.52,0.12005
4997.38,0.11884
4974.23,0.11623
4951.09,0.11223
4927.94,0.10911
4904.8,0.10748
4881.65,0.10495
4858.51,0.10368
4835.36,0.10122
4812.22,0.09835
4789.07,0.09512
4765.93,0.09018
4742.78,0.08502
4719.64,0.08202
4696.49,0.07642
4673.35,0.07387
4650.2,0.07406
4627.06,0.06976
4603.92,0.06640
4580.77,0.06267
4557.63,0.06243
4534.48,0.05885
4511.34,0.05725
4488.19,0.05598
4465.05,0.05481
4441.9,0.05370
4418.76,0.05420
4395.61,0.05359
4372.47,0.05413
4349.32,0.05417
4326.18,0.05502
4303.03,0.05491
4279.89,0.05566
4256.74,0.05405
4233.6,0.05393
4210.45,0.05340
4187.31,0.05444
4164.16,0.05443
4141.02,0.05447
4117.87,0.05476
4094.73,0.05451
4071.58,0.05511
4048.44,0.05551
4025.29,0.05517
4002.15,0.05460
3979,0.05496
3955.86,0.05521
3932.71,0.05450
3909.57,0.05409
3886.42,0.05364
3863.28,0.05436
3840.13,0.05424
3816.99,0.05386
3793.84,0.05490
3770.7,0.05358
3747.55,0.05336
3724.41,0.05366
3701.26,0.05283
3678.12,0.05329
3654.97,0.05264
3631.83,0.05372
3608.68,0.05400
3585.54,0.05287
3562.39,0.05339
3539.25,0.05812
3516.1,0.05812
3492.96,0.06390
3469.81,0.07325
3446.67,0.06748
3423.52,0.05593
3400.38,0.05391
3377.23,0.05632
3354.09,0.05390
3330.94,0.05394
3307.8,0.05357
3284.65,0.05346
3261.51,0.05338
3238.36,0.05289
3215.22,0.05324
3192.07,0.05342
3168.93,0.05345
3145.78,0.05429
3122.64,0.05362
3099.49,0.05344
3076.35,0.05314
3053.2,0.05158
3030.06,0.04938
3006.91,0.04823
2983.77,0.05011
2960.62,0.04836
2937.48,0.05304
2914.33,0.05445
2891.19,0.05341
2868.04,0.05331
2844.9,0.05383
2821.75,0.05417
2798.61,0.05462
2775.46,0.05474
2752.32,0.05478
2729.17,0.05582
2706.03,0.05585
2682.88,0.05565
2659.74,0.05481
2636.59,0.05447
2613.45,0.05484
2590.3,0.05392
2567.16,0.05431
2544.02,0.05372
2520.87,0.05447
2497.73,0.05443
2474.58,0.05417
2451.44,0.05386
2428.29,0.05339
2405.15,0.05307
2382,0.05256
2358.86,0.05260
2335.71,0.05249
2312.57,0.05210
2289.42,0.05208
2266.28,0.05169
2243.13,0.05160
2219.99,0.05111
2196.84,0.05070
2173.7,0.05050
2150.55,0.05017
2127.41,0.05024
2104.26,0.05021
2081.12,0.04990
2057.97,0.04993
2034.83,0.04934
2011.68,0.04927
1988.54,0.04890
1965.39,0.04891
1942.25,0.04880
1919.1,0.04852
1895.96,0.04801
1872.81,0.04739
1849.67,0.04664
1826.52,0.04561
1803.38,0.04404
1780.23,0.04105
1757.09,0.03229
1733.94,0.05712
1710.8,0.07114
1687.65,0.05797
1664.51,0.05445
1641.36,0.05282
1618.22,0.05233
1595.07,0.05143
1571.93,0.04996
1548.78,0.04858
1525.64,0.04703
1502.49,0.04382
1479.35,0.04529
1456.2,0.04577
1433.06,0.05522
1409.91,0.05061
1386.77,0.04937
1363.62,0.04939
1340.48,0.04725
1317.33,0.04431
1294.19,0.04001
1271.04,0.04126
1247.9,0.04385
1224.75,0.05040
1201.61,0.03872
1178.46,0.05218
1155.32,0.05958
1132.17,0.08343
1109.03,0.07571
1085.88,0.07385
1062.74,0.07420
1039.59,0.08673
1016.45,0.07261
993.304,0.05791
970.159,0.06217
947.014,0.06355
923.869,0.06182
900.724,0.06305
877.579,0.06591
854.434,0.06377
831.289,0.06811
808.144,0.07114
784.999,0.06964
761.854,0.06312
738.709,0.07110
715.565,0.06603
692.42,0.06294
669.275,0.06831
646.13,0.06486
622.985,0.06605
599.84,0.07192