File: 01_Data/Corian_Countertop/FTIR/IS/Corian_Countertop_IS_S_221003_R5.dpt
7497.03,0.38673
7473.89,0.35462
7450.74,0.34930
7427.6,0.33650
7404.45,0.32956
7381.31,0.33196
7358.16,0.32915
7335.02,0.32387
7311.87,0.31076
7288.73,0.29427
7265.58,0.28852
7242.44,0.27242
7219.29,0.27261
7196.15,0.24441
7173,0.20336
7149.86,0.12474
7126.71,0.19020
7103.57,0.18120
7080.42,0.14381
7057.28,0.10921
7034.13,0.11678
7010.99,0.15208
6987.84,0.12568
6964.7,0.11157
6941.55,0.11923
6918.41,0.10742
6895.26,0.08588
6872.12,0.11758
6848.97,0.09762
6825.83,0.12303
6802.68,0.14756
6779.54,0.17715
6756.39,0.19138
6733.25,0.20111
6710.1,0.21326
6686.96,0.20451
6663.82,0.19778
6640.67,0.18513
6617.53,0.16422
6594.38,0.14262
6571.24,0.14557
6548.09,0.16086
6524.95,0.15888
6501.8,0.15431
6478.66,0.14446
6455.51,0.12915
6432.37,0.13773
6409.22,0.15622
6386.08,0.17596
6362.93,0.18804
6339.79,0.19741
6316.64,0.19866
6293.5,0.20852
6270.35,0.21863
6247.21,0.22700
6224.06,0.24006
6200.92,0.24325
6177.77,0.24481
6154.63,0.24938
6131.48,0.25309
6108.34,0.25132
6085.19,0.24706
6062.05,0.23280
6038.9,0.20257
6015.76,0.17219
5992.61,0.15382
5969.47,0.13988
5946.32,0.13326
5923.18,0.14686
5900.03,0.15235
5876.89,0.14868
5853.74,0.15104
5830.6,0.14983
5807.45,0.15394
5784.31,0.15320
5761.16,0.16238
5738.02,0.17110
5714.87,0.18159
5691.73,0.18627
5668.58,0.19117
5645.44,0.19300
5622.29,0.18275
5599.15,0.17840
5576,0.17897
5552.86,0.18242
5529.71,0.18317
5506.57,0.17654
5483.42,0.17298
5460.28,0.16922
5437.13,0.16761
5413.99,0.16432
5390.84,0.15850
5367.7,0.15779
5344.55,0.15860
5321.41,0.15268
5298.26,0.14390
5275.12,0.12833
5251.97,0.11527
5228.83,0.11767
5205.68,0.12561
5182.54,0.12873
5159.39,0.12749
5136.25,0.12291
5113.1,0.12254
5089.96,0.12583
5066.81,0.12669
5043.67,0.12542
5020.52,0.12130
4997.38,0.11783
4974.23,0.11588
4951.09,0.11258
4927.94,0.11064
4904.8,0.10746
4881.65,0.10627
4858.51,0.10412
4835.36,0.10167
4812.22,0.09813
4789.07,0.09495
4765.93,0.08936
4742.78,0.08331
4719.64,0.08197
4696.49,0.07649
4673.35,0.07519
4650.2,0.07387
4627.06,0.06851
4603.92,0.06586
4580.77,0.06208
4557.63,0.06116
4534.48,0.05857
4511.34,0.05749
4488.19,0.05535
4465.05,0.05457
4441.9,0.05244
4418.76,0.05380
4395.61,0.05360
4372.47,0.05430
4349.32,0.05426
4326.18,0.05468
4303.03,0.05410
4279.89,0.05395
4256.74,0.05505
4233.6,0.05451
4210.45,0.05472
4187.31,0.05409
4164.16,0.05445
4141.02,0.05457
4117.87,0.05456
4094.73,0.05525
4071.58,0.05478
4048.44,0.05479
4025.29,0.05509
4002.15,0.05550
3979,0.05536
3955.86,0.05525
3932.71,0.05368
3909.57,0.05444
3886.42,0.05383
3863.28,0.05414
3840.13,0.05474
3816.99,0.05549
3793.84,0.05396
3770.7,0.05373
3747.55,0.05338
3724.41,0.05416
3701.26,0.05362
3678.12,0.05265
3654.97,0.05258
3631.83,0.05448
3608.68,0.05419
3585.54,0.05210
3562.39,0.05322
3539.25,0.05756
3516.1,0.05870
3492.96,0.06462
3469.81,0.07292
3446.67,0.06752
3423.52,0.05588
3400.38,0.05364
3377.23,0.05695
3354.09,0.05435
3330.94,0.05348
3307.8,0.05361
3284.65,0.05284
3261.51,0.05333
3238.36,0.05262
3215.22,0.05275
3192.07,0.05363
3168.93,0.05377
3145.78,0.05398
3122.64,0.05301
3099.49,0.05319
3076.35,0.05233
3053.2,0.05137
3030.06,0.04921
3006.91,0.04851
2983.77,0.05006
2960.62,0.04858
2937.48,0.05284
2914.33,0.05516
2891.19,0.05341
2868.04,0.05343
2844.9,0.05425
2821.75,0.05399
2798.61,0.05458
2775.46,0.05516
2752.32,0.05562
2729.17,0.05605
2706.03,0.05536
2682.88,0.05564
2659.74,0.05461
2636.59,0.05444
2613.45,0.05430
2590.3,0.05417
2567.16,0.05374
2544.02,0.05350
2520.87,0.05377
2497.73,0.05399
2474.58,0.05380
2451.44,0.05334
2428.29,0.05251
2405.15,0.05283
2382,0.05244
2358.86,0.05266
2335.71,0.05229
2312.57,0.05214
2289.42,0.05193
2266.28,0.05170
2243.13,0.05147
2219.99,0.05137
2196.84,0.05112
2173.7,0.05059
2150.55,0.05048
2127.41,0.05020
2104.26,0.04973
2081.12,0.04960
2057.97,0.04967
2034.83,0.04923
2011.68,0.04910
1988.54,0.04897
1965.39,0.04908
1942.25,0.04888
1919.1,0.04862
1895.96,0.04823
1872.81,0.04761
1849.67,0.04619
1826.52,0.04568
1803.38,0.04395
1780.23,0.04066
1757.09,0.03233
1733.94,0.05736
1710.8,0.07085
1687.65,0.05776
1664.51,0.05427
1641.36,0.05271
1618.22,0.05171
1595.07,0.05144
1571.93,0.04962
1548.78,0.04886
1525.64,0.04705
1502.49,0.04351
1479.35,0.04556
1456.2,0.04598
1433.06,0.05510
1409.91,0.05109
1386.77,0.04951
1363.62,0.04926
1340.48,0.04701
1317.33,0.04394
1294.19,0.03977
1271.04,0.04152
1247.9,0.04370
1224.75,0.04987
1201.61,0.03833
1178.46,0.05219
1155.32,0.05931
1132.17,0.08405
1109.03,0.07560
1085.88,0.07396
1062.74,0.07388
1039.59,0.08613
1016.45,0.07238
993.304,0.05861
970.159,0.06247
947.014,0.06372
923.869,0.06185
900.724,0.06272
877.579,0.06570
854.434,0.06343
831.289,0.06850
808.144,0.07211
784.999,0.06983
761.854,0.06283
738.709,0.07043
715.565,0.06618
692.42,0.06338
669.275,0.06789
646.13,0.06442
622.985,0.06608
599.84,0.07224