File: 01_Data/Vinyl_Tile/Cone/Vinyl_Tile_HRRPUA_50.csv
Time after Ignition,Vinyl_Tile_R1,Vinyl_Tile_R2,Vinyl_Tile_R3,Vinyl_Tile_R4,Mean,Std. Dev.
0.0,13.0,9.2,10.6,11.0,11.0,1.6
1.25,24.8,19.7,22.0,18.9,21.4,2.7
2.5,41.4,33.7,35.1,33.4,35.9,3.7
3.75,59.3,47.9,49.3,54.1,52.7,5.2
5.0,75.1,61.2,60.4,71.9,67.1,7.4
6.25,87.8,76.7,70.1,86.6,80.3,8.4
7.5,97.0,90.9,79.1,97.0,91.0,8.4
8.75,105.9,101.4,88.2,104.5,100.0,8.1
10.0,114.5,109.9,96.5,112.4,108.3,8.1
11.25,123.8,114.7,105.4,117.0,115.2,7.6
12.5,128.4,122.6,113.0,116.7,120.2,6.8
13.75,132.3,127.4,117.6,118.7,124.0,7.1
15.0,132.8,134.1,124.7,120.7,128.1,6.4
16.25,135.9,142.6,128.4,131.1,134.5,6.2
17.5,141.6,147.6,135.4,145.3,142.5,5.3
18.75,144.7,148.5,139.5,155.9,147.1,6.9
20.0,148.3,153.7,140.8,163.3,151.5,9.5
21.25,150.5,156.4,142.1,165.6,153.6,9.9
22.5,155.6,158.7,142.5,171.6,157.1,12.0
23.75,156.4,161.4,143.1,170.3,157.8,11.3
25.0,162.9,160.7,144.4,174.5,160.6,12.4
26.25,164.5,161.4,141.0,174.1,160.2,13.9
27.5,164.7,159.2,140.7,172.7,159.3,13.6
28.75,169.4,161.7,138.7,175.0,161.2,16.0
30.0,171.2,159.8,138.3,176.6,161.5,17.0
31.25,171.5,162.5,139.7,175.0,162.2,15.9
32.5,173.2,161.0,141.2,173.8,162.3,15.3
33.75,170.3,165.1,140.9,169.6,161.5,13.9
35.0,174.2,165.3,141.2,162.7,160.9,14.0
36.25,172.6,166.6,146.5,164.9,162.7,11.2
37.5,174.3,170.0,145.7,164.1,163.5,12.6
38.75,176.9,172.8,148.8,165.4,166.0,12.4
40.0,175.4,181.8,149.9,164.7,167.9,13.9
41.25,182.2,183.5,153.5,167.1,171.5,14.2
42.5,184.4,190.7,158.7,167.9,175.4,14.7
43.75,186.8,196.8,161.9,172.3,179.4,15.4
45.0,186.1,197.4,168.4,175.3,181.8,12.7
46.25,195.6,201.6,170.0,181.3,187.1,14.2
47.5,195.3,207.1,176.7,186.2,191.3,13.0
48.75,200.6,206.7,180.3,190.9,194.6,11.6
50.0,201.8,209.6,180.1,195.2,196.7,12.5
51.25,204.3,209.9,179.8,199.1,198.3,13.1
52.5,208.3,211.4,177.6,202.5,200.0,15.3
53.75,208.7,210.3,176.9,206.1,200.5,15.8
55.0,206.2,208.3,173.0,203.8,197.9,16.6
56.25,204.2,203.6,169.4,207.4,196.2,17.9
57.5,204.6,199.8,164.6,205.4,193.6,19.5
58.75,202.1,193.3,154.6,204.8,188.7,23.3
60.0,204.1,189.3,156.6,199.3,187.3,21.4
61.25,197.7,185.4,151.8,198.4,183.3,21.8
62.5,193.2,180.2,145.8,195.4,178.6,22.9
63.75,190.1,177.2,143.1,,170.2,24.3
65.0,185.8,171.5,140.1,,165.8,23.4
66.25,179.5,168.3,136.2,,161.3,22.5
67.5,172.8,166.4,135.8,,158.4,19.8
68.75,167.5,162.1,134.2,,154.6,17.9
70.0,165.5,164.1,133.5,,154.4,18.1
71.25,165.2,160.9,133.6,,153.2,17.1
72.5,163.2,161.5,134.9,,153.2,15.8
73.75,159.0,158.7,132.9,,150.2,15.0
75.0,156.9,158.8,135.4,,150.3,13.0
76.25,152.0,159.1,133.9,,148.3,13.0
77.5,152.4,159.4,130.9,,147.6,14.8
78.75,152.7,157.8,132.5,,147.6,13.4
80.0,153.4,157.0,133.4,,148.0,12.7
81.25,152.0,156.5,135.0,,147.8,11.4
82.5,156.2,160.1,138.6,,151.6,11.5
83.75,152.7,160.2,140.0,,151.0,10.2
85.0,156.2,160.3,139.2,,151.9,11.2
86.25,156.2,164.1,141.7,,154.0,11.4
87.5,156.6,164.2,142.4,,154.4,11.1
88.75,158.1,165.7,146.1,,156.6,9.9
90.0,159.5,168.3,145.6,,157.8,11.5
91.25,160.3,168.7,144.5,,157.8,12.3
92.5,158.0,168.2,143.6,,156.6,12.4
93.75,157.6,167.4,143.3,,156.1,12.1
95.0,156.6,169.6,140.0,,155.4,14.8
96.25,157.5,170.1,141.6,,156.4,14.2
97.5,157.9,171.7,139.2,,156.3,16.3
98.75,155.5,169.9,138.0,,154.5,16.0
100.0,155.2,166.9,134.8,,152.3,16.3
101.25,151.8,164.8,135.4,,150.7,14.8
102.5,152.7,165.0,132.2,,150.0,16.5
103.75,152.4,161.7,129.7,,147.9,16.5
105.0,150.2,157.5,128.9,,145.5,14.8
106.25,149.4,154.2,125.5,,143.0,15.3
107.5,147.9,151.4,122.4,,140.6,15.9
108.75,147.7,150.1,119.3,,139.0,17.1
110.0,146.2,147.8,118.1,,137.4,16.7
111.25,141.2,142.9,116.3,,133.5,14.9
112.5,140.2,138.4,113.7,,130.8,14.8
113.75,136.5,135.0,112.1,,127.9,13.7
115.0,135.2,132.3,108.1,,125.2,14.9
116.25,131.6,127.8,105.4,,121.6,14.2
117.5,129.4,125.3,102.6,,119.1,14.4
118.75,126.5,120.9,101.8,,116.4,13.0
120.0,125.1,118.2,99.8,,114.4,13.1
121.25,120.8,116.1,99.9,,112.3,11.0
122.5,115.7,112.4,95.7,,107.9,10.7
123.75,113.9,107.8,92.8,,104.8,10.9
125.0,111.9,105.4,91.8,,103.0,10.3
126.25,108.6,102.8,89.5,,100.3,9.8
127.5,104.8,101.4,85.7,,97.3,10.2
128.75,102.6,97.1,84.4,,94.7,9.4
130.0,96.9,95.8,82.7,,91.8,7.9
131.25,93.6,93.6,80.2,,89.1,7.7
132.5,90.6,89.8,79.7,,86.7,6.1
133.75,88.5,87.9,75.9,,84.1,7.1
135.0,87.4,84.2,73.6,,81.7,7.2
136.25,85.8,82.5,71.7,,80.0,7.4
137.5,84.2,81.4,68.7,,78.1,8.3
138.75,82.5,79.3,68.4,,76.7,7.4
140.0,81.5,77.9,66.7,,75.4,7.7
141.25,79.3,77.3,65.1,,73.9,7.7
142.5,76.9,73.1,65.0,,71.7,6.1
143.75,75.1,71.9,63.3,,70.1,6.1
145.0,74.4,70.9,61.5,,68.9,6.7
146.25,73.3,69.5,60.2,,67.7,6.7
147.5,71.3,68.6,58.4,,66.1,6.8
148.75,70.4,66.5,57.2,,64.7,6.8
150.0,69.2,66.4,55.3,,63.6,7.3
151.25,67.8,62.9,53.1,,61.3,7.5
152.5,67.1,62.6,52.5,,60.7,7.5
153.75,65.1,61.3,52.0,,59.5,6.7
155.0,63.6,59.9,50.8,,58.1,6.5
156.25,62.2,59.4,49.7,,57.1,6.5
157.5,59.8,58.3,49.0,,55.7,5.8
158.75,57.9,58.2,47.8,,54.6,5.9
160.0,57.5,57.4,47.5,,54.1,5.7
161.25,56.8,56.3,47.6,,53.6,5.2
162.5,54.9,55.4,46.3,,52.2,5.1
163.75,54.0,54.8,46.0,,51.6,4.9
165.0,53.0,54.0,45.3,,50.8,4.7
166.25,51.3,53.2,44.8,,49.8,4.4
167.5,50.9,54.1,43.7,,49.5,5.3
168.75,50.5,52.9,43.1,,48.9,5.1
170.0,50.6,52.7,42.4,,48.6,5.5
171.25,49.9,52.7,41.9,,48.2,5.6
172.5,48.6,52.5,41.7,,47.6,5.5
173.75,48.8,51.7,41.6,,47.4,5.2
175.0,47.8,52.4,42.0,,47.4,5.2
176.25,47.9,51.7,41.0,,46.8,5.4
177.5,47.4,52.3,40.3,,46.7,6.0
178.75,46.7,50.8,40.3,,45.9,5.3
180.0,47.2,51.3,39.1,,45.8,6.2
181.25,47.1,50.8,38.7,,45.5,6.2
182.5,47.2,51.4,38.1,,45.5,6.8
183.75,47.1,50.9,38.1,,45.4,6.6
185.0,47.4,50.3,38.6,,45.4,6.1
186.25,46.6,49.9,37.8,,44.8,6.2
187.5,45.5,49.8,37.5,,44.3,6.2
188.75,45.3,49.9,38.2,,44.5,5.9
190.0,45.4,50.4,37.7,,44.5,6.4
191.25,43.9,50.5,36.9,,43.7,6.8
192.5,44.0,49.9,36.6,,43.5,6.7
193.75,42.9,48.6,37.0,,42.8,5.8
195.0,42.4,49.5,36.9,,43.0,6.3
196.25,42.4,49.3,36.7,,42.8,6.3
197.5,42.3,49.0,37.2,,42.8,5.9
198.75,43.1,48.3,36.4,,42.6,6.0
200.0,41.8,48.5,36.5,,42.2,6.0
201.25,42.1,48.5,36.0,,42.2,6.3
202.5,41.5,48.1,36.3,,42.0,5.9
203.75,42.1,46.6,36.6,,41.8,5.0
205.0,40.9,46.4,37.1,,41.5,4.7
206.25,41.4,47.9,38.7,,42.7,4.7
207.5,41.2,47.7,39.0,,42.6,4.5
208.75,40.8,47.7,39.5,,42.7,4.4
210.0,40.1,48.6,39.6,,42.8,5.1
211.25,39.9,49.5,39.4,,43.0,5.7
212.5,39.8,48.7,39.9,,42.8,5.1
213.75,39.0,48.5,38.8,,42.1,5.6
215.0,38.6,48.3,37.7,,41.5,5.9
216.25,39.0,49.4,37.0,,41.8,6.7
217.5,38.2,49.2,36.6,,41.3,6.8
218.75,38.3,48.1,36.1,,40.8,6.4
220.0,38.6,48.0,36.2,,40.9,6.2
221.25,37.4,47.1,35.6,,40.1,6.2
222.5,37.5,47.1,34.3,,39.6,6.6
223.75,37.6,47.3,34.5,,39.8,6.7
225.0,37.0,46.7,34.2,,39.3,6.6
226.25,36.4,46.5,33.7,,38.9,6.7
227.5,36.6,47.2,34.2,,39.3,6.9
228.75,36.9,46.6,33.1,,38.9,7.0
230.0,36.2,45.7,33.5,,38.5,6.4
231.25,36.4,44.3,33.3,,38.0,5.7
232.5,35.2,45.0,32.7,,37.6,6.5
233.75,35.2,44.1,32.3,,37.2,6.2
235.0,34.6,43.9,33.1,,37.2,5.8
236.25,34.7,43.4,32.9,,37.0,5.6
237.5,34.4,43.5,32.9,,36.9,5.7
238.75,33.5,43.0,32.3,,36.3,5.9
240.0,33.5,43.5,32.0,,36.3,6.3
241.25,33.0,43.0,32.1,,36.1,6.0
242.5,33.6,42.3,32.4,,36.1,5.4
243.75,33.4,42.4,31.9,,35.9,5.7
245.0,33.3,41.9,32.2,,35.8,5.3
246.25,34.3,41.8,32.5,,36.2,5.0
247.5,34.0,42.4,32.3,,36.2,5.4
248.75,33.8,41.8,32.1,,35.9,5.2
250.0,34.3,41.3,31.8,,35.8,4.9
251.25,34.2,41.1,31.9,,35.8,4.8
252.5,33.6,40.8,32.1,,35.5,4.7
253.75,33.2,41.7,31.8,,35.6,5.3
255.0,32.3,41.5,31.8,,35.2,5.4
256.25,31.6,40.2,31.1,,34.3,5.1
257.5,30.7,39.5,30.9,,33.7,5.0
258.75,30.6,38.8,31.1,,33.5,4.6
260.0,30.3,38.9,30.4,,33.2,4.9
261.25,30.0,38.4,29.8,,32.7,4.9
262.5,30.1,38.6,29.9,,32.9,5.0
263.75,29.6,37.8,29.3,,32.2,4.8
265.0,29.9,37.2,28.5,,31.9,4.6
266.25,30.2,36.3,28.3,,31.6,4.2
267.5,31.4,35.6,27.7,,31.6,4.0
268.75,31.8,35.8,27.6,,31.8,4.1
270.0,31.8,34.9,27.4,,31.3,3.8
271.25,31.8,35.3,27.6,,31.6,3.9
272.5,31.7,34.3,26.9,,31.0,3.7
273.75,30.9,34.5,26.8,,30.8,3.8
275.0,29.4,34.1,26.2,,29.9,4.0
276.25,27.6,34.2,26.1,,29.3,4.3
277.5,25.9,33.8,25.9,,28.5,4.6
278.75,24.9,33.6,25.9,,28.1,4.7
280.0,24.0,32.8,24.7,,27.2,4.9
281.25,23.2,32.8,24.8,,27.0,5.2
282.5,22.7,32.3,25.1,,26.7,5.0
283.75,22.5,31.8,25.1,,26.5,4.8
285.0,22.5,31.2,24.6,,26.1,4.6
286.25,22.2,30.5,24.4,,25.7,4.3
287.5,22.2,29.9,24.4,,25.5,4.0
288.75,22.7,29.9,23.9,,25.5,3.9
290.0,22.7,29.3,24.3,,25.5,3.4
291.25,22.8,29.1,23.6,,25.2,3.4
292.5,22.5,28.3,23.1,,24.6,3.2
293.75,22.2,28.3,23.0,,24.5,3.3
295.0,21.9,28.7,22.9,,24.5,3.7
296.25,21.9,28.4,22.5,,24.3,3.6
297.5,22.0,28.4,22.4,,24.3,3.6
298.75,22.1,27.6,21.8,,23.8,3.3
300.0,22.2,27.3,21.9,,23.8,3.1
301.25,22.5,26.4,21.6,,23.5,2.6
302.5,22.8,26.1,21.6,,23.5,2.3
303.75,22.1,25.4,22.2,,23.2,1.9
305.0,21.3,24.9,21.9,,22.7,1.9
306.25,20.9,24.4,21.6,,22.3,1.8
307.5,20.3,23.4,22.1,,21.9,1.6
308.75,19.7,23.2,21.7,,21.5,1.8
310.0,19.6,,22.1,,20.9,1.7
311.25,19.0,,22.0,,20.5,2.1
312.5,18.7,,22.0,,20.3,2.4
313.75,18.3,,21.9,,20.1,2.5
315.0,17.9,,21.3,,19.6,2.4
316.25,17.4,,21.3,,19.3,2.8
317.5,17.1,,20.9,,19.0,2.7
318.75,17.0,,20.2,,18.6,2.3
320.0,16.7,,19.9,,18.3,2.3
321.25,16.5,,20.0,,18.3,2.5
322.5,16.5,,20.2,,18.4,2.6
323.75,16.7,,20.4,,18.6,2.6
325.0,16.8,,20.6,,18.7,2.7
326.25,16.6,,21.0,,18.8,3.1
327.5,17.1,,21.0,,19.0,2.8
328.75,17.2,,21.3,,19.3,2.9
330.0,17.0,,21.1,,19.0,3.0
331.25,16.6,,21.2,,18.9,3.2
332.5,16.8,,21.2,,19.0,3.1
333.75,16.7,,20.8,,18.7,2.9
335.0,16.7,,20.4,,18.5,2.6
336.25,16.5,,19.6,,18.0,2.2
337.5,16.3,,19.1,,17.7,2.0
338.75,16.4,,19.1,,17.8,1.9
340.0,16.5,,18.8,,17.6,1.6
341.25,16.4,,18.4,,17.4,1.5
341.5,16.4,,18.9,,17.6,1.8