File: 01_Data/Vinyl_Tile/Cone/Vinyl_Tile_HRRPUA_25.csv
Time after Ignition,Vinyl_Tile_R1,Vinyl_Tile_R2,Vinyl_Tile_R3,Vinyl_Tile_R4,Mean,Std. Dev.
0.0,2.8,0.9,1.2,6.5,2.8,2.6
1.0,5.1,4.3,5.2,11.2,6.4,3.2
2.0,9.8,8.2,9.6,16.5,11.0,3.7
3.0,14.6,11.3,14.3,21.3,15.3,4.2
4.0,17.6,14.3,19.3,27.6,19.7,5.7
5.0,19.5,18.7,25.0,34.3,24.4,7.2
6.0,20.8,21.9,31.3,40.0,28.5,9.0
7.0,21.0,24.8,37.1,43.3,31.6,10.4
8.0,21.4,29.4,42.0,48.0,35.2,12.0
9.0,22.6,33.3,45.5,52.1,38.4,13.1
10.0,26.6,36.3,49.4,56.0,42.1,13.2
11.0,30.3,39.5,52.6,59.7,45.5,13.1
12.0,33.9,41.5,55.2,63.6,48.6,13.3
13.0,37.7,44.4,59.7,66.7,52.1,13.4
14.0,41.2,47.5,60.8,70.7,55.1,13.3
15.0,45.2,51.0,64.6,72.0,58.2,12.3
16.0,48.5,54.8,67.2,74.8,61.4,11.9
17.0,51.8,56.7,69.0,76.3,63.4,11.2
18.0,56.4,60.1,72.9,77.0,66.6,9.9
19.0,59.0,63.2,75.8,77.1,68.8,9.0
20.0,62.0,65.4,79.6,75.7,70.7,8.3
21.0,64.6,68.5,81.7,74.8,72.4,7.5
22.0,67.9,70.9,85.5,73.6,74.5,7.7
23.0,69.9,75.2,86.6,69.5,75.3,8.0
24.0,73.9,77.8,90.6,67.4,77.4,9.8
25.0,77.2,80.1,91.5,65.1,78.5,10.8
26.0,79.6,83.2,92.9,63.4,79.8,12.3
27.0,80.8,84.2,96.3,61.0,80.6,14.7
28.0,81.6,86.8,97.1,59.5,81.2,15.8
29.0,84.2,88.4,97.5,58.5,82.1,16.7
30.0,83.9,92.7,99.6,56.3,83.1,19.0
31.0,86.1,95.5,101.9,55.9,84.8,20.4
32.0,87.3,95.7,101.4,55.7,85.0,20.4
33.0,88.7,98.3,102.9,55.3,86.3,21.5
34.0,88.0,101.4,105.8,55.0,87.6,23.0
35.0,88.1,102.9,107.7,55.2,88.5,23.7
36.0,89.1,101.3,108.6,55.8,88.7,23.4
37.0,90.3,104.1,110.3,55.8,90.1,24.3
38.0,90.9,105.4,111.5,56.4,91.1,24.7
39.0,87.7,105.5,111.2,57.5,90.5,24.2
40.0,87.7,108.0,112.9,59.6,92.1,24.2
41.0,85.9,108.5,111.0,,101.8,13.8
42.0,86.1,108.9,110.9,,102.0,13.8
43.0,85.6,107.3,109.8,,100.9,13.3
44.0,85.5,109.2,110.0,,101.6,13.9
45.0,85.0,108.6,109.9,,101.1,14.0
46.0,86.7,108.8,108.6,,101.4,12.7
47.0,86.1,109.1,107.8,,101.0,12.9
48.0,85.8,106.7,106.1,,99.5,11.9
49.0,86.0,105.4,107.8,,99.7,11.9
50.0,87.1,106.4,105.6,,99.7,10.9
51.0,86.9,105.7,106.6,,99.7,11.1
52.0,86.4,106.5,106.1,,99.7,11.5
53.0,88.0,105.9,107.6,,100.5,10.9
54.0,90.5,105.1,106.9,,100.9,9.0
55.0,92.0,106.7,105.8,,101.5,8.3
56.0,93.8,105.9,107.0,,102.2,7.3
57.0,93.9,105.8,106.4,,102.1,7.1
58.0,97.4,107.1,107.8,,104.1,5.8
59.0,94.0,108.9,108.2,,103.7,8.4
60.0,96.6,106.2,107.8,,103.5,6.1
61.0,95.7,106.2,109.2,,103.7,7.1
62.0,97.0,105.6,110.6,,104.4,6.9
63.0,94.8,107.3,111.1,,104.4,8.5
64.0,94.3,105.1,109.1,,102.9,7.6
65.0,94.0,104.9,109.8,,102.9,8.1
66.0,94.8,106.0,111.6,,104.1,8.6
67.0,92.9,106.3,109.6,,103.0,8.8
68.0,92.8,107.7,112.1,,104.2,10.1
69.0,91.6,104.7,112.1,,102.8,10.4
70.0,92.8,104.7,112.3,,103.3,9.8
71.0,92.4,105.2,113.1,,103.6,10.5
72.0,94.1,105.0,114.2,,104.4,10.1
73.0,93.4,103.9,112.8,,103.4,9.7
74.0,93.2,104.5,113.7,,103.8,10.3
75.0,93.9,105.8,112.7,,104.1,9.6
76.0,96.8,105.0,113.9,,105.2,8.6
77.0,94.3,104.2,114.3,,104.3,10.0
78.0,94.9,105.5,113.3,,104.6,9.2
79.0,97.7,107.8,113.1,,106.2,7.8
80.0,96.6,106.3,114.5,,105.8,9.0
81.0,98.6,105.4,113.6,,105.8,7.5
82.0,98.9,108.9,113.2,,107.0,7.3
83.0,99.7,110.0,111.2,,107.0,6.3
84.0,98.9,107.9,112.8,,106.5,7.0
85.0,100.5,108.5,112.4,,107.1,6.1
86.0,99.4,109.5,112.9,,107.3,7.0
87.0,100.1,110.3,113.6,,108.0,7.0
88.0,99.5,108.8,113.1,,107.1,7.0
89.0,102.8,110.0,113.3,,108.7,5.4
90.0,98.8,108.4,111.1,,106.1,6.5
91.0,100.5,109.6,113.9,,108.0,6.9
92.0,100.9,108.2,113.3,,107.5,6.3
93.0,101.0,108.9,112.7,,107.5,5.9
94.0,101.4,110.1,112.1,,107.9,5.7
95.0,101.3,110.1,111.8,,107.8,5.7
96.0,100.0,110.1,112.0,,107.4,6.5
97.0,101.9,111.2,110.0,,107.7,5.1
98.0,102.8,110.2,109.9,,107.6,4.2
99.0,103.1,109.3,108.4,,106.9,3.3
100.0,102.4,109.0,109.7,,107.1,4.0
101.0,102.0,108.6,110.8,,107.1,4.6
102.0,104.0,108.8,108.9,,107.3,2.8
103.0,103.3,108.0,109.3,,106.8,3.2
104.0,103.4,108.1,107.6,,106.4,2.6
105.0,104.5,106.0,106.1,,105.5,0.9
106.0,104.0,108.7,105.9,,106.2,2.4
107.0,104.3,107.1,103.4,,104.9,1.9
108.0,104.0,106.0,105.5,,105.2,1.1
109.0,104.3,106.9,103.4,,104.9,1.8
110.0,104.1,105.7,102.1,,104.0,1.8
111.0,105.1,102.8,99.8,,102.6,2.7
112.0,105.7,104.5,100.6,,103.6,2.7
113.0,105.4,102.8,99.2,,102.4,3.1
114.0,105.4,101.7,99.3,,102.1,3.1
115.0,104.3,103.1,96.6,,101.3,4.1
116.0,105.6,100.6,94.7,,100.3,5.5
117.0,104.3,101.1,93.8,,99.7,5.4
118.0,104.9,99.9,93.5,,99.4,5.7
119.0,102.3,98.6,92.7,,97.8,4.8
120.0,101.4,97.0,90.9,,96.4,5.2
121.0,102.5,97.3,90.7,,96.8,5.9
122.0,102.6,96.9,90.0,,96.5,6.3
123.0,100.9,95.8,88.9,,95.2,6.0
124.0,101.0,94.5,86.9,,94.1,7.1
125.0,100.1,91.8,86.3,,92.7,6.9
126.0,99.7,90.4,85.3,,91.8,7.3
127.0,100.2,90.7,84.4,,91.7,7.9
128.0,99.2,87.8,84.0,,90.4,7.9
129.0,99.4,89.1,82.2,,90.2,8.6
130.0,99.4,87.3,81.4,,89.4,9.1
131.0,97.3,89.3,81.8,,89.5,7.7
132.0,97.2,87.3,80.0,,88.1,8.6
133.0,96.5,88.3,78.6,,87.8,8.9
134.0,99.9,87.4,76.1,,87.8,11.9
135.0,96.5,85.8,76.2,,86.2,10.2
136.0,96.8,85.6,76.2,,86.2,10.3
137.0,96.6,85.4,74.5,,85.5,11.1
138.0,96.5,83.9,72.8,,84.4,11.9
139.0,97.4,83.9,72.8,,84.7,12.3
140.0,96.7,80.6,70.9,,82.8,13.0
141.0,95.2,80.2,70.0,,81.8,12.7
142.0,95.3,78.9,67.6,,80.6,13.9
143.0,95.5,78.7,68.0,,80.7,13.8
144.0,94.1,78.0,66.9,,79.7,13.7
145.0,93.6,74.5,66.3,,78.1,14.0
146.0,93.6,75.9,65.7,,78.4,14.1
147.0,93.2,73.4,64.2,,77.0,14.8
148.0,95.4,73.9,63.5,,77.6,16.3
149.0,93.6,72.5,61.7,,76.0,16.2
150.0,93.7,73.1,61.5,,76.1,16.3
151.0,93.2,70.9,60.5,,74.9,16.7
152.0,93.9,70.6,59.8,,74.8,17.4
153.0,92.1,69.5,58.7,,73.4,17.1
154.0,91.6,69.3,58.7,,73.2,16.8
155.0,90.1,68.9,58.7,,72.6,16.0
156.0,88.6,67.6,57.2,,71.1,16.0
157.0,88.1,68.2,56.3,,70.9,16.1
158.0,87.4,67.1,55.5,,70.0,16.1
159.0,88.7,67.4,54.9,,70.4,17.1
160.0,85.9,65.7,53.8,,68.4,16.2
161.0,84.9,66.3,52.6,,67.9,16.2
162.0,83.7,65.1,52.3,,67.0,15.8
163.0,82.4,62.6,51.3,,65.4,15.7
164.0,84.4,63.0,50.5,,66.0,17.1
165.0,82.0,62.1,49.8,,64.6,16.3
166.0,82.2,62.6,48.6,,64.5,16.9
167.0,81.8,61.5,47.4,,63.6,17.3
168.0,80.8,61.4,46.3,,62.8,17.3
169.0,79.3,61.4,46.2,,62.3,16.6
170.0,80.1,59.8,45.3,,61.8,17.5
171.0,79.5,60.6,44.7,,61.6,17.5
172.0,78.3,59.8,44.6,,60.9,16.9
173.0,79.1,59.1,42.8,,60.3,18.2
174.0,78.7,60.0,42.8,,60.5,17.9
175.0,77.7,57.5,40.8,,58.7,18.5
176.0,76.9,57.7,40.6,,58.4,18.2
177.0,75.3,57.4,39.8,,57.5,17.8
178.0,74.4,57.5,39.3,,57.1,17.6
179.0,72.7,57.6,39.0,,56.4,16.9
180.0,72.8,55.9,39.4,,56.0,16.7
181.0,72.3,55.8,39.1,,55.7,16.6
182.0,71.0,54.6,38.0,,54.5,16.5
183.0,70.5,55.5,37.5,,54.5,16.5
184.0,69.9,54.9,37.2,,54.0,16.4
185.0,68.6,55.9,37.4,,54.0,15.7
186.0,68.7,55.4,37.3,,53.8,15.8
187.0,68.1,54.2,35.9,,52.7,16.1
188.0,67.8,53.6,35.1,,52.1,16.4
189.0,66.0,53.3,34.4,,51.2,15.9
190.0,65.9,52.5,33.3,,50.6,16.4
191.0,65.8,52.0,32.6,,50.1,16.7
192.0,66.6,52.3,31.8,,50.2,17.5
193.0,64.4,50.8,31.9,,49.0,16.3
194.0,62.3,49.5,31.7,,47.8,15.4
195.0,63.8,49.2,30.3,,47.8,16.8
196.0,63.1,49.2,30.3,,47.5,16.5
197.0,61.4,47.9,29.4,,46.2,16.1
198.0,62.4,47.5,29.0,,46.3,16.7
199.0,60.8,46.5,27.9,,45.1,16.5
200.0,59.1,45.4,27.6,,44.0,15.8
201.0,58.5,45.2,27.0,,43.5,15.8
202.0,58.9,45.3,26.8,,43.7,16.1
203.0,57.8,44.2,26.3,,42.8,15.8
204.0,55.7,42.9,25.8,,41.5,15.0
205.0,57.0,42.9,25.7,,41.9,15.6
206.0,54.6,42.3,25.8,,40.9,14.4
207.0,55.0,41.9,24.5,,40.5,15.3
208.0,53.9,42.1,23.5,,39.9,15.3
209.0,53.7,41.8,22.2,,39.2,15.9
210.0,52.8,41.1,21.6,,38.5,15.8
211.0,52.4,42.0,20.7,,38.4,16.1
212.0,51.8,41.2,19.8,,37.6,16.3
213.0,50.2,40.7,19.2,,36.7,15.9
214.0,49.2,40.3,18.4,,36.0,15.9
215.0,48.8,39.3,18.2,,35.4,15.6
216.0,47.5,38.5,,,43.0,6.3
217.0,47.0,37.8,,,42.4,6.5
218.0,45.4,36.9,,,41.2,6.0
219.0,45.2,36.3,,,40.7,6.3
220.0,44.8,35.1,,,40.0,6.8
221.0,44.8,35.2,,,40.0,6.8
222.0,44.2,34.7,,,39.5,6.7
223.0,43.4,34.3,,,38.9,6.5
224.0,43.7,33.4,,,38.5,7.3
225.0,42.5,33.0,,,37.8,6.7
226.0,41.7,32.5,,,37.1,6.6
227.0,40.6,31.7,,,36.2,6.3
228.0,39.9,30.6,,,35.3,6.6
229.0,39.4,29.2,,,34.3,7.2
230.0,37.5,28.3,,,32.9,6.5
231.0,37.5,27.6,,,32.6,7.0
232.0,36.6,26.7,,,31.6,7.0
233.0,35.5,26.1,,,30.8,6.6
234.0,35.2,25.0,,,30.1,7.3
235.0,33.8,24.7,,,29.3,6.5
236.0,33.2,24.2,,,28.7,6.4
237.0,30.1,23.9,,,27.0,4.4
238.0,27.2,23.1,,,25.2,2.9
239.0,25.6,22.7,,,24.1,2.1
240.0,24.4,21.7,,,23.1,1.9
241.0,23.5,20.4,,,21.9,2.2
242.0,23.4,19.4,,,21.4,2.9
243.0,22.8,17.9,,,20.3,3.4
244.0,22.4,17.0,,,19.7,3.8
245.0,21.8,16.2,,,19.0,3.9
246.0,21.2,15.8,,,18.5,3.8
247.0,21.1,,,,21.1,