File: 01_Data/Overstuffed_Chair/Furniture_Calorimeter/Overstuffed_Chair_R1.csv
Time (s),Convective HRR,TCPlume1,TCPlume2,TCPlume3,DPPlume1,DPPlume2,DPPlume3,HF1,HF2,HF3,HF4,HF5,HF6,RAD2,RAD1,Load Cell,Heat Release Rate,Total Heat Released
-120,0.0,-8.93431,-8.61001,10.2871,-0.0640849,-0.103588,-0.0847637,-1.45639,0.188802,-0.465317,1.4419,0.258371,0.0178263,0.779224,2.88169,28.6875,0.0,0.0
-95,0.0,-9.27718,-8.59956,10.6413,0.0118723,0.0103397,-0.122741,-0.654027,-0.709894,0.348988,0.579659,-0.491534,-0.123595,0.613177,1.92317,28.729,0.0,0.0
-70,0.0,-9.32257,-8.99806,9.9091,-0.0716807,-0.00485071,-0.10755,-0.654027,-0.709894,-0.465317,-0.282584,0.633323,0.159248,0.613177,1.92317,28.7083,0.0,0.0
-45,0.0,-10.1876,-9.54828,10.2145,0.0270638,0.0407204,0.0291694,-0.654027,-0.709894,-0.465317,-2.00707,-0.491534,-0.123595,0.779224,1.92317,28.7083,0.0,0.0
-20,0.0,-10.0028,-9.28511,10.0119,-0.0261063,-0.0124459,-0.046786,-0.654027,0.188802,-0.465317,-1.14483,-0.116582,0.0178263,0.447131,2.88169,28.9159,0.0,0.0
5,0.0,-9.38585,-9.454,9.84754,0.0574466,-0.0656122,-0.00880828,0.9507,1.0875,-0.465317,0.579659,-0.491534,-0.123595,0.115037,2.88169,28.8952,0.0,0.0
30,0.0,-9.89185,-9.48848,9.92869,0.0422552,-0.058017,0.00638281,-0.654027,1.0875,1.16329,2.30414,-0.116582,0.159248,0.447131,3.8402,28.8952,0.0,0.0
55,0.0,-10.1059,-9.46665,10.0646,-0.0412978,0.0407204,-0.0239994,0.9507,-0.709894,-1.27962,1.4419,-0.116582,0.30067,0.779224,1.92317,28.8952,0.0,0.0
80,0.0,-8.9278,-7.81947,11.8602,0.0802338,0.101482,0.0671472,0.9507,0.188802,-1.27962,0.579659,0.258371,0.30067,0.945271,2.88169,28.8952,3.0026,0.0022038
105,0.0,-6.17667,-5.7368,13.9315,0.0726381,0.306552,0.0443605,0.9507,0.188802,0.348988,0.579659,-0.116582,0.30067,0.447131,4.79872,28.8536,108.437,1.05522
130,57.9272,9.04091,10.9243,25.6478,1.31834,4.21807,0.986208,7.36961,3.78358,3.60621,0.579659,1.38323,1.00778,1.44341,9.5913,28.5629,452.181,6.9559
155,272.69,68.4256,86.0777,99.6542,2.99699,1.52178,0.72796,16.1956,6.47967,6.04912,3.16639,3.63294,2.84626,2.93783,16.3009,27.8984,853.149,23.2358
180,479.413,115.878,124.511,149.379,3.01218,13.7121,5.93091,24.2192,9.17576,9.30634,5.75312,5.88266,3.69479,4.43225,23.9691,26.9016,1209.3,49.5146
205,744.323,189.596,251.902,319.047,8.23804,16.2944,3.28766,49.0925,16.3653,15.8208,10.9266,10.0071,6.24038,6.09272,44.0979,24.9288,1713.24,86.8491
230,913.202,307.654,441.118,608.924,9.40778,12.9374,10.6098,63.5351,22.6562,23.1495,16.9623,13.7567,8.9274,8.74947,57.5171,22.7069,1569.01,129.821
255,905.272,238.439,347.117,571.879,8.57985,8.09922,12.9568,57.9185,18.1627,19.8923,16.9623,11.5069,7.37176,7.089,54.6416,20.4226,1156.15,163.034
280,743.747,177.186,256.582,450.892,2.82989,19.1806,8.14881,44.2783,12.7705,15.8208,13.5133,7.75742,5.25043,5.09644,39.3053,18.429,974.504,189.774
305,626.284,145.319,206.587,369.721,12.4309,7.92453,5.99167,36.2547,10.9731,12.5636,10.0643,6.25761,4.26048,4.43225,31.6372,16.7678,905.729,212.304
330,542.481,142.969,200.138,327.564,9.61287,4.78771,9.79704,33.0452,9.17576,11.7492,10.0643,6.25761,3.97764,3.76807,29.7202,15.4387,713.722,231.894
355,483.808,131.845,176.383,296.845,4.97188,5.11431,3.27247,26.6263,7.37836,9.30634,6.61536,4.38285,3.12911,3.26993,23.9691,14.1097,586.443,247.752
380,416.198,101.904,141.311,252.938,2.84508,7.47641,7.03986,21.0098,4.68228,6.86342,6.61536,3.25799,2.70484,2.77179,18.218,13.279,500.227,261.018
405,400.281,92.2799,125.217,224.083,7.0759,6.74727,7.67788,15.3932,4.68228,6.04912,5.75312,2.13313,1.85631,1.94155,13.4254,12.4692,429.54,273.107
430,343.695,75.3605,100.324,191.101,5.18456,10.9474,4.29027,12.9862,3.78358,5.23481,4.89087,2.50808,1.71489,2.1076,13.4254,11.7839,386.337,283.922
455,317.86,60.8665,84.0637,170.064,5.23013,6.26118,1.44194,12.9862,3.78358,4.42051,4.02863,2.50808,1.85631,1.60946,11.5083,10.974,405.768,294.701
480,295.528,61.0025,80.8245,156.687,2.19944,2.4484,3.09777,13.7885,4.68228,5.23481,2.30414,2.50808,1.71489,1.94155,13.4254,10.3095,381.913,305.226
505,294.089,59.962,80.8869,146.737,5.86058,5.47888,3.85732,12.1838,2.88489,5.23481,4.89087,1.75818,1.71489,1.7755,11.5083,9.64498,351.589,314.949
530,246.853,50.5672,67.3613,130.792,2.03993,6.41308,5.58911,11.3814,3.78358,3.60621,4.89087,1.75818,1.1492,1.44341,11.5083,9.16736,335.086,323.834
555,224.173,46.7174,64.6816,123.41,5.60992,4.56745,0.416542,8.97434,2.88489,3.60621,3.16639,1.75818,1.1492,1.60946,9.5913,8.6482,329.795,332.488
580,247.956,48.4049,62.9392,115.448,3.67301,2.50916,4.47256,8.17197,2.88489,4.42051,3.16639,1.38323,1.43204,1.60946,8.63279,8.10828,325.99,340.44
605,205.4,48.7429,65.1108,112.626,3.42995,6.94475,5.23212,10.5791,1.98619,3.60621,4.02863,1.38323,1.29062,1.27736,9.5913,6.3224,316.159,347.9
630,217.988,38.4818,54.1427,105.649,4.12116,8.64607,4.42699,8.97434,2.88489,3.60621,4.02863,1.38323,1.43204,1.60946,8.63279,6.82079,360.208,356.666
655,255.98,49.4661,67.5162,114.58,6.21758,5.54723,4.07,11.3814,3.78358,4.42051,5.75312,2.50808,1.99773,2.1076,10.5498,6.67542,321.259,365.459
680,215.958,49.011,62.5858,110.073,0.695487,1.36228,1.32041,10.5791,2.88489,3.60621,5.75312,2.13313,1.99773,1.7755,10.5498,6.1355,315.378,373.173
705,206.074,39.0559,56.0739,106.922,1.94119,5.69154,2.73318,10.5791,2.88489,3.60621,4.89087,1.75818,1.57347,1.94155,9.5913,5.65788,337.2,380.706
730,200.734,35.8004,46.5351,95.0983,4.23509,4.64341,1.38877,8.97434,4.68228,3.60621,4.89087,1.75818,1.29062,1.44341,8.63279,5.13873,203.955,387.025
755,157.064,30.6893,40.4668,86.0782,2.69316,3.36741,2.78635,6.56724,1.98619,2.7919,4.02863,1.75818,1.1492,1.27736,8.63279,4.82724,246.69,392.66
780,156.919,27.5213,34.2597,75.7997,1.18161,3.04842,0.6596,7.36961,2.88489,4.42051,3.16639,2.13313,0.866357,1.44341,8.63279,4.47422,196.448,398.198
805,149.923,20.7078,27.3758,67.1741,0.19417,1.23317,1.73057,5.76488,2.88489,2.7919,3.16639,1.75818,1.00778,1.27736,7.67427,4.16272,196.241,403.087
830,128.642,18.3531,23.8249,62.5096,0.809423,0.177434,2.61925,7.36961,3.78358,4.42051,2.30414,1.38323,0.866357,1.11132,6.71575,3.83047,172.245,407.847
855,126.462,16.5214,21.6226,59.2679,1.62217,3.2231,1.23686,6.56724,2.88489,2.7919,2.30414,1.38323,1.1492,1.27736,6.71575,3.66434,126.199,411.974
880,100.919,12.8567,17.6298,53.6613,0.77904,0.785049,1.95844,6.56724,1.98619,2.7919,2.30414,0.633323,0.866357,1.27736,6.71575,3.49821,135.213,415.505
905,86.2141,9.7245,13.2105,48.523,0.118212,1.83319,0.849488,4.16015,1.0875,2.7919,1.4419,1.00828,0.866357,1.11132,6.71575,3.33208,140.285,418.688
930,74.6448,6.76256,11.2467,46.4315,0.923359,2.02306,1.25965,4.96252,2.88489,2.7919,2.30414,1.00828,0.724935,0.945271,5.75724,2.97906,119.878,421.852
955,68.4863,4.00064,7.41776,42.7863,0.239744,0.0938868,1.82172,4.16015,1.0875,2.7919,1.4419,1.00828,1.00778,1.27736,6.71575,2.83369,120.392,424.708
980,67.5639,3.37655,6.22002,39.3485,0.270127,0.731883,0.902657,5.76488,1.98619,1.9776,1.4419,1.00828,0.724935,1.27736,6.71575,2.5222,119.663,427.697
1005,63.3646,3.40886,8.66256,39.6784,1.36391,1.28633,0.72796,4.96252,1.98619,2.7919,2.30414,1.00828,0.442092,0.945271,5.75724,2.31454,113.023,430.587
1030,62.3056,3.2608,5.72157,37.9667,0.452424,0.473646,-0.0315949,6.56724,1.98619,2.7919,1.4419,1.38323,1.00778,1.27736,5.75724,2.18994,117.143,433.608
1055,50.227,2.21552,5.0976,35.7498,0.551169,0.663526,1.95844,4.16015,1.98619,1.16329,2.30414,1.38323,0.724935,1.11132,4.79872,2.02381,104.546,436.442
1080,46.2751,0.377471,3.25944,34.4763,0.771445,1.93192,1.76855,4.16015,0.188802,1.9776,2.30414,0.633323,0.866357,1.11132,5.75724,1.83692,109.458,439.655
1105,48.8662,0.95122,3.18241,33.7263,0.596743,0.253386,0.910253,4.16015,1.0875,2.7919,1.4419,0.633323,0.583513,0.779224,5.75724,1.50466,132.105,442.695
1130,46.9606,0.742759,2.89733,32.434,0.649913,2.1218,0.310205,4.16015,0.188802,1.16329,1.4419,1.00828,0.866357,0.945271,3.8402,1.33853,126.354,445.967
1155,45.2814,-0.221033,1.85756,30.6624,1.28036,0.40529,1.1685,4.16015,1.98619,2.7919,2.30414,1.38323,0.724935,1.11132,5.75724,1.15164,119.799,449.132
1180,38.5892,0.00349964,3.11508,31.3707,0.148595,1.32431,0.165889,4.96252,1.98619,3.60621,2.30414,0.633323,0.866357,1.27736,4.79872,1.00628,112.906,452.223
1205,45.8449,-1.97369,1.76346,30.3819,0.24734,0.663526,0.257036,3.35779,1.0875,1.9776,2.30414,0.633323,0.583513,1.27736,5.75724,0.840147,117.026,455.266
1230,40.2912,-0.98163,0.603394,29.0534,0.201765,0.359718,1.44194,4.16015,1.98619,2.7919,2.30414,0.633323,0.866357,1.11132,5.75724,0.674018,111.717,458.291
1255,37.4331,-2.5,0.400456,28.2132,0.0498509,0.595169,0.811511,4.16015,1.98619,2.7919,2.30414,1.00828,0.583513,1.11132,5.75724,0.507889,112.732,461.244
1280,38.8511,-0.114087,1.31323,27.9058,0.0574466,0.101482,0.0747427,4.16015,2.88489,1.9776,2.30414,1.00828,0.724935,1.27736,5.75724,0.507889,106.494,464.187
1305,31.347,-2.71142,-0.884754,26.9138,0.0802338,0.0862916,0.674791,4.16015,1.98619,0.348988,0.579659,0.633323,0.724935,1.11132,5.75724,0.175631,86.7675,466.573
1330,28.0125,-3.80386,-0.967882,26.9078,0.452424,0.526813,0.188676,4.16015,1.0875,1.9776,2.30414,0.633323,0.724935,0.779224,4.79872,0.154865,101.261,468.983
1355,30.3561,-3.10563,-0.621682,26.379,0.558764,0.443265,0.0519561,4.96252,1.0875,1.16329,1.4419,1.00828,0.442092,1.11132,5.75724,0.0302687,88.6753,471.409
1380,29.119,-1.06766,1.24534,28.5927,0.141,0.557193,0.560858,4.16015,0.188802,2.7919,2.30414,1.00828,0.866357,0.779224,5.75724,-0.13586,83.648,473.56
1405,25.4897,-3.2342,-0.941949,26.5181,0.239744,0.101482,0.553262,3.35779,1.0875,2.7919,2.30414,1.00828,0.583513,0.945271,5.75724,-0.301989,69.9975,475.389
1430,24.5862,-4.4059,-1.75841,25.4547,0.414446,0.81543,0.781128,3.35779,1.98619,2.7919,2.30414,1.00828,0.583513,0.945271,4.79872,-0.488884,68.2001,477.446
1455,23.7721,-4.64553,-1.45552,26.8459,0.148595,0.0938868,0.598835,1.75306,1.0875,1.9776,2.30414,0.633323,0.724935,1.11132,4.79872,-0.488884,70.8692,479.155
1480,19.28,-4.62964,-2.63853,24.33,0.330893,0.02553,0.363373,4.16015,2.88489,1.9776,0.579659,1.38323,0.583513,0.945271,5.75724,-0.655013,63.4768,480.953
1505,25.1408,-4.59123,-2.75527,24.859,0.163787,0.116672,0.241845,2.55543,1.98619,1.16329,3.16639,1.00828,0.583513,1.11132,3.8402,-0.800376,0.0,482.153
1511,25.2942,-4.99191,-2.65025,24.6968,0.133404,0.0103397,0.158294,2.55543,1.98619,1.16329,1.4419,1.00828,0.724935,1.11132,4.79872,-0.800376,0.0,482.153