File: 01_Data/Overstuffed_Chair/Furniture_Calorimeter/Overstuffed_Chair_R2.csv
Time (s),Convective HRR,TCPlume1,TCPlume2,TCPlume3,DPPlume1,DPPlume2,DPPlume3,HF1,HF2,HF3,HF4,HF5,HF6,RAD2,RAD1,Load Cell,Heat Release Rate,Total Heat Released
-119,0.0,-14.4309,-13.9851,7.40361,-0.0119085,-0.0512997,0.0113289,0.0543975,-0.731142,-0.503765,-0.350743,-0.546541,0.154605,0.945271,3.8402,29.0821,0.0,0.0
-94,2.49984,-14.5731,-14.0085,7.15128,-0.0346957,-0.0285141,-0.0418399,0.856761,-0.731142,1.93915,0.5115,0.578316,0.0131834,0.945271,3.8402,29.0821,0.0,0.0
-69,0.0,-14.7154,-14.1111,7.31994,0.0488572,0.0474378,0.02652,1.65912,0.167553,0.31054,0.5115,-0.171588,0.0131834,0.779224,3.8402,29.0821,0.0,0.0
-44,3.59954,-14.9427,-14.0218,7.17675,0.0412615,0.12339,0.148049,-0.747966,0.167553,-0.503765,0.5115,-0.171588,0.0131834,0.613177,3.8402,29.1028,0.0,0.0
-19,1.62535,-14.5307,-13.9662,7.3454,-0.00431283,-0.00572858,-0.0114577,0.0543975,-0.731142,-0.503765,-1.21299,-0.171588,0.0131834,0.281084,3.8402,29.0405,0.0,0.0
6,1.44599,-14.5997,-13.3234,7.62316,0.056453,-0.0892757,-0.00386214,0.856761,1.06625,1.12484,-0.350743,0.203364,0.296027,0.779224,5.75724,29.1028,0.19626,0.00101883
31,0.0,-15.4491,-13.183,8.02703,0.117219,0.115794,0.186026,0.0543975,0.167553,0.31054,-1.21299,-0.921493,0.154605,0.945271,1.92317,29.0821,0.0,0.00108425
56,0.0,-13.1776,-13.325,7.5834,-0.0346957,0.0094618,0.0417111,0.0543975,0.167553,-1.31807,0.5115,-0.171588,-0.128238,0.447131,2.88169,29.0821,3.50417,0.05131589
81,4.53186,-9.9301,-9.01594,12.7211,0.0792401,0.290484,1.54563,0.856761,1.96494,1.12484,-1.21299,0.578316,0.57887,1.11132,4.79872,29.0613,50.4179,0.5888
106,47.3479,7.70486,14.5524,29.7627,2.43391,1.65762,3.14069,6.47331,1.96494,1.93915,1.37374,1.70317,1.00314,1.94155,8.63279,28.729,282.715,4.01912
131,167.236,30.5425,37.5984,50.2175,4.54553,1.5209,0.0493067,10.4851,4.66103,4.38206,2.23599,2.45308,1.4274,2.1076,11.5083,28.2722,583.017,13.022
156,328.338,65.03,67.9414,83.1563,2.24402,5.37926,2.40393,13.6946,5.55973,5.19637,2.23599,3.95289,2.55878,3.26993,16.3009,27.2546,744.148,29.1466
181,507.938,109.962,140.961,173.228,7.11288,2.91082,10.7742,33.7537,13.648,11.7108,7.40944,6.95251,4.11441,4.43225,29.7202,25.7595,1176.17,53.4548
206,714.662,195.002,264.749,354.696,4.51514,13.0504,5.89028,43.382,18.1415,15.7823,11.7207,9.20222,5.67005,5.92667,39.3053,24.1397,1681.45,87.7148
231,1126.19,280.693,383.33,560.091,9.51313,16.491,13.5694,62.6388,22.6349,23.9254,19.4808,12.5768,8.07422,8.58342,58.4757,21.8139,1750.4,131.78
256,914.081,229.348,333.928,556.96,11.921,6.87551,16.8203,61.8364,19.9389,21.4825,18.6186,11.4519,7.08427,7.42109,58.4757,19.5919,1135.53,167.723
281,716.969,162.533,238.803,430.038,5.60133,7.0502,10.6147,35.3584,9.15451,10.8965,10.8584,5.4527,3.83157,4.10016,33.5542,17.7853,847.743,191.475
306,634.14,128.92,192.498,357.714,4.63667,11.2427,12.4073,32.9513,9.15451,10.8965,9.13393,4.32784,3.26588,3.60202,26.8446,16.4355,769.942,212.309
331,570.776,117.51,175.841,311.764,6.53561,4.3767,5.10794,28.1371,8.25581,9.26789,9.13393,4.32784,3.12446,3.26993,24.9276,15.148,735.11,229.754
356,486.497,113.938,157.365,277.579,7.01414,4.98431,6.98404,24.9277,6.45842,7.63928,9.13393,2.82803,2.55878,2.77179,22.052,14.1305,537.944,245.644
381,451.119,97.8799,131.894,237.329,3.14791,4.74126,4.30281,19.3111,4.66103,6.82498,4.82271,2.45308,2.13451,2.27365,18.218,13.1337,521.888,258.831
406,383.52,85.7855,116.343,211.328,4.39361,8.82748,5.36619,16.1017,3.76233,5.19637,3.96047,2.45308,1.56882,1.94155,15.3424,12.303,448.326,269.979
431,402.242,72.1272,99.468,191.784,0.732472,3.32096,4.67499,11.2875,3.76233,4.38206,3.09823,1.70317,1.4274,1.94155,12.4669,11.6385,369.308,280.159
456,318.304,53.268,76.7169,162.546,5.79882,10.8858,8.10058,12.0899,3.76233,2.75345,3.09823,1.32822,1.14456,1.7755,11.5083,10.9948,427.287,290.355
481,341.072,64.0615,88.3947,164.69,5.35827,4.39189,3.96101,11.2875,3.76233,4.38206,3.96047,0.953269,1.28598,1.60946,12.4669,10.3303,339.573,299.627
506,293.299,58.8424,78.6342,152.863,0.504601,7.8477,6.75617,12.8922,3.76233,4.38206,2.23599,1.70317,1.28598,1.7755,11.5083,9.64498,387.576,308.525
531,302.746,58.6584,78.5242,146.345,7.17365,3.86022,5.67001,12.8922,2.86364,6.01067,2.23599,1.70317,1.4274,1.94155,12.4669,9.00123,381.532,317.683
556,311.383,48.8447,66.5333,131.449,2.71496,4.82481,5.61684,10.4851,2.86364,4.38206,2.23599,2.07813,1.14456,1.60946,9.5913,8.50284,372.069,326.482
581,286.787,53.1259,72.1763,131.706,4.84935,3.68553,2.58622,12.0899,3.76233,4.38206,3.09823,1.32822,1.28598,1.7755,11.5083,7.85909,341.975,335.19
606,284.037,46.2518,66.3865,124.102,1.00592,5.11343,1.49246,10.4851,2.86364,3.56776,3.09823,1.70317,1.4274,1.7755,10.5498,7.33994,319.877,343.881
631,300.608,49.8695,67.5131,120.541,4.21891,6.01726,4.6674,12.0899,2.86364,4.38206,3.96047,1.70317,1.14456,1.60946,11.5083,6.84155,299.485,352.267
656,240.134,37.3263,54.698,108.06,1.72751,3.19185,6.39159,8.07803,2.86364,4.38206,4.82271,1.32822,1.14456,1.27736,8.63279,5.67865,285.877,360.123
681,204.73,28.5868,43.5224,94.4309,1.50724,2.69056,2.63939,7.27567,2.86364,1.93915,3.09823,1.32822,0.861714,1.27736,8.63279,5.84478,252.222,366.978
706,194.821,23.0681,36.398,85.8956,2.64659,5.17419,5.02439,6.47331,2.86364,1.93915,3.09823,0.953269,1.00314,1.44341,6.71575,5.51252,236.241,373.704
731,190.666,19.6179,30.9628,77.5299,1.35532,3.77668,4.69778,6.47331,1.06625,1.93915,3.09823,0.578316,0.861714,1.44341,9.5913,5.20103,262.144,379.876
756,153.776,19.6995,29.9156,73.0615,1.3933,0.776576,1.68235,4.06622,1.96494,0.31054,3.09823,0.578316,0.720292,1.27736,4.79872,4.80647,210.15,385.1
781,151.284,15.1408,25.7752,68.0782,2.73774,2.06016,2.65458,5.67094,1.96494,1.12484,2.23599,0.578316,0.861714,1.27736,6.71575,4.55728,204.28,390.508
806,141.204,13.8716,22.2083,63.6982,2.14528,1.42217,2.9584,5.67094,1.06625,2.75345,3.96047,0.953269,0.720292,1.44341,7.67427,4.18349,205.907,395.353
831,140.444,12.6127,21.2608,60.3533,0.960344,1.55129,0.710119,7.27567,0.167553,1.93915,1.37374,0.953269,0.720292,1.11132,5.75724,4.01736,199.48,400.075
856,135.169,10.6539,17.5277,55.482,2.13009,1.35381,0.451871,4.86858,1.06625,1.93915,3.09823,1.32822,0.861714,1.27736,6.71575,4.84801,187.72,405.016
881,131.34,9.97174,16.6202,52.6096,2.82889,2.54626,1.52284,4.86858,0.167553,0.31054,2.23599,0.953269,0.861714,1.11132,6.71575,2.99982,181.782,409.572
906,114.627,9.01607,15.4397,50.7992,1.0439,4.08808,0.763288,4.06622,1.96494,2.75345,3.09823,0.953269,0.861714,1.44341,5.75724,3.37361,159.019,413.562
931,101.684,5.30491,11.9691,47.7646,0.29192,0.799361,1.02154,4.06622,1.06625,1.93915,3.09823,0.953269,0.861714,0.945271,4.79872,3.20748,167.846,417.402
956,105.656,5.72027,11.467,46.2022,1.23379,0.412007,2.76092,4.06622,1.06625,1.93915,2.23599,0.203364,0.720292,0.945271,6.71575,3.06212,138.627,421.089
981,90.678,4.41875,9.51836,44.2349,1.08947,0.867718,1.12028,4.06622,1.96494,1.12484,2.23599,0.578316,0.57887,0.945271,6.71575,2.89599,133.88,424.511
1006,85.0803,2.26331,7.70962,41.3229,2.13768,1.88547,1.78109,4.06622,1.06625,1.93915,3.09823,0.953269,0.57887,1.11132,6.71575,2.7091,123.944,427.761
1031,87.3467,1.11475,5.37525,39.1611,0.504601,1.88547,1.81147,4.06622,0.167553,1.93915,2.23599,0.953269,0.57887,1.11132,5.75724,2.5222,117.843,431.022
1056,67.8785,-0.0835899,4.40681,35.7125,0.200772,0.586696,0.155644,4.06622,0.167553,1.12484,2.23599,0.578316,0.720292,0.945271,5.75724,2.37684,138.052,433.874
1081,81.1489,-1.53014,3.84959,34.456,0.375473,0.829742,1.40131,3.26385,0.167553,1.12484,3.09823,0.578316,0.437449,1.11132,6.71575,2.35607,126.91,437.138
1106,77.9807,-1.22141,3.23698,32.8062,0.102027,0.662648,1.06711,4.06622,1.96494,1.93915,1.37374,0.578316,0.57887,0.945271,5.75724,2.21071,123.081,440.3
1131,66.708,-1.49727,1.54661,31.0354,0.299516,0.00186661,0.0948799,2.46149,1.96494,1.12484,2.23599,0.578316,0.437449,1.11132,5.75724,2.04458,130.479,443.264
1156,66.6669,-2.79098,0.4576,29.514,1.01351,2.35638,0.953177,3.26385,1.06625,1.12484,2.23599,0.578316,0.437449,0.779224,5.75724,2.04458,113.529,446.328
1181,64.3182,-1.74623,1.83582,30.4547,0.580558,0.419602,1.09749,3.26385,0.167553,1.93915,2.23599,0.203364,0.296027,0.945271,5.75724,1.83692,118.817,449.363
1206,63.6711,-3.44455,-0.303496,28.2013,0.162793,0.412007,1.56082,1.65912,1.06625,1.93915,1.37374,0.203364,0.57887,1.11132,4.79872,1.87845,102.232,452.172
1231,76.3684,-4.35567,-1.05227,26.94,0.299516,0.298079,0.467062,3.26385,0.167553,1.93915,1.37374,-0.171588,0.437449,1.11132,5.75724,1.67079,95.2876,454.679
1256,58.067,-4.01148,-0.980903,26.6325,0.0260701,0.776576,0.360724,3.26385,1.06625,1.12484,-0.350743,0.578316,0.296027,0.779224,5.75724,1.69156,107.334,457.185
1281,58.2184,-5.17337,-2.55933,24.1063,0.215963,0.617077,1.35574,3.26385,0.167553,1.12484,1.37374,0.578316,0.437449,0.945271,4.79872,1.54619,91.5292,459.682
1306,54.853,-4.60073,-1.68121,24.5867,0.276729,0.0930089,0.2316,0.856761,1.96494,1.12484,1.37374,0.203364,0.437449,1.11132,4.79872,1.40083,118.532,462.178
1331,58.7771,-5.50846,-3.04743,24.1594,0.0260701,0.571506,0.16324,3.26385,0.167553,0.31054,3.09823,0.578316,0.437449,1.11132,4.79872,1.19317,128.054,464.863
1356,57.7822,-5.78735,-3.01442,23.2833,0.18558,0.0474378,0.406297,2.46149,0.167553,1.12484,1.37374,0.953269,0.437449,0.945271,4.79872,1.21394,98.6507,467.391
1381,48.0643,-6.22841,-3.91884,22.9313,0.0792401,-0.00572858,1.31776,2.46149,1.96494,1.93915,0.5115,-0.546541,0.296027,0.945271,3.8402,1.1724,83.5048,469.844
1406,43.7772,-5.40308,-3.33053,22.4065,0.34509,0.12339,0.65695,3.26385,2.86364,1.12484,0.5115,0.203364,0.296027,1.27736,6.71575,1.02704,98.2248,472.178
1431,51.5164,-5.72673,-3.26446,22.0163,0.0108786,0.0550329,0.148049,2.46149,1.06625,0.31054,0.5115,0.578316,0.437449,1.11132,5.75724,1.02704,91.2569,474.692
1456,47.5844,-7.13332,-4.15787,21.2959,0.0260701,-0.142442,0.52023,1.65912,1.96494,0.31054,0.5115,0.203364,0.296027,0.779224,4.79872,0.840147,78.0533,476.777
1481,40.375,-6.51933,-5.06475,19.9943,0.367878,-0.0437045,0.550613,2.46149,1.06625,1.93915,1.37374,0.953269,0.437449,0.779224,3.8402,0.840147,0.0,478.58
1491,41.2761,-6.29072,-5.22643,19.9507,0.23875,0.206937,0.618973,3.26385,1.06625,0.31054,0.5115,0.203364,0.0131834,1.11132,4.79872,0.881679,0.0,478.58