File: 01_Data/Laminate_Flooring/FTIR/IS/Laminate_Flooring_IS_S_221003_R7.dpt
7497.03,0.60437
7473.89,0.60634
7450.74,0.60509
7427.6,0.60617
7404.45,0.60016
7381.31,0.59832
7358.16,0.60335
7335.02,0.60282
7311.87,0.60461
7288.73,0.60516
7265.58,0.60910
7242.44,0.60415
7219.29,0.60744
7196.15,0.59533
7173,0.60815
7149.86,0.59894
7126.71,0.61085
7103.57,0.60055
7080.42,0.60919
7057.28,0.60725
7034.13,0.60437
7010.99,0.60381
6987.84,0.60990
6964.7,0.61229
6941.55,0.61468
6918.41,0.61006
6895.26,0.61144
6872.12,0.61178
6848.97,0.61502
6825.83,0.61683
6802.68,0.62399
6779.54,0.61941
6756.39,0.61499
6733.25,0.61896
6710.1,0.62134
6686.96,0.62135
6663.82,0.62344
6640.67,0.62281
6617.53,0.62659
6594.38,0.62759
6571.24,0.62691
6548.09,0.62829
6524.95,0.62811
6501.8,0.62707
6478.66,0.62789
6455.51,0.63175
6432.37,0.62583
6409.22,0.62639
6386.08,0.63231
6362.93,0.63098
6339.79,0.62933
6316.64,0.62905
6293.5,0.63486
6270.35,0.63564
6247.21,0.63450
6224.06,0.63692
6200.92,0.63715
6177.77,0.63717
6154.63,0.63546
6131.48,0.63904
6108.34,0.63868
6085.19,0.63818
6062.05,0.64140
6038.9,0.63828
6015.76,0.64209
5992.61,0.64008
5969.47,0.64075
5946.32,0.64170
5923.18,0.64057
5900.03,0.64367
5876.89,0.64490
5853.74,0.64393
5830.6,0.64494
5807.45,0.64508
5784.31,0.64649
5761.16,0.64588
5738.02,0.64817
5714.87,0.64701
5691.73,0.64849
5668.58,0.65193
5645.44,0.65225
5622.29,0.65239
5599.15,0.65198
5576,0.65347
5552.86,0.65520
5529.71,0.65532
5506.57,0.65463
5483.42,0.65604
5460.28,0.65594
5437.13,0.65799
5413.99,0.65699
5390.84,0.65845
5367.7,0.65796
5344.55,0.65905
5321.41,0.66098
5298.26,0.65837
5275.12,0.65738
5251.97,0.65359
5228.83,0.65301
5205.68,0.65048
5182.54,0.65185
5159.39,0.65170
5136.25,0.65292
5113.1,0.65368
5089.96,0.65594
5066.81,0.65639
5043.67,0.65671
5020.52,0.65730
4997.38,0.65933
4974.23,0.66195
4951.09,0.66189
4927.94,0.66360
4904.8,0.66537
4881.65,0.66698
4858.51,0.66677
4835.36,0.66862
4812.22,0.66887
4789.07,0.66758
4765.93,0.66981
4742.78,0.66846
4719.64,0.66913
4696.49,0.66738
4673.35,0.66744
4650.2,0.66531
4627.06,0.66377
4603.92,0.66177
4580.77,0.66310
4557.63,0.66161
4534.48,0.66216
4511.34,0.66208
4488.19,0.66299
4465.05,0.66406
4441.9,0.66485
4418.76,0.66409
4395.61,0.66442
4372.47,0.66168
4349.32,0.66077
4326.18,0.65920
4303.03,0.65994
4279.89,0.65943
4256.74,0.65791
4233.6,0.65848
4210.45,0.65688
4187.31,0.65588
4164.16,0.65495
4141.02,0.65459
4117.87,0.65321
4094.73,0.65091
4071.58,0.64859
4048.44,0.64709
4025.29,0.64452
4002.15,0.64303
3979,0.64219
3955.86,0.64092
3932.71,0.63886
3909.57,0.63916
3886.42,0.63849
3863.28,0.63651
3840.13,0.63527
3816.99,0.63047
3793.84,0.62477
3770.7,0.61398
3747.55,0.58977
3724.41,0.53614
3701.26,0.41498
3678.12,0.27170
3654.97,0.14854
3631.83,0.08779
3608.68,0.06541
3585.54,0.05745
3562.39,0.05335
3539.25,0.05170
3516.1,0.05109
3492.96,0.05049
3469.81,0.04959
3446.67,0.05007
3423.52,0.05023
3400.38,0.05005
3377.23,0.05096
3354.09,0.05187
3330.94,0.05260
3307.8,0.05260
3284.65,0.05417
3261.51,0.05533
3238.36,0.05791
3215.22,0.05985
3192.07,0.06241
3168.93,0.06541
3145.78,0.06960
3122.64,0.07436
3099.49,0.08051
3076.35,0.08914
3053.2,0.09808
3030.06,0.10660
3006.91,0.11536
2983.77,0.12407
2960.62,0.13676
2937.48,0.15179
2914.33,0.16762
2891.19,0.18448
2868.04,0.19602
2844.9,0.21267
2821.75,0.23596
2798.61,0.26107
2775.46,0.28416
2752.32,0.30139
2729.17,0.31479
2706.03,0.32939
2682.88,0.34776
2659.74,0.36676
2636.59,0.38115
2613.45,0.38584
2590.3,0.38624
2567.16,0.38585
2544.02,0.39010
2520.87,0.39519
2497.73,0.40035
2474.58,0.39935
2451.44,0.39357
2428.29,0.39014
2405.15,0.39528
2382,0.40652
2358.86,0.41480
2335.71,0.41426
2312.57,0.40776
2289.42,0.40285
2266.28,0.40647
2243.13,0.41681
2219.99,0.42341
2196.84,0.41806
2173.7,0.40526
2150.55,0.39444
2127.41,0.39829
2104.26,0.41406
2081.12,0.42698
2057.97,0.42708
2034.83,0.41850
2011.68,0.41401
1988.54,0.42501
1965.39,0.44541
1942.25,0.45966
1919.1,0.45538
1895.96,0.43883
1872.81,0.42973
1849.67,0.43905
1826.52,0.45526
1803.38,0.45433
1780.23,0.43225
1757.09,0.38970
1733.94,0.33720
1710.8,0.27795
1687.65,0.21593
1664.51,0.20343
1641.36,0.14879
1618.22,0.11085
1595.07,0.12595
1571.93,0.16793
1548.78,0.24301
1525.64,0.25307
1502.49,0.21319
1479.35,0.18934
1456.2,0.20139
1433.06,0.21970
1409.91,0.19275
1386.77,0.10681
1363.62,0.06392
1340.48,0.05079
1317.33,0.03795
1294.19,0.02568
1271.04,0.02294
1247.9,0.02427
1224.75,0.02396
1201.61,0.02364
1178.46,0.02586
1155.32,0.02800
1132.17,0.03052
1109.03,0.03192
1085.88,0.03195
1062.74,0.02973
1039.59,0.02735
1016.45,0.02488
993.304,0.02180
970.159,0.02372
947.014,0.03420
923.869,0.05229
900.724,0.07233
877.579,0.08972
854.434,0.10716
831.289,0.12106
808.144,0.13338
784.999,0.14164
761.854,0.14598
738.709,0.15137
715.565,0.15703
692.42,0.16243
669.275,0.16681
646.13,0.16922
622.985,0.17360
599.84,0.17563