File: 01_Data/Laminate_Flooring/FTIR/IS/Laminate_Flooring_IS_S_221003_R6.dpt
7497.03,0.60299
7473.89,0.60388
7450.74,0.59982
7427.6,0.59824
7404.45,0.60515
7381.31,0.61404
7358.16,0.59774
7335.02,0.60664
7311.87,0.60435
7288.73,0.60282
7265.58,0.59992
7242.44,0.59581
7219.29,0.61165
7196.15,0.60241
7173,0.60264
7149.86,0.60362
7126.71,0.60191
7103.57,0.61017
7080.42,0.60602
7057.28,0.60610
7034.13,0.60871
7010.99,0.60619
6987.84,0.60623
6964.7,0.61451
6941.55,0.61003
6918.41,0.61467
6895.26,0.61084
6872.12,0.61333
6848.97,0.62299
6825.83,0.61680
6802.68,0.61298
6779.54,0.62042
6756.39,0.61760
6733.25,0.61975
6710.1,0.62469
6686.96,0.62036
6663.82,0.61990
6640.67,0.62231
6617.53,0.62839
6594.38,0.62502
6571.24,0.62744
6548.09,0.62619
6524.95,0.62611
6501.8,0.63244
6478.66,0.62446
6455.51,0.63344
6432.37,0.63194
6409.22,0.63126
6386.08,0.63015
6362.93,0.63022
6339.79,0.63110
6316.64,0.63148
6293.5,0.63517
6270.35,0.63000
6247.21,0.63305
6224.06,0.63688
6200.92,0.63772
6177.77,0.63721
6154.63,0.63944
6131.48,0.63958
6108.34,0.63634
6085.19,0.63807
6062.05,0.63664
6038.9,0.63972
6015.76,0.63806
5992.61,0.63907
5969.47,0.64189
5946.32,0.63823
5923.18,0.64212
5900.03,0.64695
5876.89,0.64433
5853.74,0.64582
5830.6,0.64507
5807.45,0.64439
5784.31,0.64529
5761.16,0.64783
5738.02,0.64893
5714.87,0.64927
5691.73,0.65284
5668.58,0.64779
5645.44,0.65221
5622.29,0.65167
5599.15,0.65035
5576,0.65273
5552.86,0.65617
5529.71,0.65524
5506.57,0.65671
5483.42,0.65781
5460.28,0.65766
5437.13,0.65769
5413.99,0.65899
5390.84,0.65915
5367.7,0.65897
5344.55,0.65701
5321.41,0.66169
5298.26,0.65833
5275.12,0.65691
5251.97,0.65516
5228.83,0.65365
5205.68,0.65254
5182.54,0.65078
5159.39,0.65175
5136.25,0.65310
5113.1,0.65269
5089.96,0.65618
5066.81,0.65748
5043.67,0.65813
5020.52,0.65839
4997.38,0.65962
4974.23,0.66238
4951.09,0.66468
4927.94,0.66438
4904.8,0.66504
4881.65,0.66607
4858.51,0.66629
4835.36,0.66869
4812.22,0.66855
4789.07,0.66938
4765.93,0.66884
4742.78,0.66872
4719.64,0.66910
4696.49,0.66855
4673.35,0.66811
4650.2,0.66578
4627.06,0.66448
4603.92,0.66282
4580.77,0.66337
4557.63,0.66265
4534.48,0.66202
4511.34,0.66308
4488.19,0.66176
4465.05,0.66367
4441.9,0.66406
4418.76,0.66444
4395.61,0.66317
4372.47,0.66300
4349.32,0.66082
4326.18,0.65921
4303.03,0.66018
4279.89,0.65852
4256.74,0.65790
4233.6,0.65733
4210.45,0.65632
4187.31,0.65678
4164.16,0.65527
4141.02,0.65404
4117.87,0.65244
4094.73,0.65090
4071.58,0.64786
4048.44,0.64669
4025.29,0.64508
4002.15,0.64373
3979,0.64241
3955.86,0.64117
3932.71,0.63919
3909.57,0.64002
3886.42,0.63918
3863.28,0.63734
3840.13,0.63477
3816.99,0.63055
3793.84,0.62505
3770.7,0.61462
3747.55,0.58983
3724.41,0.53732
3701.26,0.41563
3678.12,0.27167
3654.97,0.14895
3631.83,0.08822
3608.68,0.06537
3585.54,0.05729
3562.39,0.05340
3539.25,0.05194
3516.1,0.05091
3492.96,0.05014
3469.81,0.04973
3446.67,0.04980
3423.52,0.04972
3400.38,0.05046
3377.23,0.05071
3354.09,0.05183
3330.94,0.05243
3307.8,0.05294
3284.65,0.05426
3261.51,0.05573
3238.36,0.05719
3215.22,0.06023
3192.07,0.06318
3168.93,0.06628
3145.78,0.06877
3122.64,0.07436
3099.49,0.08053
3076.35,0.08918
3053.2,0.09836
3030.06,0.10664
3006.91,0.11508
2983.77,0.12432
2960.62,0.13689
2937.48,0.15150
2914.33,0.16771
2891.19,0.18460
2868.04,0.19607
2844.9,0.21266
2821.75,0.23604
2798.61,0.26029
2775.46,0.28421
2752.32,0.30073
2729.17,0.31473
2706.03,0.32892
2682.88,0.34750
2659.74,0.36640
2636.59,0.38090
2613.45,0.38622
2590.3,0.38593
2567.16,0.38590
2544.02,0.39057
2520.87,0.39515
2497.73,0.40004
2474.58,0.39949
2451.44,0.39369
2428.29,0.39023
2405.15,0.39506
2382,0.40661
2358.86,0.41454
2335.71,0.41424
2312.57,0.40741
2289.42,0.40287
2266.28,0.40662
2243.13,0.41657
2219.99,0.42335
2196.84,0.41853
2173.7,0.40491
2150.55,0.39465
2127.41,0.39803
2104.26,0.41429
2081.12,0.42677
2057.97,0.42688
2034.83,0.41839
2011.68,0.41383
1988.54,0.42454
1965.39,0.44584
1942.25,0.45973
1919.1,0.45515
1895.96,0.43898
1872.81,0.42993
1849.67,0.43876
1826.52,0.45524
1803.38,0.45457
1780.23,0.43263
1757.09,0.38965
1733.94,0.33709
1710.8,0.27794
1687.65,0.21600
1664.51,0.20345
1641.36,0.14841
1618.22,0.11129
1595.07,0.12478
1571.93,0.16811
1548.78,0.24279
1525.64,0.25273
1502.49,0.21333
1479.35,0.18933
1456.2,0.20088
1433.06,0.21931
1409.91,0.19291
1386.77,0.10665
1363.62,0.06370
1340.48,0.05047
1317.33,0.03857
1294.19,0.02585
1271.04,0.02280
1247.9,0.02462
1224.75,0.02402
1201.61,0.02395
1178.46,0.02586
1155.32,0.02825
1132.17,0.03065
1109.03,0.03149
1085.88,0.03080
1062.74,0.03035
1039.59,0.02781
1016.45,0.02458
993.304,0.02252
970.159,0.02357
947.014,0.03423
923.869,0.05247
900.724,0.07222
877.579,0.09026
854.434,0.10741
831.289,0.12148
808.144,0.13368
784.999,0.14086
761.854,0.14635
738.709,0.15204
715.565,0.15618
692.42,0.16219
669.275,0.16664
646.13,0.16992
622.985,0.17296
599.84,0.17567