File: 01_Data/Laminate_Flooring/FTIR/IS/Laminate_Flooring_IS_S_221003_R8.dpt
7497.03,0.59612
7473.89,0.59708
7450.74,0.60409
7427.6,0.59855
7404.45,0.60571
7381.31,0.60912
7358.16,0.60663
7335.02,0.60461
7311.87,0.60530
7288.73,0.60011
7265.58,0.60774
7242.44,0.60365
7219.29,0.60521
7196.15,0.60411
7173,0.60047
7149.86,0.60331
7126.71,0.60250
7103.57,0.60343
7080.42,0.60444
7057.28,0.60412
7034.13,0.60650
7010.99,0.60789
6987.84,0.61283
6964.7,0.60855
6941.55,0.61752
6918.41,0.61226
6895.26,0.61071
6872.12,0.60690
6848.97,0.62011
6825.83,0.61434
6802.68,0.61252
6779.54,0.61406
6756.39,0.61767
6733.25,0.61971
6710.1,0.61777
6686.96,0.61924
6663.82,0.62324
6640.67,0.62299
6617.53,0.62586
6594.38,0.62103
6571.24,0.62639
6548.09,0.62647
6524.95,0.62552
6501.8,0.62713
6478.66,0.62648
6455.51,0.63089
6432.37,0.62961
6409.22,0.63015
6386.08,0.62754
6362.93,0.63104
6339.79,0.63112
6316.64,0.63112
6293.5,0.63228
6270.35,0.63504
6247.21,0.63779
6224.06,0.63427
6200.92,0.63536
6177.77,0.63647
6154.63,0.63502
6131.48,0.63920
6108.34,0.63732
6085.19,0.63839
6062.05,0.63681
6038.9,0.64199
6015.76,0.63921
5992.61,0.64110
5969.47,0.64356
5946.32,0.64255
5923.18,0.64148
5900.03,0.64491
5876.89,0.64232
5853.74,0.64284
5830.6,0.64285
5807.45,0.64240
5784.31,0.64449
5761.16,0.64892
5738.02,0.64947
5714.87,0.64561
5691.73,0.65047
5668.58,0.65145
5645.44,0.65074
5622.29,0.65257
5599.15,0.65138
5576,0.65154
5552.86,0.65326
5529.71,0.65440
5506.57,0.65512
5483.42,0.65575
5460.28,0.65620
5437.13,0.65696
5413.99,0.65647
5390.84,0.66027
5367.7,0.65981
5344.55,0.65850
5321.41,0.65846
5298.26,0.65769
5275.12,0.65790
5251.97,0.65495
5228.83,0.65340
5205.68,0.65112
5182.54,0.65206
5159.39,0.65238
5136.25,0.65332
5113.1,0.65332
5089.96,0.65759
5066.81,0.65536
5043.67,0.65737
5020.52,0.65836
4997.38,0.66019
4974.23,0.66061
4951.09,0.66207
4927.94,0.66443
4904.8,0.66449
4881.65,0.66680
4858.51,0.66714
4835.36,0.66735
4812.22,0.66776
4789.07,0.66807
4765.93,0.66944
4742.78,0.67040
4719.64,0.66847
4696.49,0.66748
4673.35,0.66651
4650.2,0.66607
4627.06,0.66399
4603.92,0.66303
4580.77,0.66236
4557.63,0.66225
4534.48,0.66300
4511.34,0.66319
4488.19,0.66378
4465.05,0.66284
4441.9,0.66454
4418.76,0.66335
4395.61,0.66340
4372.47,0.66277
4349.32,0.65990
4326.18,0.65893
4303.03,0.66017
4279.89,0.65846
4256.74,0.65930
4233.6,0.65715
4210.45,0.65663
4187.31,0.65663
4164.16,0.65529
4141.02,0.65432
4117.87,0.65249
4094.73,0.65148
4071.58,0.64804
4048.44,0.64685
4025.29,0.64404
4002.15,0.64299
3979,0.64239
3955.86,0.64076
3932.71,0.63991
3909.57,0.63983
3886.42,0.63817
3863.28,0.63714
3840.13,0.63517
3816.99,0.63029
3793.84,0.62528
3770.7,0.61455
3747.55,0.59035
3724.41,0.53665
3701.26,0.41460
3678.12,0.27209
3654.97,0.14920
3631.83,0.08776
3608.68,0.06566
3585.54,0.05643
3562.39,0.05350
3539.25,0.05151
3516.1,0.05107
3492.96,0.05037
3469.81,0.04975
3446.67,0.04915
3423.52,0.04974
3400.38,0.05113
3377.23,0.05100
3354.09,0.05104
3330.94,0.05208
3307.8,0.05239
3284.65,0.05403
3261.51,0.05586
3238.36,0.05733
3215.22,0.05992
3192.07,0.06269
3168.93,0.06576
3145.78,0.06939
3122.64,0.07437
3099.49,0.08126
3076.35,0.08885
3053.2,0.09836
3030.06,0.10688
3006.91,0.11502
2983.77,0.12453
2960.62,0.13691
2937.48,0.15271
2914.33,0.16783
2891.19,0.18474
2868.04,0.19599
2844.9,0.21264
2821.75,0.23583
2798.61,0.26096
2775.46,0.28512
2752.32,0.30165
2729.17,0.31483
2706.03,0.32904
2682.88,0.34739
2659.74,0.36670
2636.59,0.38104
2613.45,0.38646
2590.3,0.38586
2567.16,0.38630
2544.02,0.39025
2520.87,0.39555
2497.73,0.40024
2474.58,0.39959
2451.44,0.39352
2428.29,0.39004
2405.15,0.39559
2382,0.40661
2358.86,0.41479
2335.71,0.41467
2312.57,0.40777
2289.42,0.40289
2266.28,0.40682
2243.13,0.41676
2219.99,0.42310
2196.84,0.41829
2173.7,0.40495
2150.55,0.39488
2127.41,0.39845
2104.26,0.41413
2081.12,0.42694
2057.97,0.42716
2034.83,0.41770
2011.68,0.41424
1988.54,0.42507
1965.39,0.44574
1942.25,0.45971
1919.1,0.45544
1895.96,0.43899
1872.81,0.42997
1849.67,0.43915
1826.52,0.45489
1803.38,0.45484
1780.23,0.43223
1757.09,0.38939
1733.94,0.33719
1710.8,0.27816
1687.65,0.21599
1664.51,0.20358
1641.36,0.14873
1618.22,0.11102
1595.07,0.12541
1571.93,0.16815
1548.78,0.24331
1525.64,0.25278
1502.49,0.21373
1479.35,0.18919
1456.2,0.20121
1433.06,0.21954
1409.91,0.19287
1386.77,0.10692
1363.62,0.06338
1340.48,0.05045
1317.33,0.03829
1294.19,0.02593
1271.04,0.02293
1247.9,0.02461
1224.75,0.02392
1201.61,0.02350
1178.46,0.02580
1155.32,0.02786
1132.17,0.03048
1109.03,0.03115
1085.88,0.03063
1062.74,0.02997
1039.59,0.02831
1016.45,0.02473
993.304,0.02125
970.159,0.02345
947.014,0.03399
923.869,0.05230
900.724,0.07168
877.579,0.08989
854.434,0.10729
831.289,0.12179
808.144,0.13304
784.999,0.14051
761.854,0.14498
738.709,0.15157
715.565,0.15583
692.42,0.16382
669.275,0.16697
646.13,0.16983
622.985,0.17373
599.84,0.17363