File: 01_Data/Laminate_Flooring/FTIR/IS/Laminate_Flooring_IS_S_221003_R2.dpt
7497.03,0.59408
7473.89,0.61082
7450.74,0.59394
7427.6,0.60521
7404.45,0.60902
7381.31,0.61063
7358.16,0.60586
7335.02,0.60226
7311.87,0.60541
7288.73,0.60100
7265.58,0.59560
7242.44,0.60222
7219.29,0.59678
7196.15,0.60837
7173,0.60475
7149.86,0.59799
7126.71,0.60365
7103.57,0.60207
7080.42,0.60561
7057.28,0.60101
7034.13,0.60370
7010.99,0.60170
6987.84,0.60930
6964.7,0.60998
6941.55,0.60993
6918.41,0.61142
6895.26,0.61597
6872.12,0.61238
6848.97,0.61538
6825.83,0.61167
6802.68,0.61430
6779.54,0.61620
6756.39,0.61282
6733.25,0.61384
6710.1,0.61787
6686.96,0.61747
6663.82,0.61729
6640.67,0.62316
6617.53,0.62208
6594.38,0.61957
6571.24,0.62409
6548.09,0.61965
6524.95,0.62834
6501.8,0.62616
6478.66,0.62735
6455.51,0.62739
6432.37,0.62702
6409.22,0.62728
6386.08,0.62821
6362.93,0.62707
6339.79,0.63257
6316.64,0.63223
6293.5,0.63264
6270.35,0.63347
6247.21,0.63282
6224.06,0.62995
6200.92,0.63384
6177.77,0.63859
6154.63,0.63710
6131.48,0.64043
6108.34,0.63768
6085.19,0.63731
6062.05,0.63746
6038.9,0.64004
6015.76,0.64021
5992.61,0.63976
5969.47,0.64240
5946.32,0.63943
5923.18,0.64088
5900.03,0.64362
5876.89,0.64252
5853.74,0.64125
5830.6,0.64417
5807.45,0.64329
5784.31,0.64548
5761.16,0.64504
5738.02,0.64809
5714.87,0.64669
5691.73,0.65126
5668.58,0.64902
5645.44,0.65053
5622.29,0.64940
5599.15,0.65023
5576,0.65221
5552.86,0.65037
5529.71,0.65370
5506.57,0.65488
5483.42,0.65523
5460.28,0.65457
5437.13,0.65514
5413.99,0.65618
5390.84,0.65763
5367.7,0.65618
5344.55,0.65778
5321.41,0.65862
5298.26,0.65742
5275.12,0.65714
5251.97,0.65241
5228.83,0.65111
5205.68,0.65174
5182.54,0.65022
5159.39,0.65015
5136.25,0.65084
5113.1,0.65212
5089.96,0.65358
5066.81,0.65397
5043.67,0.65547
5020.52,0.65738
4997.38,0.65835
4974.23,0.66082
4951.09,0.66229
4927.94,0.66232
4904.8,0.66368
4881.65,0.66404
4858.51,0.66467
4835.36,0.66608
4812.22,0.66686
4789.07,0.66801
4765.93,0.66741
4742.78,0.66836
4719.64,0.66803
4696.49,0.66717
4673.35,0.66486
4650.2,0.66367
4627.06,0.66141
4603.92,0.66226
4580.77,0.66129
4557.63,0.66031
4534.48,0.66139
4511.34,0.66110
4488.19,0.66190
4465.05,0.66243
4441.9,0.66322
4418.76,0.66196
4395.61,0.66344
4372.47,0.66033
4349.32,0.65862
4326.18,0.65800
4303.03,0.65871
4279.89,0.65743
4256.74,0.65735
4233.6,0.65592
4210.45,0.65586
4187.31,0.65489
4164.16,0.65338
4141.02,0.65243
4117.87,0.65214
4094.73,0.64887
4071.58,0.64768
4048.44,0.64507
4025.29,0.64339
4002.15,0.64179
3979,0.64031
3955.86,0.63848
3932.71,0.63808
3909.57,0.63843
3886.42,0.63690
3863.28,0.63450
3840.13,0.63305
3816.99,0.62841
3793.84,0.62347
3770.7,0.61264
3747.55,0.58943
3724.41,0.53614
3701.26,0.41564
3678.12,0.27193
3654.97,0.14856
3631.83,0.08706
3608.68,0.06468
3585.54,0.05689
3562.39,0.05337
3539.25,0.05212
3516.1,0.05063
3492.96,0.04982
3469.81,0.04965
3446.67,0.04955
3423.52,0.05004
3400.38,0.05058
3377.23,0.05114
3354.09,0.05114
3330.94,0.05175
3307.8,0.05312
3284.65,0.05360
3261.51,0.05471
3238.36,0.05706
3215.22,0.05976
3192.07,0.06250
3168.93,0.06534
3145.78,0.06866
3122.64,0.07304
3099.49,0.07941
3076.35,0.08787
3053.2,0.09692
3030.06,0.10533
3006.91,0.11371
2983.77,0.12285
2960.62,0.13551
2937.48,0.14977
2914.33,0.16619
2891.19,0.18253
2868.04,0.19404
2844.9,0.21069
2821.75,0.23416
2798.61,0.25854
2775.46,0.28277
2752.32,0.29998
2729.17,0.31256
2706.03,0.32666
2682.88,0.34511
2659.74,0.36514
2636.59,0.37913
2613.45,0.38440
2590.3,0.38365
2567.16,0.38412
2544.02,0.38781
2520.87,0.39336
2497.73,0.39838
2474.58,0.39808
2451.44,0.39236
2428.29,0.38831
2405.15,0.39306
2382,0.40430
2358.86,0.41230
2335.71,0.41227
2312.57,0.40594
2289.42,0.40130
2266.28,0.40440
2243.13,0.41449
2219.99,0.42101
2196.84,0.41661
2173.7,0.40333
2150.55,0.39260
2127.41,0.39587
2104.26,0.41186
2081.12,0.42461
2057.97,0.42523
2034.83,0.41645
2011.68,0.41205
1988.54,0.42237
1965.39,0.44310
1942.25,0.45746
1919.1,0.45354
1895.96,0.43728
1872.81,0.42767
1849.67,0.43666
1826.52,0.45305
1803.38,0.45277
1780.23,0.43078
1757.09,0.38770
1733.94,0.33490
1710.8,0.27562
1687.65,0.21414
1664.51,0.20153
1641.36,0.14707
1618.22,0.11023
1595.07,0.12409
1571.93,0.16577
1548.78,0.24114
1525.64,0.25127
1502.49,0.21252
1479.35,0.18821
1456.2,0.19953
1433.06,0.21801
1409.91,0.19260
1386.77,0.10621
1363.62,0.06331
1340.48,0.05017
1317.33,0.03831
1294.19,0.02601
1271.04,0.02260
1247.9,0.02382
1224.75,0.02374
1201.61,0.02370
1178.46,0.02562
1155.32,0.02842
1132.17,0.03022
1109.03,0.03199
1085.88,0.03061
1062.74,0.02929
1039.59,0.02877
1016.45,0.02479
993.304,0.02233
970.159,0.02369
947.014,0.03417
923.869,0.05299
900.724,0.07256
877.579,0.08992
854.434,0.10735
831.289,0.12185
808.144,0.13312
784.999,0.13988
761.854,0.14589
738.709,0.15144
715.565,0.15468
692.42,0.16310
669.275,0.16613
646.13,0.16941
622.985,0.17038
599.84,0.17706