File: 01_Data/Laminate_Flooring/FTIR/IS/Laminate_Flooring_IS_S_221003_R4.dpt
7497.03,0.60433
7473.89,0.59978
7450.74,0.59474
7427.6,0.60419
7404.45,0.59733
7381.31,0.60448
7358.16,0.59445
7335.02,0.59789
7311.87,0.60388
7288.73,0.60098
7265.58,0.60551
7242.44,0.59908
7219.29,0.59751
7196.15,0.61162
7173,0.60525
7149.86,0.60826
7126.71,0.60961
7103.57,0.60642
7080.42,0.60535
7057.28,0.60427
7034.13,0.60633
7010.99,0.60645
6987.84,0.60222
6964.7,0.60595
6941.55,0.60327
6918.41,0.61044
6895.26,0.62010
6872.12,0.61467
6848.97,0.60886
6825.83,0.61110
6802.68,0.61555
6779.54,0.61728
6756.39,0.61514
6733.25,0.61858
6710.1,0.61730
6686.96,0.62192
6663.82,0.62258
6640.67,0.62585
6617.53,0.61814
6594.38,0.62269
6571.24,0.62476
6548.09,0.62731
6524.95,0.62333
6501.8,0.62821
6478.66,0.62659
6455.51,0.62698
6432.37,0.63081
6409.22,0.63089
6386.08,0.63100
6362.93,0.63082
6339.79,0.62865
6316.64,0.62875
6293.5,0.63281
6270.35,0.63413
6247.21,0.63389
6224.06,0.63418
6200.92,0.63185
6177.77,0.63673
6154.63,0.63589
6131.48,0.63572
6108.34,0.63935
6085.19,0.63956
6062.05,0.64036
6038.9,0.63976
6015.76,0.63858
5992.61,0.63816
5969.47,0.63954
5946.32,0.64172
5923.18,0.64371
5900.03,0.64423
5876.89,0.64455
5853.74,0.64388
5830.6,0.64354
5807.45,0.64286
5784.31,0.64594
5761.16,0.64669
5738.02,0.64510
5714.87,0.64765
5691.73,0.64780
5668.58,0.64910
5645.44,0.65002
5622.29,0.65299
5599.15,0.65131
5576,0.65037
5552.86,0.65221
5529.71,0.65223
5506.57,0.65213
5483.42,0.65444
5460.28,0.65462
5437.13,0.65581
5413.99,0.65671
5390.84,0.65588
5367.7,0.65807
5344.55,0.65939
5321.41,0.65765
5298.26,0.65928
5275.12,0.65673
5251.97,0.65448
5228.83,0.65230
5205.68,0.65053
5182.54,0.65123
5159.39,0.65224
5136.25,0.65119
5113.1,0.65193
5089.96,0.65371
5066.81,0.65453
5043.67,0.65683
5020.52,0.65780
4997.38,0.65923
4974.23,0.66085
4951.09,0.66125
4927.94,0.66323
4904.8,0.66374
4881.65,0.66572
4858.51,0.66411
4835.36,0.66577
4812.22,0.66653
4789.07,0.66726
4765.93,0.66769
4742.78,0.66955
4719.64,0.66757
4696.49,0.66708
4673.35,0.66598
4650.2,0.66455
4627.06,0.66258
4603.92,0.66199
4580.77,0.66050
4557.63,0.66069
4534.48,0.66131
4511.34,0.66079
4488.19,0.66185
4465.05,0.66201
4441.9,0.66236
4418.76,0.66330
4395.61,0.66261
4372.47,0.66144
4349.32,0.65980
4326.18,0.65809
4303.03,0.65915
4279.89,0.65655
4256.74,0.65766
4233.6,0.65625
4210.45,0.65469
4187.31,0.65535
4164.16,0.65431
4141.02,0.65321
4117.87,0.65197
4094.73,0.64927
4071.58,0.64661
4048.44,0.64590
4025.29,0.64279
4002.15,0.64107
3979,0.64147
3955.86,0.63902
3932.71,0.63908
3909.57,0.63840
3886.42,0.63695
3863.28,0.63575
3840.13,0.63355
3816.99,0.62956
3793.84,0.62366
3770.7,0.61368
3747.55,0.58864
3724.41,0.53650
3701.26,0.41520
3678.12,0.27246
3654.97,0.14949
3631.83,0.08697
3608.68,0.06579
3585.54,0.05682
3562.39,0.05361
3539.25,0.05193
3516.1,0.04959
3492.96,0.04983
3469.81,0.04986
3446.67,0.05013
3423.52,0.05019
3400.38,0.05001
3377.23,0.05071
3354.09,0.05138
3330.94,0.05176
3307.8,0.05297
3284.65,0.05361
3261.51,0.05536
3238.36,0.05703
3215.22,0.05982
3192.07,0.06272
3168.93,0.06546
3145.78,0.06909
3122.64,0.07346
3099.49,0.08029
3076.35,0.08878
3053.2,0.09779
3030.06,0.10637
3006.91,0.11453
2983.77,0.12408
2960.62,0.13634
2937.48,0.15100
2914.33,0.16677
2891.19,0.18358
2868.04,0.19507
2844.9,0.21128
2821.75,0.23469
2798.61,0.25964
2775.46,0.28350
2752.32,0.30019
2729.17,0.31365
2706.03,0.32813
2682.88,0.34583
2659.74,0.36511
2636.59,0.38008
2613.45,0.38523
2590.3,0.38451
2567.16,0.38482
2544.02,0.38888
2520.87,0.39385
2497.73,0.39909
2474.58,0.39896
2451.44,0.39243
2428.29,0.38924
2405.15,0.39418
2382,0.40549
2358.86,0.41337
2335.71,0.41304
2312.57,0.40648
2289.42,0.40187
2266.28,0.40529
2243.13,0.41548
2219.99,0.42159
2196.84,0.41711
2173.7,0.40404
2150.55,0.39357
2127.41,0.39687
2104.26,0.41297
2081.12,0.42538
2057.97,0.42560
2034.83,0.41726
2011.68,0.41262
1988.54,0.42340
1965.39,0.44463
1942.25,0.45828
1919.1,0.45430
1895.96,0.43787
1872.81,0.42857
1849.67,0.43736
1826.52,0.45361
1803.38,0.45328
1780.23,0.43123
1757.09,0.38836
1733.94,0.33588
1710.8,0.27655
1687.65,0.21530
1664.51,0.20246
1641.36,0.14832
1618.22,0.11089
1595.07,0.12486
1571.93,0.16708
1548.78,0.24200
1525.64,0.25201
1502.49,0.21268
1479.35,0.18856
1456.2,0.19964
1433.06,0.21868
1409.91,0.19314
1386.77,0.10686
1363.62,0.06322
1340.48,0.05066
1317.33,0.03818
1294.19,0.02569
1271.04,0.02270
1247.9,0.02408
1224.75,0.02357
1201.61,0.02375
1178.46,0.02561
1155.32,0.02840
1132.17,0.03071
1109.03,0.03182
1085.88,0.03177
1062.74,0.02913
1039.59,0.02836
1016.45,0.02438
993.304,0.02154
970.159,0.02350
947.014,0.03460
923.869,0.05227
900.724,0.07231
877.579,0.09022
854.434,0.10766
831.289,0.12151
808.144,0.13330
784.999,0.14083
761.854,0.14619
738.709,0.15056
715.565,0.15699
692.42,0.16240
669.275,0.16629
646.13,0.16952
622.985,0.17120
599.84,0.17738