File: 01_Data/Laminate_Flooring/FTIR/IS/Laminate_Flooring_IS_S_221003_R3.dpt
7497.03,0.60278
7473.89,0.59894
7450.74,0.60136
7427.6,0.60562
7404.45,0.60253
7381.31,0.60928
7358.16,0.60449
7335.02,0.60138
7311.87,0.59675
7288.73,0.60483
7265.58,0.60177
7242.44,0.60585
7219.29,0.59374
7196.15,0.60253
7173,0.60515
7149.86,0.59921
7126.71,0.60363
7103.57,0.60854
7080.42,0.60935
7057.28,0.60755
7034.13,0.60522
7010.99,0.60696
6987.84,0.60947
6964.7,0.61136
6941.55,0.61253
6918.41,0.61157
6895.26,0.60725
6872.12,0.61610
6848.97,0.61029
6825.83,0.61314
6802.68,0.61442
6779.54,0.61816
6756.39,0.61992
6733.25,0.61566
6710.1,0.61246
6686.96,0.61648
6663.82,0.62533
6640.67,0.62028
6617.53,0.61869
6594.38,0.62551
6571.24,0.62441
6548.09,0.62727
6524.95,0.62264
6501.8,0.62338
6478.66,0.62556
6455.51,0.62606
6432.37,0.62784
6409.22,0.63022
6386.08,0.63169
6362.93,0.62921
6339.79,0.63067
6316.64,0.63147
6293.5,0.62952
6270.35,0.63441
6247.21,0.63520
6224.06,0.62944
6200.92,0.63354
6177.77,0.63393
6154.63,0.63287
6131.48,0.63541
6108.34,0.63612
6085.19,0.64078
6062.05,0.63868
6038.9,0.63948
6015.76,0.64018
5992.61,0.63978
5969.47,0.64264
5946.32,0.64197
5923.18,0.64178
5900.03,0.64398
5876.89,0.64495
5853.74,0.64555
5830.6,0.64235
5807.45,0.64453
5784.31,0.64574
5761.16,0.64284
5738.02,0.64576
5714.87,0.65017
5691.73,0.64663
5668.58,0.65024
5645.44,0.64949
5622.29,0.64995
5599.15,0.65265
5576,0.65370
5552.86,0.65332
5529.71,0.65253
5506.57,0.65239
5483.42,0.65512
5460.28,0.65404
5437.13,0.65572
5413.99,0.65600
5390.84,0.65794
5367.7,0.65840
5344.55,0.65674
5321.41,0.65850
5298.26,0.65844
5275.12,0.65681
5251.97,0.65351
5228.83,0.65137
5205.68,0.65173
5182.54,0.65044
5159.39,0.65061
5136.25,0.65101
5113.1,0.65185
5089.96,0.65402
5066.81,0.65502
5043.67,0.65611
5020.52,0.65737
4997.38,0.65998
4974.23,0.66078
4951.09,0.66234
4927.94,0.66311
4904.8,0.66301
4881.65,0.66448
4858.51,0.66418
4835.36,0.66624
4812.22,0.66712
4789.07,0.66742
4765.93,0.66695
4742.78,0.66935
4719.64,0.66782
4696.49,0.66774
4673.35,0.66510
4650.2,0.66371
4627.06,0.66220
4603.92,0.66271
4580.77,0.66118
4557.63,0.66147
4534.48,0.66123
4511.34,0.66109
4488.19,0.66224
4465.05,0.66267
4441.9,0.66216
4418.76,0.66265
4395.61,0.66216
4372.47,0.66043
4349.32,0.65928
4326.18,0.65802
4303.03,0.65875
4279.89,0.65692
4256.74,0.65782
4233.6,0.65546
4210.45,0.65503
4187.31,0.65471
4164.16,0.65363
4141.02,0.65219
4117.87,0.65100
4094.73,0.64906
4071.58,0.64674
4048.44,0.64620
4025.29,0.64308
4002.15,0.64221
3979,0.64101
3955.86,0.63948
3932.71,0.63813
3909.57,0.63776
3886.42,0.63664
3863.28,0.63629
3840.13,0.63370
3816.99,0.62855
3793.84,0.62373
3770.7,0.61307
3747.55,0.58889
3724.41,0.53627
3701.26,0.41561
3678.12,0.27207
3654.97,0.14875
3631.83,0.08743
3608.68,0.06548
3585.54,0.05670
3562.39,0.05292
3539.25,0.05155
3516.1,0.05126
3492.96,0.05001
3469.81,0.04932
3446.67,0.04976
3423.52,0.05001
3400.38,0.05051
3377.23,0.05159
3354.09,0.05171
3330.94,0.05229
3307.8,0.05281
3284.65,0.05461
3261.51,0.05525
3238.36,0.05791
3215.22,0.06021
3192.07,0.06223
3168.93,0.06527
3145.78,0.06843
3122.64,0.07329
3099.49,0.08040
3076.35,0.08825
3053.2,0.09726
3030.06,0.10597
3006.91,0.11415
2983.77,0.12367
2960.62,0.13550
2937.48,0.15026
2914.33,0.16731
2891.19,0.18343
2868.04,0.19436
2844.9,0.21138
2821.75,0.23467
2798.61,0.25928
2775.46,0.28271
2752.32,0.30004
2729.17,0.31297
2706.03,0.32784
2682.88,0.34599
2659.74,0.36489
2636.59,0.37967
2613.45,0.38480
2590.3,0.38443
2567.16,0.38424
2544.02,0.38853
2520.87,0.39366
2497.73,0.39865
2474.58,0.39824
2451.44,0.39242
2428.29,0.38848
2405.15,0.39403
2382,0.40525
2358.86,0.41347
2335.71,0.41357
2312.57,0.40599
2289.42,0.40128
2266.28,0.40529
2243.13,0.41468
2219.99,0.42127
2196.84,0.41700
2173.7,0.40384
2150.55,0.39333
2127.41,0.39612
2104.26,0.41233
2081.12,0.42500
2057.97,0.42514
2034.83,0.41688
2011.68,0.41274
1988.54,0.42338
1965.39,0.44388
1942.25,0.45829
1919.1,0.45363
1895.96,0.43739
1872.81,0.42764
1849.67,0.43714
1826.52,0.45349
1803.38,0.45316
1780.23,0.43070
1757.09,0.38808
1733.94,0.33521
1710.8,0.27611
1687.65,0.21494
1664.51,0.20193
1641.36,0.14785
1618.22,0.11040
1595.07,0.12444
1571.93,0.16687
1548.78,0.24187
1525.64,0.25197
1502.49,0.21272
1479.35,0.18855
1456.2,0.20022
1433.06,0.21848
1409.91,0.19296
1386.77,0.10632
1363.62,0.06342
1340.48,0.05070
1317.33,0.03828
1294.19,0.02589
1271.04,0.02263
1247.9,0.02425
1224.75,0.02407
1201.61,0.02401
1178.46,0.02555
1155.32,0.02819
1132.17,0.03052
1109.03,0.03212
1085.88,0.03115
1062.74,0.02991
1039.59,0.02786
1016.45,0.02526
993.304,0.02189
970.159,0.02348
947.014,0.03463
923.869,0.05231
900.724,0.07244
877.579,0.09008
854.434,0.10710
831.289,0.12092
808.144,0.13305
784.999,0.14020
761.854,0.14581
738.709,0.15110
715.565,0.15541
692.42,0.16166
669.275,0.16594
646.13,0.16927
622.985,0.17228
599.84,0.17631