File: 01_Data/Laminate_Flooring/FTIR/IS/Laminate_Flooring_IS_T_221003_R5.dpt
7497.03,0.02240
7473.89,0.02553
7450.74,0.02456
7427.6,0.02015
7404.45,0.03311
7381.31,0.03270
7358.16,0.02324
7335.02,0.02071
7311.87,0.02697
7288.73,0.02642
7265.58,0.02726
7242.44,0.02559
7219.29,0.02143
7196.15,0.03180
7173,0.01960
7149.86,0.02316
7126.71,0.02443
7103.57,0.02104
7080.42,0.02630
7057.28,0.02283
7034.13,0.02476
7010.99,0.03107
6987.84,0.02506
6964.7,0.02417
6941.55,0.02667
6918.41,0.02927
6895.26,0.02438
6872.12,0.02123
6848.97,0.02669
6825.83,0.03174
6802.68,0.02128
6779.54,0.03016
6756.39,0.02588
6733.25,0.02237
6710.1,0.02805
6686.96,0.02050
6663.82,0.02625
6640.67,0.02402
6617.53,0.02614
6594.38,0.02187
6571.24,0.02021
6548.09,0.02222
6524.95,0.02417
6501.8,0.02087
6478.66,0.02085
6455.51,0.02247
6432.37,0.02036
6409.22,0.02340
6386.08,0.02180
6362.93,0.01972
6339.79,0.02264
6316.64,0.02052
6293.5,0.02129
6270.35,0.02369
6247.21,0.02232
6224.06,0.02640
6200.92,0.02331
6177.77,0.02269
6154.63,0.02212
6131.48,0.02483
6108.34,0.02075
6085.19,0.01953
6062.05,0.02501
6038.9,0.02142
6015.76,0.02009
5992.61,0.02118
5969.47,0.02197
5946.32,0.02076
5923.18,0.02418
5900.03,0.02328
5876.89,0.02069
5853.74,0.02237
5830.6,0.01970
5807.45,0.01886
5784.31,0.02111
5761.16,0.02082
5738.02,0.02239
5714.87,0.02041
5691.73,0.01901
5668.58,0.01896
5645.44,0.02288
5622.29,0.02355
5599.15,0.02025
5576,0.02312
5552.86,0.02412
5529.71,0.02386
5506.57,0.02317
5483.42,0.02309
5460.28,0.02298
5437.13,0.02171
5413.99,0.02146
5390.84,0.02246
5367.7,0.02348
5344.55,0.02217
5321.41,0.02175
5298.26,0.02228
5275.12,0.02282
5251.97,0.02198
5228.83,0.02175
5205.68,0.02187
5182.54,0.02146
5159.39,0.02200
5136.25,0.02050
5113.1,0.02255
5089.96,0.02228
5066.81,0.02170
5043.67,0.02254
5020.52,0.02231
4997.38,0.02280
4974.23,0.02132
4951.09,0.02284
4927.94,0.02168
4904.8,0.02272
4881.65,0.02280
4858.51,0.02314
4835.36,0.02318
4812.22,0.02256
4789.07,0.02313
4765.93,0.02192
4742.78,0.02175
4719.64,0.02212
4696.49,0.02261
4673.35,0.02255
4650.2,0.02300
4627.06,0.02384
4603.92,0.02258
4580.77,0.02244
4557.63,0.02278
4534.48,0.02248
4511.34,0.02221
4488.19,0.02225
4465.05,0.02257
4441.9,0.02241
4418.76,0.02288
4395.61,0.02119
4372.47,0.02270
4349.32,0.02216
4326.18,0.02294
4303.03,0.02289
4279.89,0.02238
4256.74,0.02295
4233.6,0.02259
4210.45,0.02283
4187.31,0.02303
4164.16,0.02245
4141.02,0.02232
4117.87,0.02305
4094.73,0.02253
4071.58,0.02235
4048.44,0.02343
4025.29,0.02269
4002.15,0.02259
3979,0.02321
3955.86,0.02287
3932.71,0.02303
3909.57,0.02277
3886.42,0.02318
3863.28,0.02327
3840.13,0.02259
3816.99,0.02343
3793.84,0.02301
3770.7,0.02269
3747.55,0.02309
3724.41,0.02282
3701.26,0.02199
3678.12,0.02286
3654.97,0.02250
3631.83,0.02212
3608.68,0.02098
3585.54,0.02125
3562.39,0.02148
3539.25,0.02108
3516.1,0.02211
3492.96,0.02083
3469.81,0.02070
3446.67,0.02093
3423.52,0.02084
3400.38,0.02088
3377.23,0.01985
3354.09,0.02138
3330.94,0.02052
3307.8,0.02060
3284.65,0.02065
3261.51,0.02077
3238.36,0.02118
3215.22,0.02122
3192.07,0.02131
3168.93,0.02124
3145.78,0.02104
3122.64,0.02076
3099.49,0.02140
3076.35,0.02083
3053.2,0.02086
3030.06,0.02012
3006.91,0.02075
2983.77,0.02028
2960.62,0.01952
2937.48,0.01953
2914.33,0.02050
2891.19,0.02042
2868.04,0.02037
2844.9,0.02172
2821.75,0.02138
2798.61,0.02128
2775.46,0.02153
2752.32,0.02096
2729.17,0.02090
2706.03,0.02132
2682.88,0.02135
2659.74,0.02140
2636.59,0.02166
2613.45,0.02141
2590.3,0.02150
2567.16,0.02112
2544.02,0.02128
2520.87,0.02126
2497.73,0.02119
2474.58,0.02126
2451.44,0.02119
2428.29,0.02144
2405.15,0.02105
2382,0.02148
2358.86,0.02123
2335.71,0.02178
2312.57,0.02137
2289.42,0.02101
2266.28,0.02199
2243.13,0.02132
2219.99,0.02118
2196.84,0.02130
2173.7,0.02138
2150.55,0.02121
2127.41,0.02111
2104.26,0.02118
2081.12,0.02094
2057.97,0.02076
2034.83,0.02095
2011.68,0.02088
1988.54,0.02081
1965.39,0.02107
1942.25,0.02053
1919.1,0.02106
1895.96,0.02063
1872.81,0.02063
1849.67,0.02030
1826.52,0.02031
1803.38,0.01982
1780.23,0.01946
1757.09,0.01792
1733.94,0.01996
1710.8,0.02043
1687.65,0.01949
1664.51,0.01843
1641.36,0.01839
1618.22,0.01914
1595.07,0.01908
1571.93,0.01811
1548.78,0.01879
1525.64,0.01870
1502.49,0.01897
1479.35,0.01834
1456.2,0.01866
1433.06,0.01884
1409.91,0.01845
1386.77,0.01782
1363.62,0.01864
1340.48,0.01779
1317.33,0.01698
1294.19,0.01744
1271.04,0.01937
1247.9,0.02020
1224.75,0.01976
1201.61,0.01933
1178.46,0.01851
1155.32,0.01733
1132.17,0.01802
1109.03,0.01888
1085.88,0.01832
1062.74,0.01914
1039.59,0.01934
1016.45,0.01956
993.304,0.02086
970.159,0.02035
947.014,0.02022
923.869,0.01911
900.724,0.01941
877.579,0.01883
854.434,0.01919
831.289,0.01971
808.144,0.01927
784.999,0.01854
761.854,0.01803
738.709,0.01920
715.565,0.01797
692.42,0.01826
669.275,0.01809
646.13,0.01564
622.985,0.01682
599.84,0.01514