File: 01_Data/Laminate_Flooring/FTIR/IS/Laminate_Flooring_IS_S_221003_R1.dpt
7497.03,0.60081
7473.89,0.59692
7450.74,0.60262
7427.6,0.60505
7404.45,0.60701
7381.31,0.60119
7358.16,0.60317
7335.02,0.60080
7311.87,0.59659
7288.73,0.60154
7265.58,0.60494
7242.44,0.60354
7219.29,0.59745
7196.15,0.60327
7173,0.61075
7149.86,0.60369
7126.71,0.60078
7103.57,0.60400
7080.42,0.60883
7057.28,0.60940
7034.13,0.59863
7010.99,0.60437
6987.84,0.61488
6964.7,0.60817
6941.55,0.61047
6918.41,0.61400
6895.26,0.61432
6872.12,0.60661
6848.97,0.61617
6825.83,0.61042
6802.68,0.61973
6779.54,0.61273
6756.39,0.61710
6733.25,0.61425
6710.1,0.62111
6686.96,0.62173
6663.82,0.62242
6640.67,0.62266
6617.53,0.62184
6594.38,0.61799
6571.24,0.61741
6548.09,0.62275
6524.95,0.62680
6501.8,0.62338
6478.66,0.62443
6455.51,0.62810
6432.37,0.62840
6409.22,0.62543
6386.08,0.62861
6362.93,0.62793
6339.79,0.62953
6316.64,0.62940
6293.5,0.63056
6270.35,0.62945
6247.21,0.63241
6224.06,0.63061
6200.92,0.63492
6177.77,0.63199
6154.63,0.63196
6131.48,0.63203
6108.34,0.63859
6085.19,0.63598
6062.05,0.63768
6038.9,0.63818
6015.76,0.63884
5992.61,0.63943
5969.47,0.64173
5946.32,0.64132
5923.18,0.64383
5900.03,0.64120
5876.89,0.64067
5853.74,0.64453
5830.6,0.64403
5807.45,0.64464
5784.31,0.64471
5761.16,0.64603
5738.02,0.64519
5714.87,0.64649
5691.73,0.64694
5668.58,0.64811
5645.44,0.65165
5622.29,0.64929
5599.15,0.65117
5576,0.65297
5552.86,0.65112
5529.71,0.65191
5506.57,0.65269
5483.42,0.65546
5460.28,0.65548
5437.13,0.65327
5413.99,0.65580
5390.84,0.65611
5367.7,0.65811
5344.55,0.65674
5321.41,0.65719
5298.26,0.65731
5275.12,0.65667
5251.97,0.65292
5228.83,0.65183
5205.68,0.64729
5182.54,0.64903
5159.39,0.64806
5136.25,0.65025
5113.1,0.65072
5089.96,0.65304
5066.81,0.65344
5043.67,0.65491
5020.52,0.65571
4997.38,0.65809
4974.23,0.65933
4951.09,0.66013
4927.94,0.66244
4904.8,0.66310
4881.65,0.66415
4858.51,0.66544
4835.36,0.66505
4812.22,0.66637
4789.07,0.66705
4765.93,0.66694
4742.78,0.66760
4719.64,0.66869
4696.49,0.66710
4673.35,0.66519
4650.2,0.66482
4627.06,0.66374
4603.92,0.66107
4580.77,0.66138
4557.63,0.66041
4534.48,0.66076
4511.34,0.66139
4488.19,0.66146
4465.05,0.66179
4441.9,0.66206
4418.76,0.66250
4395.61,0.66175
4372.47,0.66089
4349.32,0.65846
4326.18,0.65639
4303.03,0.65757
4279.89,0.65705
4256.74,0.65763
4233.6,0.65526
4210.45,0.65463
4187.31,0.65411
4164.16,0.65181
4141.02,0.65192
4117.87,0.65146
4094.73,0.64783
4071.58,0.64606
4048.44,0.64348
4025.29,0.64256
4002.15,0.64121
3979,0.63896
3955.86,0.63773
3932.71,0.63646
3909.57,0.63641
3886.42,0.63597
3863.28,0.63463
3840.13,0.63200
3816.99,0.62663
3793.84,0.62199
3770.7,0.61095
3747.55,0.58852
3724.41,0.53669
3701.26,0.41684
3678.12,0.27372
3654.97,0.14950
3631.83,0.08715
3608.68,0.06444
3585.54,0.05694
3562.39,0.05350
3539.25,0.05190
3516.1,0.05075
3492.96,0.04973
3469.81,0.04936
3446.67,0.04966
3423.52,0.04993
3400.38,0.04952
3377.23,0.05064
3354.09,0.05195
3330.94,0.05157
3307.8,0.05243
3284.65,0.05336
3261.51,0.05463
3238.36,0.05690
3215.22,0.05864
3192.07,0.06164
3168.93,0.06423
3145.78,0.06821
3122.64,0.07243
3099.49,0.07875
3076.35,0.08645
3053.2,0.09559
3030.06,0.10393
3006.91,0.11233
2983.77,0.12111
2960.62,0.13338
2937.48,0.14844
2914.33,0.16382
2891.19,0.18090
2868.04,0.19322
2844.9,0.20931
2821.75,0.23134
2798.61,0.25696
2775.46,0.28020
2752.32,0.29806
2729.17,0.31088
2706.03,0.32535
2682.88,0.34348
2659.74,0.36276
2636.59,0.37713
2613.45,0.38284
2590.3,0.38258
2567.16,0.38217
2544.02,0.38621
2520.87,0.39089
2497.73,0.39639
2474.58,0.39660
2451.44,0.39072
2428.29,0.38703
2405.15,0.39120
2382,0.40258
2358.86,0.41109
2335.71,0.41131
2312.57,0.40480
2289.42,0.39902
2266.28,0.40182
2243.13,0.41183
2219.99,0.41910
2196.84,0.41458
2173.7,0.40145
2150.55,0.38996
2127.41,0.39297
2104.26,0.40912
2081.12,0.42264
2057.97,0.42370
2034.83,0.41483
2011.68,0.41034
1988.54,0.42012
1965.39,0.44069
1942.25,0.45577
1919.1,0.45235
1895.96,0.43604
1872.81,0.42598
1849.67,0.43434
1826.52,0.45070
1803.38,0.45141
1780.23,0.42955
1757.09,0.38632
1733.94,0.33274
1710.8,0.27272
1687.65,0.21176
1664.51,0.19899
1641.36,0.14605
1618.22,0.10895
1595.07,0.12233
1571.93,0.16333
1548.78,0.23836
1525.64,0.25012
1502.49,0.21164
1479.35,0.18608
1456.2,0.19785
1433.06,0.21667
1409.91,0.19302
1386.77,0.10640
1363.62,0.06255
1340.48,0.05020
1317.33,0.03825
1294.19,0.02559
1271.04,0.02263
1247.9,0.02429
1224.75,0.02371
1201.61,0.02357
1178.46,0.02582
1155.32,0.02856
1132.17,0.03078
1109.03,0.03192
1085.88,0.03114
1062.74,0.02943
1039.59,0.02830
1016.45,0.02483
993.304,0.02209
970.159,0.02368
947.014,0.03432
923.869,0.05269
900.724,0.07287
877.579,0.08992
854.434,0.10701
831.289,0.12240
808.144,0.13351
784.999,0.14088
761.854,0.14639
738.709,0.15220
715.565,0.15641
692.42,0.16224
669.275,0.16654
646.13,0.17065
622.985,0.17349
599.84,0.17603