File: 01_Data/Laminate_Flooring/FTIR/IS/Laminate_Flooring_IS_S_221003_R5.dpt
7497.03,0.60555
7473.89,0.60248
7450.74,0.60041
7427.6,0.60515
7404.45,0.60758
7381.31,0.60054
7358.16,0.60038
7335.02,0.59915
7311.87,0.60648
7288.73,0.60748
7265.58,0.59934
7242.44,0.60458
7219.29,0.60215
7196.15,0.60452
7173,0.60236
7149.86,0.60186
7126.71,0.60121
7103.57,0.60210
7080.42,0.60756
7057.28,0.60844
7034.13,0.61260
7010.99,0.60323
6987.84,0.60638
6964.7,0.61165
6941.55,0.61287
6918.41,0.61111
6895.26,0.60753
6872.12,0.61248
6848.97,0.60981
6825.83,0.61357
6802.68,0.61695
6779.54,0.61388
6756.39,0.61689
6733.25,0.62060
6710.1,0.61458
6686.96,0.61882
6663.82,0.62165
6640.67,0.62132
6617.53,0.62463
6594.38,0.63307
6571.24,0.62678
6548.09,0.62455
6524.95,0.62941
6501.8,0.62445
6478.66,0.62656
6455.51,0.63028
6432.37,0.63011
6409.22,0.63057
6386.08,0.63044
6362.93,0.63003
6339.79,0.63253
6316.64,0.62903
6293.5,0.63590
6270.35,0.63253
6247.21,0.63425
6224.06,0.63556
6200.92,0.63597
6177.77,0.63834
6154.63,0.63551
6131.48,0.63784
6108.34,0.63762
6085.19,0.64096
6062.05,0.64052
6038.9,0.64001
6015.76,0.63831
5992.61,0.63921
5969.47,0.64414
5946.32,0.64278
5923.18,0.64229
5900.03,0.64572
5876.89,0.64335
5853.74,0.64395
5830.6,0.64321
5807.45,0.64509
5784.31,0.64724
5761.16,0.64792
5738.02,0.64700
5714.87,0.65228
5691.73,0.65092
5668.58,0.64989
5645.44,0.64852
5622.29,0.65272
5599.15,0.65247
5576,0.65295
5552.86,0.65280
5529.71,0.65464
5506.57,0.65583
5483.42,0.65609
5460.28,0.65803
5437.13,0.65857
5413.99,0.65707
5390.84,0.65768
5367.7,0.65975
5344.55,0.66065
5321.41,0.65973
5298.26,0.66017
5275.12,0.65716
5251.97,0.65623
5228.83,0.65322
5205.68,0.65048
5182.54,0.65126
5159.39,0.65194
5136.25,0.65225
5113.1,0.65354
5089.96,0.65415
5066.81,0.65560
5043.67,0.65806
5020.52,0.65876
4997.38,0.66091
4974.23,0.66120
4951.09,0.66335
4927.94,0.66562
4904.8,0.66413
4881.65,0.66600
4858.51,0.66740
4835.36,0.66733
4812.22,0.66735
4789.07,0.66923
4765.93,0.66823
4742.78,0.66981
4719.64,0.66938
4696.49,0.66818
4673.35,0.66767
4650.2,0.66614
4627.06,0.66447
4603.92,0.66237
4580.77,0.66231
4557.63,0.66226
4534.48,0.66206
4511.34,0.66252
4488.19,0.66221
4465.05,0.66349
4441.9,0.66368
4418.76,0.66377
4395.61,0.66488
4372.47,0.66234
4349.32,0.66073
4326.18,0.65904
4303.03,0.65993
4279.89,0.65896
4256.74,0.65830
4233.6,0.65796
4210.45,0.65629
4187.31,0.65583
4164.16,0.65547
4141.02,0.65406
4117.87,0.65285
4094.73,0.65054
4071.58,0.64807
4048.44,0.64603
4025.29,0.64519
4002.15,0.64259
3979,0.64249
3955.86,0.64044
3932.71,0.63994
3909.57,0.63930
3886.42,0.63820
3863.28,0.63715
3840.13,0.63450
3816.99,0.63109
3793.84,0.62491
3770.7,0.61335
3747.55,0.59067
3724.41,0.53732
3701.26,0.41535
3678.12,0.27308
3654.97,0.14929
3631.83,0.08750
3608.68,0.06509
3585.54,0.05667
3562.39,0.05362
3539.25,0.05145
3516.1,0.05039
3492.96,0.05034
3469.81,0.04999
3446.67,0.04980
3423.52,0.05016
3400.38,0.05000
3377.23,0.05106
3354.09,0.05176
3330.94,0.05205
3307.8,0.05256
3284.65,0.05417
3261.51,0.05471
3238.36,0.05781
3215.22,0.05993
3192.07,0.06282
3168.93,0.06597
3145.78,0.06921
3122.64,0.07380
3099.49,0.08025
3076.35,0.08862
3053.2,0.09751
3030.06,0.10609
3006.91,0.11448
2983.77,0.12373
2960.62,0.13639
2937.48,0.15171
2914.33,0.16744
2891.19,0.18433
2868.04,0.19595
2844.9,0.21201
2821.75,0.23590
2798.61,0.26060
2775.46,0.28414
2752.32,0.30122
2729.17,0.31409
2706.03,0.32878
2682.88,0.34723
2659.74,0.36593
2636.59,0.38046
2613.45,0.38558
2590.3,0.38566
2567.16,0.38559
2544.02,0.38994
2520.87,0.39498
2497.73,0.40025
2474.58,0.39900
2451.44,0.39356
2428.29,0.38985
2405.15,0.39461
2382,0.40604
2358.86,0.41463
2335.71,0.41392
2312.57,0.40748
2289.42,0.40281
2266.28,0.40630
2243.13,0.41659
2219.99,0.42299
2196.84,0.41804
2173.7,0.40465
2150.55,0.39411
2127.41,0.39738
2104.26,0.41396
2081.12,0.42656
2057.97,0.42703
2034.83,0.41808
2011.68,0.41374
1988.54,0.42456
1965.39,0.44497
1942.25,0.45937
1919.1,0.45489
1895.96,0.43857
1872.81,0.42959
1849.67,0.43869
1826.52,0.45505
1803.38,0.45472
1780.23,0.43208
1757.09,0.38923
1733.94,0.33707
1710.8,0.27743
1687.65,0.21618
1664.51,0.20291
1641.36,0.14846
1618.22,0.11106
1595.07,0.12481
1571.93,0.16768
1548.78,0.24277
1525.64,0.25271
1502.49,0.21366
1479.35,0.18904
1456.2,0.20067
1433.06,0.21925
1409.91,0.19316
1386.77,0.10696
1363.62,0.06308
1340.48,0.05035
1317.33,0.03812
1294.19,0.02566
1271.04,0.02288
1247.9,0.02456
1224.75,0.02373
1201.61,0.02341
1178.46,0.02551
1155.32,0.02809
1132.17,0.03057
1109.03,0.03199
1085.88,0.03114
1062.74,0.02895
1039.59,0.02782
1016.45,0.02534
993.304,0.02128
970.159,0.02365
947.014,0.03387
923.869,0.05275
900.724,0.07222
877.579,0.09035
854.434,0.10771
831.289,0.12127
808.144,0.13418
784.999,0.14059
761.854,0.14694
738.709,0.15087
715.565,0.15620
692.42,0.16155
669.275,0.16702
646.13,0.16913
622.985,0.17333
599.84,0.18014