File: 01_Data/HIPS/HFM/HIPS_Density_Wet_R3.csv
,PlasticB_WET_3
Sample Mass [g],129.6
Sample Volume [cm3],121.9
Sample Density [kg/m3],1063