File: 01_Data/HIPS/HFM/HIPS_Density_Wet_R1.csv
,PlasticB_WET_1
Sample Mass [g],130.3
Sample Volume [cm3],122.0
Sample Density [kg/m3],1068