File: 01_Data/HIPS/HFM/HIPS_Density_Wet_R2.csv
,PlasticB_WET_2
Sample Mass [g],130.3
Sample Volume [cm3],121.9
Sample Density [kg/m3],1069