File: 01_Data/Wood_Stud/Cone/Wood_Stud_HRRPUA_25.csv
Time after Ignition,Wood_Stud_R1,Wood_Stud_R2,Wood_Stud_R3,Mean,Std. Dev.
0.0,12.7,37.1,283.6,111.1,149.8
6.5,241.9,282.2,217.5,247.2,32.7
13.0,259.0,264.6,167.3,230.3,54.6
19.5,206.2,211.1,139.5,185.6,40.0
26.0,168.6,180.8,126.7,158.7,28.4
32.5,143.8,161.7,116.1,140.5,23.0
39.0,133.6,149.9,104.7,129.4,22.9
45.5,118.2,139.4,97.2,118.3,21.1
52.0,110.9,127.7,93.0,110.5,17.4
58.5,107.4,116.7,90.7,104.9,13.2
65.0,100.3,112.2,89.3,100.6,11.4
71.5,96.0,109.1,87.4,97.5,10.9
78.0,92.5,105.9,89.1,95.8,8.9
84.5,85.8,103.1,87.2,92.0,9.6
91.0,83.7,102.3,88.4,91.5,9.7
97.5,81.5,99.0,86.5,89.0,9.0
104.0,78.6,96.7,82.4,85.9,9.5
110.5,77.7,96.5,81.0,85.1,10.0
117.0,74.4,98.1,78.9,83.8,12.6
123.5,73.2,94.5,77.8,81.9,11.2
130.0,70.2,93.8,78.0,80.7,12.0
136.5,70.1,92.9,76.6,79.9,11.8
143.0,67.3,92.2,77.7,79.1,12.5
149.5,65.5,90.3,77.9,77.9,12.4
156.0,65.1,89.4,75.0,76.5,12.2
162.5,63.5,89.8,75.6,76.3,13.1
169.0,62.2,89.0,75.5,75.6,13.4
175.5,61.6,89.4,76.7,75.9,13.9
182.0,60.7,88.9,77.8,75.8,14.2
188.5,61.8,90.8,77.7,76.8,14.5
195.0,59.1,90.0,76.9,75.4,15.5
201.5,57.6,87.4,77.0,74.0,15.1
208.0,57.7,89.3,76.9,74.6,15.9
214.5,57.5,85.1,75.1,72.5,14.0
221.0,58.6,84.8,73.2,72.2,13.2
227.5,57.2,86.5,72.1,72.0,14.7
234.0,55.6,86.4,70.9,70.9,15.4
240.5,54.2,85.9,70.7,70.3,15.8
247.0,54.0,88.3,70.2,70.8,17.2
253.5,54.7,87.5,70.9,71.1,16.4
260.0,53.2,85.2,71.3,69.9,16.0
266.5,54.5,86.0,70.2,70.2,15.7
273.0,55.3,86.5,70.7,70.8,15.6
279.5,55.2,87.4,69.4,70.7,16.1
286.0,55.1,83.7,68.4,69.1,14.3
292.5,54.3,82.2,68.0,68.2,14.0
299.0,54.8,83.9,69.3,69.3,14.5
305.5,53.9,83.5,68.8,68.7,14.8
312.0,54.6,83.3,70.0,69.3,14.3
318.5,56.2,82.7,69.7,69.5,13.3
325.0,56.5,79.1,69.5,68.4,11.3
331.5,55.1,79.7,71.5,68.7,12.5
338.0,55.5,79.7,70.7,68.6,12.2
344.5,55.9,77.1,70.8,67.9,10.9
351.0,55.8,75.5,70.2,67.2,10.2
357.5,55.0,76.1,69.7,66.9,10.8
364.0,54.7,76.3,68.9,66.6,10.9
370.5,53.0,76.0,69.2,66.1,11.8
377.0,52.2,76.7,69.6,66.2,12.6
383.5,51.8,74.7,68.1,64.9,11.8
390.0,52.1,75.5,67.4,65.0,11.8
396.5,54.9,75.8,66.1,65.6,10.5
403.0,56.1,74.1,65.7,65.3,9.0
409.5,54.7,73.4,66.3,64.8,9.4
416.0,53.6,72.5,65.4,63.8,9.6
422.5,52.9,75.4,63.8,64.0,11.3
429.0,54.7,73.7,65.0,64.5,9.5
435.5,57.7,75.2,62.9,65.3,9.0
442.0,54.6,74.3,64.1,64.3,9.8
448.5,53.5,75.7,64.6,64.6,11.1
455.0,52.4,78.2,66.1,65.6,12.9
461.5,52.1,77.8,66.0,65.3,12.9
468.0,49.2,76.4,64.5,63.4,13.7
474.5,49.2,75.1,66.0,63.5,13.1
481.0,49.5,74.3,65.6,63.1,12.6
487.5,50.3,72.1,66.5,63.0,11.3
494.0,51.1,72.1,67.8,63.7,11.1
500.5,53.4,73.4,66.6,64.5,10.1
507.0,53.5,71.2,65.7,63.5,9.1
513.5,51.9,74.3,66.5,64.2,11.4
520.0,53.7,78.0,68.8,66.9,12.3
526.5,55.1,78.3,67.8,67.1,11.6
533.0,52.6,77.7,68.4,66.2,12.7
539.5,51.7,78.2,67.6,65.8,13.3
546.0,54.5,79.6,68.0,67.3,12.6
552.5,52.5,81.0,65.4,66.3,14.3
559.0,51.1,81.4,66.0,66.2,15.1
565.5,49.1,81.2,65.9,65.4,16.1
572.0,47.8,83.0,67.0,65.9,17.6
578.5,44.9,81.2,66.2,64.1,18.3
585.0,43.7,81.2,65.7,63.5,18.9
591.5,43.0,82.7,65.7,63.8,19.9
598.0,46.1,83.0,65.4,64.8,18.5
604.5,45.0,83.8,63.3,64.0,19.4
611.0,46.7,83.2,63.3,64.4,18.3
617.5,46.6,81.3,63.9,63.9,17.3
624.0,46.3,80.3,63.3,63.3,17.0
630.5,47.4,79.5,61.0,62.6,16.1
637.0,47.7,79.9,57.9,61.8,16.4
643.5,49.0,82.9,58.2,63.4,17.6
650.0,47.1,78.9,58.0,61.3,16.2
656.5,46.3,78.3,59.5,61.4,16.1
663.0,46.3,78.1,57.3,60.5,16.2
669.5,47.5,80.0,58.2,61.9,16.5
676.0,48.4,79.3,56.9,61.5,15.9
682.5,48.4,78.1,57.3,61.3,15.2
689.0,48.9,78.6,56.8,61.4,15.4
695.5,48.0,78.2,57.3,61.2,15.5
702.0,50.0,77.0,60.0,62.3,13.7
708.5,48.2,78.3,59.2,61.9,15.2
715.0,48.4,75.2,59.3,61.0,13.5
721.5,48.6,75.3,58.2,60.7,13.5
728.0,47.6,76.8,59.6,61.4,14.7
734.5,48.1,77.3,58.3,61.3,14.8
741.0,46.2,77.4,58.2,60.6,15.7
747.5,47.0,74.9,59.0,60.3,14.0
754.0,46.8,75.6,58.0,60.1,14.5
760.5,45.5,75.2,58.9,59.9,14.9
767.0,44.4,76.1,58.7,59.7,15.9
773.5,43.3,74.3,56.1,57.9,15.6
780.0,44.0,73.8,53.3,57.1,15.3
786.5,45.2,75.8,53.9,58.3,15.7
793.0,45.3,78.2,52.9,58.8,17.2
799.5,45.5,80.5,53.3,59.7,18.4
806.0,46.4,80.1,52.3,59.6,18.0
812.5,46.5,79.6,51.7,59.3,17.8
819.0,47.2,79.8,52.4,59.8,17.5
825.5,46.6,77.3,51.8,58.6,16.4
832.0,43.4,74.9,51.3,56.5,16.4
838.5,42.9,73.6,51.1,55.9,15.9
845.0,46.0,76.4,52.5,58.3,16.0
851.5,47.8,78.2,51.6,59.2,16.6
858.0,47.4,78.2,49.5,58.4,17.2
864.5,45.7,77.1,48.8,57.2,17.3
871.0,43.6,76.5,51.1,57.1,17.3
877.5,43.9,74.0,50.5,56.1,15.8
884.0,42.8,75.3,52.5,56.9,16.7
890.5,42.1,76.5,51.0,56.5,17.9
897.0,40.4,77.4,51.3,56.4,19.0
903.5,40.3,75.7,50.8,55.6,18.2
910.0,42.4,75.4,51.6,56.5,17.1
916.5,42.6,77.7,51.4,57.3,18.3
923.0,40.9,77.1,51.0,56.3,18.6
929.5,40.1,75.8,51.3,55.7,18.3
936.0,41.2,75.8,51.3,56.1,17.8
942.5,42.1,77.9,50.0,56.7,18.8
949.0,42.2,77.4,51.4,57.0,18.3
955.5,41.0,75.2,50.6,55.6,17.6
962.0,39.9,74.8,50.1,54.9,18.0
968.5,39.7,73.1,49.4,54.1,17.2
975.0,40.8,71.4,50.3,54.2,15.7
981.5,40.6,71.0,48.7,53.5,15.8
988.0,40.8,72.8,49.6,54.4,16.5
994.5,41.5,71.2,49.8,54.2,15.3
1001.0,42.0,69.9,47.8,53.2,14.7
1007.5,41.9,68.4,46.7,52.4,14.1
1014.0,42.5,67.6,46.3,52.2,13.5
1020.5,40.6,64.6,46.8,50.7,12.5
1027.0,40.9,62.5,47.2,50.2,11.1
1033.5,41.5,61.4,45.9,49.6,10.4
1040.0,40.9,61.9,45.9,49.5,11.0
1046.5,42.5,62.1,44.5,49.7,10.8
1053.0,43.0,62.3,42.9,49.4,11.2
1059.5,42.3,62.0,44.0,49.4,10.9
1066.0,42.4,62.0,45.2,49.9,10.6
1072.5,42.6,61.6,44.7,49.6,10.4
1079.0,43.5,60.8,42.7,49.0,10.2
1085.5,44.7,59.6,43.9,49.4,8.8
1092.0,45.6,62.2,42.5,50.1,10.6
1098.5,45.6,61.8,42.2,49.8,10.5
1105.0,45.2,61.0,41.5,49.2,10.3
1111.5,46.7,61.3,42.3,50.1,10.0
1118.0,46.2,61.0,41.6,49.6,10.1
1124.5,46.0,58.6,41.3,48.7,8.9
1131.0,45.3,58.2,39.9,47.8,9.4
1137.5,44.9,59.3,41.8,48.7,9.3
1144.0,46.2,59.8,41.1,49.0,9.6
1150.5,47.1,59.5,40.5,49.0,9.6
1157.0,45.6,60.5,40.1,48.7,10.5
1163.5,45.7,59.0,39.6,48.1,9.9
1170.0,44.8,59.2,38.6,47.5,10.6
1176.5,45.8,60.8,39.2,48.6,11.1
1183.0,44.9,60.1,38.9,47.9,10.9
1189.5,45.0,58.7,39.7,47.8,9.8
1196.0,46.7,59.6,38.4,48.2,10.7
1202.5,47.0,59.3,39.7,48.7,9.9
1209.0,47.4,59.4,40.3,49.1,9.7
1215.5,48.2,56.3,43.1,49.2,6.7
1222.0,48.6,58.0,43.4,50.0,7.4
1228.5,49.1,58.9,43.0,50.3,8.0
1235.0,49.2,59.0,44.7,51.0,7.3
1241.5,47.5,57.5,44.9,50.0,6.7
1248.0,47.4,55.1,44.7,49.0,5.4
1254.5,49.2,55.5,42.7,49.1,6.4
1261.0,48.0,56.8,42.1,49.0,7.4
1267.5,46.8,57.5,40.3,48.2,8.7
1274.0,47.1,56.4,40.8,48.1,7.9
1280.5,48.1,56.5,42.7,49.1,7.0
1287.0,47.9,56.7,44.5,49.7,6.3
1293.5,48.3,55.5,46.3,50.1,4.8
1300.0,49.3,59.5,45.8,51.5,7.1
1306.5,47.4,58.4,45.6,50.5,6.9
1313.0,50.0,59.7,45.1,51.6,7.4
1319.5,50.3,60.2,45.2,51.9,7.6
1326.0,50.5,60.9,47.5,53.0,7.1
1332.5,48.8,63.0,50.1,54.0,7.8
1339.0,48.7,64.3,49.9,54.3,8.7
1345.5,48.7,63.6,48.0,53.5,8.8
1352.0,48.4,62.8,46.3,52.5,9.0
1358.5,47.1,61.9,45.2,51.4,9.1
1365.0,45.9,60.9,45.7,50.8,8.7
1371.5,47.4,62.0,47.2,52.2,8.5
1378.0,49.1,62.1,48.6,53.3,7.7
1384.5,48.9,62.3,48.6,53.3,7.8
1391.0,47.7,64.7,48.2,53.5,9.6
1397.5,46.6,64.0,46.7,52.5,10.0
1404.0,46.1,66.4,46.9,53.1,11.5
1410.5,47.5,65.6,45.4,52.8,11.1
1417.0,45.1,66.1,44.7,52.0,12.3
1423.5,45.6,65.9,45.7,52.4,11.7
1430.0,47.6,64.8,45.9,52.8,10.5
1436.5,47.3,62.7,45.9,52.0,9.3
1443.0,44.0,61.9,45.7,50.5,9.9
1449.5,42.9,62.3,44.9,50.1,10.7
1456.0,43.8,61.9,45.1,50.2,10.1
1462.5,45.9,61.0,44.9,50.6,9.0
1469.0,44.1,60.5,44.3,49.6,9.4
1475.5,45.0,59.2,43.4,49.2,8.7
1482.0,45.2,59.6,44.6,49.8,8.5
1488.5,44.8,60.9,44.9,50.2,9.2
1495.0,42.9,60.0,44.5,49.1,9.5
1501.5,42.3,61.1,45.0,49.5,10.2
1508.0,42.8,61.2,44.0,49.3,10.3
1514.5,41.8,61.5,45.5,49.6,10.5
1521.0,40.9,60.8,44.6,48.7,10.6
1527.5,39.9,60.6,44.3,48.3,10.9
1534.0,40.3,61.3,42.9,48.2,11.5
1540.5,37.8,59.9,42.4,46.7,11.7
1547.0,37.1,60.3,42.4,46.6,12.1
1553.5,37.6,60.3,42.6,46.9,11.9
1560.0,36.2,61.2,43.1,46.8,12.9
1566.5,38.0,61.6,42.4,47.3,12.6
1573.0,37.8,61.2,43.1,47.4,12.3
1579.5,38.4,62.3,42.6,47.8,12.8
1586.0,38.5,60.9,40.9,46.8,12.3
1592.5,38.3,61.0,39.3,46.2,12.8
1599.0,39.0,61.8,40.2,47.0,12.8
1605.5,38.1,62.5,40.0,46.9,13.5
1612.0,37.0,63.6,41.1,47.2,14.3
1618.5,36.3,62.2,40.2,46.3,14.0
1625.0,37.1,63.6,39.5,46.7,14.7
1631.5,37.4,62.8,39.5,46.5,14.1
1638.0,35.7,63.2,39.6,46.2,14.9
1644.5,35.4,63.2,39.2,45.9,15.1
1651.0,35.8,65.3,39.6,46.9,16.0
1657.5,36.9,65.3,39.4,47.2,15.7
1664.0,35.5,65.5,39.5,46.8,16.3
1670.5,35.0,66.1,38.8,46.6,16.9
1677.0,33.0,66.4,39.7,46.4,17.7
1683.5,33.2,65.4,40.3,46.3,16.9
1690.0,34.1,63.3,40.4,45.9,15.4
1696.5,36.4,63.3,39.9,46.5,14.6
1703.0,36.2,63.6,39.2,46.3,15.1
1709.5,35.7,63.1,40.5,46.4,14.6
1716.0,35.1,63.2,39.9,46.1,15.0
1722.5,33.9,63.5,41.8,46.4,15.3
1729.0,33.2,64.1,40.1,45.8,16.2
1735.5,32.4,68.1,41.3,47.2,18.6
1742.0,32.5,65.6,41.3,46.5,17.2
1748.5,32.7,63.6,40.5,45.6,16.1
1755.0,34.5,63.0,41.5,46.3,14.9
1761.5,33.8,63.0,40.0,45.6,15.4
1768.0,34.0,64.0,39.6,45.9,16.0
1774.5,34.2,63.6,40.5,46.1,15.5
1781.0,34.6,65.7,40.6,47.0,16.5
1787.5,34.0,63.7,41.0,46.2,15.5
1794.0,33.4,66.1,41.1,46.8,17.1
1800.5,33.9,66.4,41.8,47.4,16.9
1807.0,33.7,67.9,42.0,47.8,17.9
1813.5,34.3,67.7,42.6,48.2,17.4
1820.0,32.2,69.2,42.1,47.8,19.2
1826.5,33.5,67.5,41.9,47.6,17.7
1833.0,32.7,66.3,41.2,46.7,17.4
1839.5,32.5,67.6,41.2,47.1,18.3
1846.0,32.4,67.9,40.5,47.0,18.6
1852.5,31.9,69.8,40.1,47.3,20.0
1859.0,33.1,69.5,39.1,47.3,19.5
1865.5,34.0,69.1,39.3,47.5,19.0
1872.0,33.6,70.6,43.5,49.2,19.2
1878.5,32.2,71.4,46.4,50.0,19.8
1885.0,32.3,70.3,47.8,50.2,19.1
1891.5,31.9,70.4,44.7,49.0,19.6
1898.0,26.7,70.4,44.3,47.1,21.9
1904.5,25.6,70.7,42.6,46.3,22.8
1911.0,26.7,67.6,43.6,46.0,20.5
1917.5,26.8,68.5,45.2,46.8,20.9
1924.0,27.7,70.4,44.0,47.4,21.5
1928.5,27.4,71.3,44.5,47.7,22.1