File: 01_Data/Wood_Stud/Cone/Wood_Stud_HRRPUA_50.csv
Time after Ignition,Wood_Stud_R1,Wood_Stud_R2,Wood_Stud_R3,Mean,Std. Dev.
0.0,25.6,25.7,25.4,25.6,0.2
8.25,264.9,270.1,232.8,255.9,20.2
16.5,244.0,260.4,222.4,242.3,19.1
24.75,200.1,205.0,181.2,195.4,12.5
33.0,182.9,185.1,160.0,176.0,13.9
41.25,164.7,174.6,156.5,165.3,9.0
49.5,156.9,163.0,144.1,154.6,9.6
57.75,149.1,154.6,140.3,148.0,7.2
66.0,135.9,149.3,134.0,139.7,8.3
74.25,131.1,140.4,129.4,133.6,5.9
82.5,124.1,135.2,119.9,126.4,7.9
90.75,120.2,132.5,116.1,122.9,8.5
99.0,118.6,127.7,113.0,119.8,7.4
107.25,117.2,122.3,109.9,116.5,6.3
115.5,114.8,119.4,104.6,112.9,7.6
123.75,111.3,119.9,102.2,111.1,8.8
132.0,113.1,117.7,100.4,110.4,9.0
140.25,111.9,115.0,98.2,108.4,8.9
148.5,110.0,113.2,96.1,106.4,9.1
156.75,108.0,113.6,93.4,105.0,10.4
165.0,105.9,113.6,93.5,104.3,10.1
173.25,104.2,112.2,90.0,102.1,11.3
181.5,101.3,110.1,89.1,100.2,10.5
189.75,101.5,107.9,87.4,98.9,10.5
198.0,101.4,104.0,89.1,98.2,8.0
206.25,101.4,105.6,87.6,98.2,9.4
214.5,103.5,104.6,87.7,98.6,9.4
222.75,102.2,102.2,88.0,97.5,8.2
231.0,104.1,103.2,88.4,98.6,8.8
239.25,104.0,101.9,87.9,97.9,8.8
247.5,100.0,101.3,88.4,96.6,7.1
255.75,100.1,99.7,87.0,95.6,7.4
264.0,97.2,99.0,87.1,94.4,6.4
272.25,95.1,98.4,87.8,93.8,5.4
280.5,96.1,97.7,86.0,93.2,6.4
288.75,98.2,95.9,85.2,93.1,6.9
297.0,96.4,95.4,86.2,92.7,5.6
305.25,96.3,95.6,84.4,92.1,6.7
313.5,96.1,94.7,85.0,91.9,6.1
321.75,96.5,93.8,83.8,91.4,6.7
330.0,96.4,91.4,83.3,90.4,6.6
338.25,95.6,91.0,84.9,90.5,5.4
346.5,95.9,90.3,83.5,89.9,6.2
354.75,97.5,90.4,83.6,90.5,7.0
363.0,96.7,91.8,83.7,90.7,6.6
371.25,94.0,92.8,81.9,89.6,6.7
379.5,94.5,91.6,84.5,90.2,5.1
387.75,94.8,94.4,85.3,91.5,5.4
396.0,95.7,93.6,82.9,90.7,6.9
404.25,95.5,94.1,84.0,91.2,6.2
412.5,95.9,95.4,84.6,92.0,6.4
420.75,95.4,94.3,84.4,91.4,6.1
429.0,95.5,94.3,85.2,91.7,5.6
437.25,94.4,92.5,84.7,90.5,5.1
445.5,94.2,92.6,84.0,90.3,5.5
453.75,90.9,92.7,83.6,89.1,4.8
462.0,92.6,90.8,84.8,89.4,4.1
470.25,93.1,91.5,85.9,90.2,3.8
478.5,92.8,89.4,83.5,88.6,4.7
486.75,91.3,89.5,82.9,87.9,4.4
495.0,92.8,90.5,83.6,89.0,4.8
503.25,91.2,90.4,80.3,87.3,6.1
511.5,93.2,87.7,82.7,87.9,5.3
519.75,91.8,91.8,83.1,88.9,5.1
528.0,93.1,89.7,80.9,87.9,6.3
536.25,92.4,89.1,81.6,87.7,5.5
544.5,90.8,88.8,82.1,87.3,4.6
552.75,91.2,87.4,82.9,87.2,4.2
561.0,91.2,88.5,82.5,87.4,4.4
569.25,88.0,88.2,83.4,86.5,2.7
577.5,88.2,87.6,81.0,85.6,4.0
585.75,87.4,88.2,82.7,86.1,2.9
594.0,86.9,88.5,80.6,85.3,4.1
602.25,87.9,86.4,83.2,85.8,2.4
610.5,89.8,87.1,81.6,86.2,4.2
618.75,89.0,86.5,80.8,85.4,4.2
627.0,89.0,86.0,79.0,84.7,5.1
635.25,90.0,87.2,80.7,86.0,4.8
643.5,92.1,87.6,78.5,86.1,6.9
651.75,90.5,86.9,77.0,84.8,7.0
660.0,91.3,89.7,77.8,86.2,7.4
668.25,91.6,89.0,77.5,86.0,7.5
676.5,90.6,91.0,78.4,86.7,7.2
684.75,90.2,91.2,77.9,86.4,7.4
693.0,91.0,91.5,77.3,86.6,8.1
701.25,87.3,92.3,76.6,85.4,8.0
709.5,87.4,90.9,76.9,85.1,7.3
717.75,87.6,90.9,75.3,84.6,8.2
726.0,87.9,90.6,75.0,84.5,8.3
734.25,87.3,89.5,74.3,83.7,8.2
742.5,85.3,88.1,73.9,82.4,7.5
750.75,87.5,89.3,72.9,83.3,9.0
759.0,85.5,84.9,74.4,81.6,6.2
767.25,83.8,85.9,73.8,81.2,6.4
775.5,84.8,85.9,75.2,82.0,5.9
783.75,85.0,85.4,74.9,81.8,5.9
792.0,86.6,85.8,73.9,82.1,7.1
800.25,86.0,83.3,74.2,81.2,6.2
808.5,86.2,84.7,73.4,81.4,7.0
816.75,87.2,84.4,72.5,81.4,7.8
825.0,85.9,85.5,73.9,81.7,6.8
833.25,87.2,88.0,74.8,83.3,7.4
841.5,84.6,88.1,73.6,82.1,7.5
849.75,85.4,87.5,75.6,82.8,6.4
858.0,85.7,84.9,75.0,81.9,5.9
866.25,82.4,87.3,73.1,80.9,7.3
874.5,82.0,85.6,74.7,80.8,5.5
882.75,81.2,84.8,75.6,80.5,4.7
891.0,82.3,82.5,75.6,80.1,3.9
899.25,81.9,82.3,75.2,79.8,4.0
907.5,80.8,82.5,75.9,79.7,3.4
915.75,79.0,81.0,75.1,78.4,3.0
924.0,78.6,81.1,76.1,78.6,2.5
932.25,77.5,81.0,76.8,78.4,2.2
940.5,78.0,78.5,77.1,77.9,0.7
948.75,77.6,79.2,77.1,78.0,1.1
957.0,78.1,80.5,77.2,78.6,1.7
965.25,79.3,79.1,76.6,78.4,1.5
973.5,78.0,80.2,77.5,78.5,1.4
981.75,77.1,81.1,75.7,78.0,2.8
990.0,77.4,80.2,76.4,78.0,2.0
998.25,77.1,82.4,77.0,78.8,3.1
1006.5,75.8,80.2,76.0,77.3,2.5
1014.75,75.9,79.7,76.8,77.5,2.0
1023.0,75.7,81.9,76.4,78.0,3.4
1031.25,77.5,80.6,76.4,78.2,2.2
1039.5,77.2,81.3,75.6,78.0,3.0
1047.75,77.1,81.7,76.3,78.4,2.9
1056.0,78.3,83.2,76.2,79.2,3.6
1064.25,77.1,81.8,76.5,78.5,2.9
1072.5,75.1,82.9,76.9,78.3,4.1
1080.75,73.2,80.6,76.9,76.9,3.7
1089.0,75.7,80.1,74.6,76.8,2.9
1097.25,77.2,80.0,76.2,77.8,2.0
1105.5,77.1,80.0,77.5,78.2,1.6
1113.75,78.3,78.9,76.7,78.0,1.1
1122.0,77.5,78.9,76.6,77.6,1.1
1130.25,76.6,79.3,78.6,78.2,1.4
1138.5,75.1,77.4,77.9,76.8,1.5
1146.75,74.9,78.1,76.5,76.5,1.6
1155.0,73.8,78.4,76.0,76.1,2.3
1163.25,74.5,77.6,77.3,76.5,1.7
1171.5,74.3,77.7,75.5,75.8,1.8
1179.75,74.8,78.0,77.3,76.7,1.7
1188.0,73.3,78.2,77.7,76.4,2.7
1196.25,75.0,77.8,77.3,76.7,1.5
1204.5,73.9,78.8,78.2,77.0,2.6
1212.75,74.6,80.5,77.7,77.6,2.9
1221.0,73.8,80.0,78.6,77.5,3.3
1229.25,74.6,79.0,79.0,77.6,2.5
1237.5,73.9,78.5,77.4,76.6,2.4
1245.75,72.7,78.6,78.7,76.7,3.5
1254.0,74.5,79.8,79.9,78.1,3.1
1262.25,74.7,78.1,77.5,76.8,1.8
1270.5,74.0,78.3,76.7,76.4,2.2
1278.75,75.2,78.0,77.9,77.0,1.6
1287.0,76.0,77.6,77.6,77.1,0.9
1295.25,75.8,79.2,75.3,76.8,2.1
1303.5,75.7,79.5,76.5,77.3,2.0
1311.75,75.3,79.8,77.6,77.6,2.3
1320.0,75.0,81.1,78.4,78.1,3.1
1328.25,75.1,80.4,78.1,77.9,2.7
1336.5,74.1,79.4,77.2,76.9,2.7
1344.75,75.9,78.7,76.7,77.1,1.5
1353.0,76.6,79.1,76.3,77.3,1.5
1361.25,74.8,79.5,76.7,77.0,2.3
1369.5,75.4,80.9,78.5,78.3,2.8
1377.75,76.6,80.1,76.3,77.7,2.1
1386.0,75.8,80.5,74.9,77.1,3.0
1394.25,78.1,83.4,77.2,79.6,3.3
1402.5,77.1,83.7,76.4,79.1,4.1
1410.75,78.7,82.2,75.9,78.9,3.2
1419.0,79.6,83.9,74.8,79.4,4.6
1427.25,79.8,83.8,73.6,79.1,5.1
1435.5,78.6,81.8,74.3,78.3,3.8
1443.75,79.8,84.6,73.5,79.3,5.6
1452.0,80.0,85.6,75.1,80.2,5.3
1460.25,81.3,85.9,75.1,80.8,5.4
1468.5,81.1,84.5,73.9,79.8,5.4
1476.75,82.7,87.2,74.9,81.6,6.3
1485.0,82.0,87.0,74.6,81.2,6.2
1493.25,80.8,87.5,73.1,80.5,7.2
1501.5,81.8,87.5,74.4,81.2,6.6
1509.75,83.2,89.8,74.4,82.4,7.7
1518.0,85.2,89.0,74.2,82.8,7.7
1526.25,84.4,88.7,75.1,82.7,7.0
1534.5,83.9,90.4,74.0,82.8,8.3
1542.75,84.6,88.8,73.9,82.4,7.6
1551.0,84.8,91.1,73.9,83.3,8.7
1559.25,85.3,89.6,75.2,83.4,7.4
1567.5,86.4,92.0,73.7,84.0,9.4
1575.75,83.4,91.2,74.9,83.2,8.2
1584.0,85.4,92.1,74.6,84.0,8.8
1592.25,84.1,91.6,75.4,83.7,8.1
1600.5,84.5,92.6,75.9,84.3,8.3
1608.75,83.6,93.7,76.5,84.6,8.6
1617.0,84.5,92.5,75.8,84.2,8.4
1625.25,86.0,93.5,74.9,84.8,9.3
1633.5,87.4,94.5,75.0,85.6,9.9
1641.75,86.9,98.1,78.2,87.7,10.0
1650.0,86.2,99.6,79.7,88.5,10.1
1658.25,86.6,99.4,78.8,88.3,10.4
1666.5,87.4,101.7,81.0,90.0,10.6
1674.75,89.3,104.4,80.2,91.3,12.2
1683.0,89.9,102.9,79.9,90.9,11.5
1691.25,92.1,105.1,80.4,92.5,12.3
1699.5,93.6,108.8,80.9,94.5,14.0
1707.75,93.8,109.3,82.2,95.1,13.6
1716.0,95.2,112.8,81.7,96.5,15.6
1724.25,95.3,114.5,82.3,97.4,16.2
1732.5,94.2,118.4,84.0,98.8,17.7
1740.75,98.6,117.6,86.1,100.8,15.9
1749.0,98.6,120.9,86.0,101.8,17.7
1757.25,98.0,119.5,87.1,101.5,16.5
1765.5,99.7,121.7,90.3,103.9,16.1
1773.75,98.9,121.0,90.3,103.4,15.8
1782.0,99.2,119.7,90.2,103.0,15.1
1790.25,100.6,120.5,94.4,105.1,13.6
1798.5,101.3,118.4,94.9,104.9,12.1
1806.75,104.5,122.9,96.8,108.1,13.4
1815.0,104.2,118.5,95.9,106.2,11.4
1823.25,106.0,120.5,96.3,107.6,12.2
1831.5,105.9,120.4,99.7,108.7,10.6
1839.75,109.2,117.9,101.3,109.5,8.3
1848.0,111.5,120.9,104.2,112.2,8.3
1856.25,115.5,122.3,104.1,113.9,9.2
1864.5,115.7,125.0,105.5,115.4,9.8
1872.75,117.1,124.2,106.2,115.8,9.1
1881.0,117.9,125.4,109.6,117.6,7.9
1889.25,121.0,123.0,112.3,118.8,5.7
1897.5,121.7,125.4,109.5,118.9,8.3
1905.75,121.6,124.8,111.8,119.4,6.8
1914.0,125.0,125.7,113.1,121.3,7.1
1922.25,129.4,128.7,114.3,124.1,8.5
1930.5,136.1,128.0,118.9,127.7,8.6
1938.75,142.4,129.4,118.7,130.2,11.9
1947.0,143.5,126.8,124.2,131.5,10.4
1955.25,144.4,129.0,124.4,132.6,10.5
1963.5,146.8,131.8,126.4,135.0,10.6
1971.75,142.5,130.6,133.3,135.5,6.2
1980.0,138.1,124.6,130.6,131.1,6.8
1988.25,135.3,120.6,132.9,129.6,7.9
1996.5,127.8,113.1,135.5,125.5,11.4
2004.75,125.2,104.1,137.5,122.3,16.9
2013.0,123.3,99.3,141.6,121.4,21.2
2021.25,118.8,94.1,142.9,118.6,24.4
2029.5,118.1,89.6,144.1,117.3,27.3
2037.75,112.3,84.2,144.7,113.7,30.3
2046.0,111.4,80.0,146.2,112.6,33.1
2054.25,109.7,75.1,144.7,109.9,34.8
2062.5,112.7,72.7,148.6,111.3,38.0
2070.75,110.0,67.6,143.5,107.0,38.0
2079.0,107.6,66.6,140.1,104.8,36.8
2087.25,107.0,63.0,137.9,102.6,37.7
2095.5,107.1,62.5,132.9,100.9,35.6
2103.75,107.8,58.9,128.0,98.2,35.5
2112.0,108.1,58.1,121.3,95.8,33.3
2120.25,105.5,57.8,120.0,94.4,32.5
2128.5,106.6,57.9,115.6,93.3,31.0
2136.75,107.6,57.9,107.4,91.0,28.6
2145.0,105.1,56.8,105.1,89.0,27.9
2153.25,103.0,55.1,97.3,85.2,26.2
2161.5,99.1,54.0,90.5,81.2,23.9
2169.75,96.1,53.0,84.0,77.7,22.3
2178.0,93.0,52.9,79.1,75.0,20.4
2186.25,90.1,54.3,74.3,72.9,17.9
2194.5,86.0,52.5,71.4,70.0,16.8
2202.75,85.3,52.4,65.6,67.8,16.6
2211.0,83.3,49.9,63.1,65.4,16.9
2219.25,81.1,51.1,60.6,64.3,15.3
2227.5,78.1,49.2,56.3,61.2,15.0
2235.75,76.4,,54.9,65.6,15.2
2244.0,76.1,,54.4,65.2,15.4
2252.25,72.8,,53.6,63.2,13.6
2260.5,72.6,,50.9,61.8,15.3
2268.75,68.3,,49.6,59.0,13.3
2277.0,64.7,,52.8,58.8,8.4
2285.25,62.3,,56.0,59.1,4.5
2293.5,60.2,,53.0,56.6,5.1
2301.75,58.2,,50.0,54.1,5.8
2310.0,56.4,,49.0,52.7,5.3
2318.25,55.7,,50.4,53.0,3.8
2326.5,54.0,,50.4,52.2,2.5
2334.75,53.9,,50.8,52.4,2.2
2343.0,52.9,,51.0,51.9,1.4
2351.25,50.8,,49.5,50.2,0.9
2359.5,51.0,,51.2,51.1,0.1
2367.75,51.9,,49.3,50.6,1.9
2376.0,52.1,,49.4,50.8,1.9
2384.25,50.0,,49.5,49.8,0.4
2392.5,48.8,,49.0,48.9,0.1
2400.75,50.6,,48.7,49.6,1.4
2409.0,48.0,,47.9,47.9,0.1
2417.25,47.8,,47.0,47.4,0.6
2425.5,47.3,,46.4,46.9,0.6
2433.75,46.6,,,46.6,
2442.0,47.3,,,47.3,
2450.25,48.4,,,48.4,
2458.5,50.4,,,50.4,
2459.25,50.3,,,50.3,