File: 01_Data/Straw/MCC/Straw_MCC_30K_min_220317_R2.txt
Sample ID:	C:\MCC\MCC Cal\Test\Straw_MCC_30K_220317_R2.txt
Sample Weight (mg):	4.59
Heating Rate (C/s):	0.5
Combustor Temp (C):	900
N2 Flow Rate (cc/min):	80
O2 Flow Rate (cc/min):	20
Calibration File:	C:\MCC\MCC Cal\Coeff1 JN10440_30_210304.txt.txt
T Correction Coefficients:	0	1.024463	0
Time Shift (s):	14
*
Time (s)	Temperature (C)	N2 flow rate (cc/min)	O2 flow rate (cc/min)	Flow Rate (cc/min)	Oxygen (%)	HRR (W/g)	Heating rate (C/s)
0.000	107.991	80.009	19.992	103.600	20.024	-0.064	0.031
8.000	108.161	79.998	19.997	103.648	20.022	0.055	0.036
15.999	108.405	79.991	19.994	103.703	20.018	0.336	0.059
23.999	108.726	79.994	19.993	103.698	20.015	0.526	0.079
32.000	109.190	79.999	19.995	103.694	20.015	0.534	0.071
39.999	109.663	79.996	19.996	103.781	20.010	0.869	0.080
47.999	110.446	79.995	19.996	103.819	19.994	2.008	0.126
55.999	111.707	79.997	19.993	103.842	19.987	2.495	0.184
64.000	113.306	80.004	19.994	103.876	19.980	2.980	0.224
71.999	115.342	80.009	19.994	103.881	19.978	3.126	0.283
79.999	117.673	80.006	19.993	103.903	19.981	2.937	0.304
88.000	120.362	80.002	19.995	103.887	19.978	3.151	0.382
95.999	123.359	79.993	19.996	103.901	19.978	3.186	0.390
103.999	126.489	80.000	19.996	103.891	19.980	3.025	0.391
112.000	129.793	80.003	19.994	103.890	19.974	3.415	0.428
119.999	133.238	79.998	19.996	103.888	19.973	3.531	0.413
127.999	136.796	79.997	19.996	103.886	19.976	3.317	0.456
136.000	140.473	79.993	19.997	103.891	19.977	3.210	0.458
144.000	144.345	80.001	19.995	103.887	19.974	3.417	0.509
152.000	148.176	80.001	19.995	103.890	19.972	3.593	0.500
160.000	152.120	80.002	19.994	103.888	19.977	3.223	0.515
168.000	155.968	79.987	19.995	103.888	19.979	3.113	0.488
176.000	159.969	80.005	19.995	103.877	19.979	3.109	0.485
184.000	163.909	80.002	19.995	103.855	19.978	3.140	0.474
192.000	167.931	79.999	19.996	103.854	19.979	3.060	0.476
200.000	171.875	80.001	19.996	103.847	19.975	3.330	0.469
208.000	175.831	79.995	19.995	103.855	19.975	3.347	0.518
216.000	179.746	80.000	19.996	103.860	19.975	3.349	0.462
224.000	183.669	79.998	19.995	103.851	19.974	3.463	0.504
232.000	187.680	80.004	19.993	103.851	19.970	3.739	0.521
240.000	191.661	80.002	19.993	103.845	19.968	3.862	0.524
248.000	195.572	80.002	19.994	103.846	19.964	4.132	0.478
256.000	199.509	80.001	19.993	103.846	19.962	4.312	0.478
264.000	203.422	80.003	19.995	103.848	19.950	5.130	0.469
272.000	207.372	80.004	19.993	103.852	19.943	5.610	0.500
280.000	211.253	79.999	19.996	103.850	19.936	6.119	0.487
288.000	215.194	80.001	19.997	103.851	19.924	6.964	0.481
296.000	219.144	80.002	19.994	103.853	19.911	7.871	0.469
304.000	223.087	80.002	19.995	103.849	19.900	8.690	0.512
312.000	227.006	79.999	19.996	103.847	19.884	9.809	0.515
320.000	231.002	80.001	19.995	103.861	19.873	10.561	0.527
328.000	234.912	80.001	19.994	103.868	19.860	11.487	0.494
336.000	238.901	79.999	19.997	103.868	19.851	12.146	0.506
344.000	242.804	79.998	19.995	103.864	19.842	12.791	0.488
352.000	246.753	80.000	19.993	103.866	19.831	13.528	0.493
360.000	250.768	80.000	19.995	103.862	19.827	13.837	0.505
368.000	254.743	80.000	19.995	103.863	19.818	14.443	0.478
376.000	258.726	80.001	19.997	103.882	19.805	15.383	0.478
384.000	262.731	79.999	19.997	103.884	19.791	16.394	0.492
392.000	266.711	79.995	20.001	103.888	19.774	17.588	0.523
400.000	270.777	79.998	19.994	103.902	19.746	19.540	0.527
408.000	274.800	80.001	19.993	103.923	19.715	21.731	0.528
416.000	278.798	80.001	19.995	103.945	19.675	24.537	0.484
424.000	282.829	80.000	19.995	103.967	19.625	28.138	0.550
432.000	286.753	80.000	19.998	103.985	19.572	31.874	0.439
440.000	290.807	79.999	19.997	104.019	19.511	36.189	0.503
448.000	294.842	80.001	19.996	104.044	19.450	40.548	0.521
456.000	298.803	80.003	19.993	104.073	19.383	45.238	0.510
464.000	302.836	79.998	19.996	104.086	19.316	50.038	0.525
472.000	306.846	80.000	19.996	104.111	19.251	54.645	0.511
480.000	310.832	80.001	19.996	104.124	19.197	58.452	0.536
488.000	314.908	80.004	19.993	104.122	19.159	61.106	0.550
496.000	318.899	79.996	19.997	104.110	19.141	62.379	0.505
504.000	322.893	80.001	19.995	104.082	19.156	61.275	0.496
512.000	326.850	80.000	19.993	104.030	19.215	57.076	0.490
520.000	330.925	80.000	19.991	103.961	19.322	49.487	0.501
528.000	334.971	80.001	19.995	103.887	19.462	39.540	0.491
536.000	338.991	80.000	19.994	103.822	19.611	29.012	0.509
544.000	342.950	79.999	19.997	103.809	19.724	21.057	0.495
552.000	346.948	80.003	19.990	103.798	19.799	15.744	0.538
560.000	350.990	79.999	19.996	103.775	19.846	12.452	0.508
568.000	354.998	80.000	19.991	103.772	19.870	10.763	0.521
576.000	359.047	79.999	19.997	103.781	19.884	9.756	0.528
584.000	363.061	80.000	19.993	103.777	19.894	9.073	0.505
592.000	367.059	80.005	19.991	103.771	19.903	8.436	0.472
600.000	371.029	79.995	20.002	103.774	19.911	7.885	0.473
608.000	375.108	79.994	20.000	103.773	19.913	7.707	0.480
616.000	379.085	80.001	19.993	103.773	19.916	7.495	0.497
624.000	383.093	80.003	19.992	103.769	19.921	7.173	0.484
632.000	387.128	80.001	19.994	103.769	19.925	6.893	0.486
640.000	391.161	80.002	19.994	103.769	19.927	6.750	0.532
648.000	395.175	80.004	19.995	103.764	19.933	6.359	0.466
656.000	399.185	80.000	19.994	103.766	19.933	6.359	0.534
664.000	403.216	80.000	19.994	103.772	19.936	6.126	0.507
672.000	407.190	80.002	19.993	103.774	19.933	6.318	0.504
680.000	411.231	80.000	19.995	103.772	19.938	5.952	0.480
688.000	415.184	79.998	19.994	103.752	19.942	5.662	0.478
696.000	419.247	80.002	19.994	103.757	19.940	5.843	0.499
704.000	423.288	80.000	19.996	103.753	19.941	5.752	0.500
712.000	427.255	80.003	19.993	103.763	19.942	5.693	0.494
720.000	431.204	80.002	19.993	103.749	19.945	5.507	0.443
728.000	435.222	80.003	19.995	103.748	19.944	5.537	0.511
736.000	439.207	80.000	19.994	103.755	19.946	5.374	0.483
744.000	443.197	80.000	19.994	103.753	19.947	5.356	0.498
752.000	447.206	80.001	19.995	103.734	19.946	5.401	0.503
760.000	451.235	80.001	19.995	103.751	19.949	5.190	0.519
768.000	455.339	80.001	19.995	103.760	19.948	5.265	0.547
776.000	459.490	80.001	19.995	103.756	19.950	5.112	0.542
784.000	463.657	80.001	19.995	103.763	19.950	5.103	0.505
792.000	467.905	80.003	19.993	103.748	19.951	5.049	0.541
800.000	472.133	80.001	19.993	103.747	19.953	4.906	0.518
808.000	476.483	80.002	19.994	103.750	19.957	4.638	0.564
816.000	480.761	80.003	19.996	103.741	19.960	4.384	0.525
824.000	485.057	80.002	19.995	103.733	19.958	4.556	0.507
832.000	489.328	80.002	19.995	103.732	19.958	4.548	0.526
840.000	493.528	80.003	19.995	103.735	19.957	4.650	0.500
848.000	497.778	80.002	19.995	103.734	19.961	4.354	0.518
856.000	501.948	80.001	19.996	103.737	19.962	4.249	0.526
864.000	506.002	80.002	19.994	103.736	19.961	4.335	0.522
872.000	510.078	80.001	19.996	103.746	19.962	4.306	0.478
880.000	514.159	80.002	19.997	103.731	19.961	4.343	0.522
888.000	518.243	80.005	19.995	103.731	19.965	4.075	0.498
896.000	522.371	80.002	19.995	103.730	19.964	4.131	0.527
904.000	526.502	80.002	19.994	103.729	19.964	4.124	0.542
912.000	530.512	80.001	19.995	103.732	19.966	3.971	0.467
920.000	534.654	80.002	19.994	103.734	19.970	3.705	0.528
928.000	538.728	80.003	19.995	103.737	19.967	3.912	0.495
936.000	542.769	80.001	19.998	103.740	19.966	4.026	0.504
944.000	546.883	80.003	19.997	103.730	19.967	3.916	0.535
952.000	550.991	80.003	19.994	103.730	19.964	4.155	0.491
960.000	555.155	80.002	19.997	103.732	19.962	4.284	0.523
968.000	559.221	80.005	19.996	103.727	19.963	4.180	0.526
976.000	563.296	80.004	19.995	103.732	19.960	4.389	0.510
984.000	567.401	80.001	19.994	103.733	19.959	4.499	0.506
992.000	571.467	80.002	19.995	103.733	19.960	4.417	0.508
1000.000	575.637	80.001	19.995	103.734	19.962	4.284	0.542
1008.000	579.729	80.002	19.995	103.731	19.962	4.262	0.524
1016.000	583.875	80.002	19.994	103.728	19.959	4.466	0.519
1024.000	587.983	80.004	19.995	103.729	19.959	4.462	0.478
1032.000	592.121	80.001	19.996	103.727	19.959	4.456	0.501
1039.999	596.241	80.003	19.995	103.728	19.963	4.214	0.531
1047.999	600.348	80.002	19.994	103.732	19.958	4.567	0.524
1055.999	604.416	80.003	19.998	103.728	19.960	4.413	0.515
1063.999	608.437	80.000	19.995	103.733	19.957	4.606	0.516
1072.001	612.521	80.000	19.995	103.729	19.962	4.297	0.502
1079.999	616.612	80.004	19.994	103.729	19.956	4.698	0.509
1088.000	620.734	80.002	19.995	103.730	19.959	4.519	0.503
1096.000	624.853	80.001	19.994	103.728	19.957	4.620	0.528
1103.999	628.927	80.005	19.993	103.734	19.958	4.561	0.538
1111.999	633.027	80.002	19.993	103.734	19.955	4.771	0.504
1119.999	637.111	80.002	19.996	103.733	19.959	4.495	0.500
1127.999	641.219	80.003	19.994	103.733	19.952	4.970	0.499
1135.999	645.283	80.005	19.995	103.727	19.953	4.880	0.513
1144.000	649.403	80.001	19.995	103.731	19.955	4.773	0.520
1151.999	653.473	80.001	19.996	103.729	19.957	4.630	0.497
1160.000	657.609	80.002	19.995	103.730	19.953	4.935	0.511
1167.999	661.755	80.001	19.994	103.727	19.954	4.867	0.527
1175.999	665.839	80.002	19.999	103.738	19.949	5.187	0.499
1183.999	669.979	80.002	19.995	103.733	19.950	5.152	0.487
1192.000	674.084	80.002	19.995	103.733	19.947	5.320	0.511
1200.000	678.221	80.003	19.994	103.731	19.949	5.177	0.503
1207.999	682.338	80.004	19.995	103.729	19.947	5.353	0.517
1216.000	686.364	80.003	19.994	103.719	19.952	4.956	0.517
1223.999	690.454	80.002	19.995	103.721	19.948	5.238	0.517
1231.999	694.602	80.001	19.995	103.730	19.946	5.404	0.512
1239.999	698.725	80.001	19.996	103.719	19.944	5.572	0.537
1248.000	702.780	80.001	19.995	103.731	19.946	5.392	0.470
1255.999	706.850	80.002	19.994	103.733	19.949	5.160	0.521
1264.000	710.936	80.002	19.995	103.728	19.945	5.492	0.530
1272.000	714.874	80.003	19.995	103.724	19.943	5.592	0.485
1279.999	718.892	80.002	19.995	103.729	19.944	5.574	0.483
1288.000	722.885	80.003	19.995	103.727	19.946	5.429	0.494
1295.999	726.879	80.003	19.997	103.731	19.944	5.558	0.522
1304.000	730.884	80.001	19.995	103.730	19.940	5.828	0.503
1311.999	734.960	80.000	19.995	103.733	19.941	5.782	0.524
1320.000	738.961	80.002	19.994	103.736	19.938	6.000	0.524
1328.000	743.049	80.002	19.996	103.724	19.936	6.096	0.519
1328.499	743.300	80.002	19.995	103.724	19.936	6.129	0.512