File: 01_Data/Straw/MCC/Straw_MCC_30K_min_220317_R1.txt
Sample ID:	C:\MCC\MCC Cal\Test\Straw_MCC_30K_220317_R1.txt
Sample Weight (mg):	4.54
Heating Rate (C/s):	0.5
Combustor Temp (C):	900
N2 Flow Rate (cc/min):	80
O2 Flow Rate (cc/min):	20
Calibration File:	C:\MCC\MCC Cal\Coeff1 JN10440_30_210304.txt.txt
T Correction Coefficients:	0	1.024463	0
Time Shift (s):	14
*
Time (s)	Temperature (C)	N2 flow rate (cc/min)	O2 flow rate (cc/min)	Flow Rate (cc/min)	Oxygen (%)	HRR (W/g)	Heating rate (C/s)
0.000	106.432	80.004	19.994	103.576	20.033	0.032	0.013
8.000	106.406	79.998	19.996	103.594	20.028	0.391	0.025
16.000	106.518	80.001	19.996	103.636	20.021	0.882	0.021
24.000	106.839	80.003	19.994	103.745	20.004	2.043	0.064
32.000	107.677	80.001	19.996	103.776	20.000	2.387	0.164
40.000	108.987	80.001	19.996	103.811	19.990	3.044	0.182
48.000	110.659	80.002	19.995	103.779	19.991	2.999	0.204
56.000	112.603	80.002	19.994	103.785	19.987	3.302	0.245
64.000	114.829	80.000	19.994	103.810	19.989	3.130	0.275
72.000	117.284	80.004	19.994	103.809	19.986	3.350	0.351
80.000	119.971	80.001	19.996	103.827	19.978	3.946	0.347
88.000	122.945	80.001	19.995	103.838	19.979	3.897	0.413
96.000	126.038	80.002	19.995	103.848	19.977	4.011	0.386
104.000	129.408	80.002	19.995	103.850	19.982	3.667	0.446
112.000	132.889	80.001	19.995	103.849	19.976	4.091	0.432
120.000	136.514	80.000	19.994	103.847	19.976	4.110	0.491
128.000	140.254	80.003	19.995	103.846	19.975	4.164	0.474
136.000	143.994	80.001	19.995	103.833	19.977	3.979	0.474
144.000	147.881	80.002	19.995	103.838	19.980	3.773	0.512
152.000	151.826	80.003	19.995	103.840	19.978	3.920	0.477
160.000	155.732	80.001	19.995	103.819	19.975	4.131	0.472
168.000	159.677	80.002	19.995	103.825	19.979	3.866	0.507
176.000	163.593	80.001	19.995	103.822	19.974	4.240	0.520
184.000	167.584	80.002	19.995	103.817	19.977	3.982	0.509
192.000	171.560	80.002	19.995	103.813	19.975	4.137	0.485
200.000	175.471	80.001	19.994	103.817	19.974	4.245	0.467
208.001	179.375	80.002	19.995	103.808	19.968	4.665	0.462
216.000	183.353	80.001	19.995	103.742	19.971	4.439	0.483
224.000	187.368	80.001	19.995	103.807	19.967	4.698	0.494
232.000	191.271	80.003	19.995	103.808	19.962	5.098	0.496
240.000	195.260	80.002	19.994	103.809	19.959	5.268	0.504
248.000	199.213	80.000	19.994	103.811	19.956	5.466	0.490
256.000	203.150	80.000	19.995	103.812	19.949	6.010	0.484
264.000	207.131	80.002	19.994	103.802	19.942	6.491	0.517
272.000	211.071	80.001	19.995	103.810	19.930	7.359	0.474
280.000	215.025	80.001	19.995	103.815	19.916	8.336	0.512
288.000	218.929	80.003	19.994	103.808	19.907	8.987	0.492
296.000	222.852	80.001	19.995	103.814	19.893	9.974	0.495
304.000	226.788	80.002	19.995	103.828	19.877	11.130	0.492
312.000	230.755	80.003	19.994	103.814	19.867	11.873	0.481
320.000	234.719	80.001	19.996	103.821	19.859	12.444	0.514
328.000	238.672	80.002	19.994	103.842	19.851	12.988	0.483
336.000	242.657	80.001	19.995	103.832	19.839	13.887	0.521
344.000	246.724	80.002	19.996	103.839	19.831	14.390	0.505
352.000	250.737	80.002	19.994	103.839	19.822	15.079	0.498
360.000	254.729	80.000	19.995	103.822	19.815	15.588	0.498
368.000	258.690	80.001	19.995	103.839	19.810	15.959	0.508
376.000	262.700	80.002	19.996	103.850	19.789	17.418	0.505
384.000	266.760	80.003	19.995	103.855	19.770	18.786	0.550
392.000	270.770	80.006	19.993	103.860	19.749	20.279	0.519
400.000	274.753	80.001	19.994	103.886	19.714	22.806	0.464
408.000	278.732	80.000	19.997	103.905	19.675	25.581	0.466
416.000	282.685	80.002	19.995	103.927	19.630	28.791	0.498
424.000	286.684	80.003	19.995	103.961	19.575	32.747	0.508
432.000	290.703	80.002	19.994	103.989	19.519	36.748	0.521
440.000	294.693	80.001	19.995	104.008	19.455	41.328	0.535
448.000	298.707	80.005	19.995	104.024	19.394	45.665	0.496
456.000	302.735	80.003	19.993	104.041	19.333	50.096	0.505
464.000	306.721	80.004	19.994	104.049	19.276	54.130	0.491
472.000	310.728	80.003	19.996	104.061	19.232	57.324	0.484
480.000	314.824	80.001	19.996	104.056	19.204	59.299	0.525
488.000	318.764	80.000	19.995	104.049	19.193	60.062	0.506
496.000	322.690	80.001	19.995	104.031	19.205	59.202	0.514
504.000	326.668	80.001	19.996	103.993	19.251	55.871	0.469
512.000	330.694	79.998	19.994	103.929	19.332	50.015	0.522
520.000	334.731	80.003	19.993	103.856	19.453	41.398	0.511
528.000	338.766	80.004	19.994	103.804	19.587	31.815	0.507
536.000	342.780	80.000	19.995	103.769	19.708	23.186	0.496
544.000	346.777	80.001	19.995	103.745	19.788	17.494	0.496
552.000	350.793	80.004	19.993	103.745	19.840	13.765	0.511
560.000	354.823	80.003	19.995	103.749	19.868	11.790	0.471
568.000	358.791	80.001	19.995	103.744	19.890	10.182	0.492
576.000	362.788	80.000	19.994	103.733	19.900	9.487	0.495
584.000	366.772	80.001	19.994	103.728	19.909	8.875	0.514
592.000	370.774	80.000	19.996	103.745	19.916	8.375	0.481
600.000	374.793	80.002	19.994	103.728	19.921	7.998	0.469
608.000	378.826	80.000	19.995	103.733	19.922	7.931	0.527
616.000	382.842	80.003	19.994	103.727	19.930	7.342	0.539
624.000	386.811	80.002	19.996	103.731	19.933	7.102	0.515
632.000	390.833	80.001	19.994	103.731	19.941	6.545	0.493
640.000	394.863	80.002	19.993	103.724	19.941	6.535	0.495
648.000	398.888	80.000	19.995	103.729	19.946	6.197	0.488
656.000	402.853	80.001	19.995	103.732	19.951	5.825	0.484
664.000	406.844	80.000	19.995	103.729	19.953	5.721	0.490
672.000	410.861	80.000	19.995	103.717	19.956	5.525	0.526
680.000	414.802	80.001	19.996	103.731	19.955	5.544	0.470
688.000	418.829	80.001	19.995	103.730	19.958	5.351	0.501
696.000	422.858	80.000	19.993	103.716	19.965	4.831	0.506
704.000	426.915	80.002	19.994	103.717	19.960	5.200	0.494
712.000	430.976	80.003	19.994	103.741	19.966	4.806	0.507
720.000	435.002	80.001	19.994	103.710	19.967	4.725	0.544
728.000	439.040	80.000	19.994	103.709	19.966	4.801	0.535
736.000	443.104	80.000	19.994	103.674	19.963	4.986	0.491
744.000	447.119	80.000	19.995	103.714	19.972	4.385	0.455
752.000	451.233	79.999	19.995	103.704	19.970	4.464	0.484
760.000	455.316	80.002	19.994	103.720	19.973	4.271	0.492
768.000	459.392	80.001	19.995	103.696	19.970	4.515	0.503
776.000	463.426	80.001	19.994	103.692	19.968	4.618	0.512
784.000	467.370	80.003	19.994	103.693	19.976	4.093	0.490
792.000	471.312	80.004	19.994	103.696	19.976	4.104	0.492
800.000	475.374	79.999	19.995	103.710	19.979	3.842	0.523
808.000	479.352	80.001	19.995	103.697	19.978	3.956	0.517
816.000	483.406	80.002	19.995	103.698	19.982	3.648	0.532
824.000	487.423	80.001	19.993	103.702	19.980	3.762	0.513
832.000	491.524	80.002	19.995	103.692	19.985	3.415	0.532
840.000	495.696	80.002	19.995	103.697	19.985	3.423	0.526
848.000	499.791	80.001	19.995	103.692	19.985	3.445	0.520
856.000	503.942	80.001	19.994	103.698	19.982	3.612	0.519
864.000	508.191	80.002	19.995	103.697	19.987	3.290	0.534
872.000	512.423	80.002	19.994	103.691	19.988	3.201	0.495
880.000	516.657	80.000	19.994	103.695	19.987	3.312	0.525
888.000	520.787	80.002	19.995	103.698	19.988	3.237	0.515
896.000	524.814	80.000	19.994	103.692	19.984	3.472	0.491
904.000	528.847	80.000	19.995	103.693	19.991	2.996	0.520
912.000	532.822	80.001	19.996	103.692	19.989	3.156	0.518
920.000	536.761	80.002	19.994	103.701	19.990	3.037	0.466
928.000	540.792	80.002	19.995	103.695	19.988	3.197	0.517
936.000	544.890	80.001	19.995	103.703	19.989	3.124	0.514
944.000	549.163	80.003	19.994	103.705	19.989	3.112	0.551
952.000	553.532	80.002	19.995	103.694	19.988	3.183	0.577
960.000	557.872	80.001	19.995	103.691	19.990	3.057	0.557
968.000	562.272	80.003	19.994	103.692	19.991	3.019	0.572
976.000	566.546	80.003	19.997	103.696	19.992	2.911	0.524
984.000	570.926	80.001	19.994	103.691	19.987	3.255	0.558
992.000	575.268	80.002	19.995	103.694	19.983	3.594	0.570
1000.000	579.571	80.004	19.994	103.694	19.987	3.312	0.528
1008.000	583.769	80.002	19.995	103.688	19.986	3.385	0.503
1016.000	587.937	80.002	19.994	103.694	19.989	3.130	0.490
1024.000	592.124	80.004	19.995	103.691	19.986	3.345	0.480
1032.001	596.289	80.002	19.995	103.690	19.986	3.353	0.508
1040.000	600.439	80.000	19.996	103.689	19.988	3.248	0.522
1048.000	604.430	80.002	19.994	103.691	19.988	3.199	0.497
1056.000	608.426	80.001	19.996	103.689	19.991	3.031	0.531
1064.001	612.486	80.001	19.995	103.692	19.987	3.262	0.529
1072.000	616.615	80.001	19.994	103.686	19.989	3.167	0.515
1080.000	620.708	80.002	19.994	103.693	19.993	2.828	0.502
1088.000	624.909	80.003	19.994	103.689	19.987	3.260	0.527
1096.000	629.069	80.003	19.993	103.685	19.992	2.911	0.548
1104.001	633.224	80.004	19.994	103.667	19.992	2.912	0.535
1112.000	637.367	80.001	19.996	103.687	19.988	3.201	0.516
1120.000	641.517	80.000	19.994	103.697	19.989	3.173	0.539
1128.000	645.567	80.000	19.995	103.692	19.990	3.052	0.521
1136.000	649.660	80.001	19.995	103.684	19.991	2.976	0.498
1144.000	653.795	80.000	19.995	103.678	19.994	2.821	0.524
1152.000	657.872	80.002	19.995	103.681	19.994	2.790	0.504
1160.000	661.935	80.003	19.995	103.679	19.985	3.441	0.470
1168.000	665.991	80.003	19.994	103.656	19.989	3.117	0.505
1176.000	669.935	80.001	19.996	103.662	19.987	3.282	0.574
1184.000	673.940	80.004	19.993	103.677	19.988	3.244	0.547
1192.000	677.962	80.002	19.995	103.683	19.988	3.207	0.484
1200.000	682.039	80.000	19.994	103.676	19.987	3.272	0.515
1208.000	686.069	80.002	19.995	103.662	19.985	3.414	0.492
1216.001	690.133	80.001	19.995	103.672	19.990	3.060	0.542
1224.000	694.142	80.001	19.996	103.683	19.989	3.122	0.472
1232.001	698.418	80.002	19.996	103.656	19.988	3.246	0.829
1240.000	702.189	80.004	19.994	103.677	19.981	3.714	0.500
1248.000	706.135	80.002	19.994	103.669	19.987	3.313	0.513
1256.001	710.105	80.003	19.994	103.674	19.989	3.165	0.499
1264.001	714.038	80.004	19.993	103.678	19.988	3.240	0.494
1272.000	718.091	80.003	19.995	103.690	19.989	3.127	0.500
1280.000	721.970	80.002	19.995	103.686	19.988	3.240	0.456
1288.000	725.924	80.004	19.995	103.673	19.989	3.124	0.498
1296.000	729.908	80.002	19.996	103.685	19.991	3.019	0.521
1304.000	733.831	80.001	19.995	103.674	19.988	3.228	0.491
1312.000	737.781	80.002	19.996	103.688	19.989	3.161	0.488
1320.001	741.787	80.004	19.995	103.670	19.994	2.756	0.482
1323.500	743.597	80.002	19.995	103.662	19.992	2.926	0.527