File: 01_Data/Polyester_Bed_Skirt/FTIR/IS/Polyester_Bed_Skirt_IS_T_220822_R5.dpt
7497.03,0.01377
7473.89,0.01618
7450.74,0.02411
7427.6,0.02178
7404.45,0.02248
7381.31,0.02435
7358.16,0.02823
7335.02,0.03007
7311.87,0.02952
7288.73,0.01893
7265.58,0.01680
7242.44,0.02240
7219.29,0.02286
7196.15,0.01690
7173,0.02112
7149.86,0.02147
7126.71,0.02087
7103.57,0.02572
7080.42,0.02145
7057.28,0.01835
7034.13,0.01994
7010.99,0.01771
6987.84,0.01498
6964.7,0.01708
6941.55,0.01541
6918.41,0.01682
6895.26,0.02028
6872.12,0.01632
6848.97,0.02130
6825.83,0.01851
6802.68,0.01414
6779.54,0.02193
6756.39,0.02188
6733.25,0.02378
6710.1,0.01700
6686.96,0.02569
6663.82,0.01960
6640.67,0.02130
6617.53,0.01588
6594.38,0.01915
6571.24,0.02094
6548.09,0.01942
6524.95,0.02129
6501.8,0.02217
6478.66,0.02076
6455.51,0.01873
6432.37,0.02001
6409.22,0.02036
6386.08,0.02085
6362.93,0.02227
6339.79,0.01911
6316.64,0.02049
6293.5,0.01339
6270.35,0.01859
6247.21,0.02112
6224.06,0.01766
6200.92,0.02072
6177.77,0.01838
6154.63,0.01642
6131.48,0.02034
6108.34,0.02013
6085.19,0.01917
6062.05,0.02154
6038.9,0.02102
6015.76,0.01922
5992.61,0.01764
5969.47,0.01732
5946.32,0.02041
5923.18,0.01800
5900.03,0.01928
5876.89,0.02141
5853.74,0.01974
5830.6,0.01930
5807.45,0.02058
5784.31,0.01908
5761.16,0.01678
5738.02,0.02102
5714.87,0.01959
5691.73,0.02038
5668.58,0.01859
5645.44,0.01790
5622.29,0.01933
5599.15,0.01971
5576,0.02127
5552.86,0.01945
5529.71,0.01911
5506.57,0.01841
5483.42,0.01829
5460.28,0.01764
5437.13,0.01980
5413.99,0.01949
5390.84,0.01794
5367.7,0.01776
5344.55,0.01851
5321.41,0.02014
5298.26,0.01945
5275.12,0.01897
5251.97,0.01899
5228.83,0.02072
5205.68,0.02039
5182.54,0.01849
5159.39,0.01913
5136.25,0.02034
5113.1,0.01956
5089.96,0.01862
5066.81,0.01843
5043.67,0.01899
5020.52,0.01956
4997.38,0.01951
4974.23,0.01962
4951.09,0.01891
4927.94,0.01920
4904.8,0.01968
4881.65,0.01972
4858.51,0.01950
4835.36,0.01933
4812.22,0.01956
4789.07,0.01978
4765.93,0.01894
4742.78,0.01950
4719.64,0.01959
4696.49,0.01998
4673.35,0.01942
4650.2,0.01997
4627.06,0.02002
4603.92,0.01960
4580.77,0.01988
4557.63,0.01963
4534.48,0.01944
4511.34,0.02002
4488.19,0.01979
4465.05,0.01973
4441.9,0.01983
4418.76,0.01973
4395.61,0.01926
4372.47,0.01924
4349.32,0.02031
4326.18,0.01960
4303.03,0.01933
4279.89,0.01987
4256.74,0.01942
4233.6,0.01989
4210.45,0.01935
4187.31,0.02061
4164.16,0.01942
4141.02,0.01917
4117.87,0.01997
4094.73,0.02005
4071.58,0.01963
4048.44,0.01933
4025.29,0.01990
4002.15,0.01937
3979,0.01952
3955.86,0.02024
3932.71,0.01988
3909.57,0.01941
3886.42,0.02019
3863.28,0.01937
3840.13,0.02017
3816.99,0.01939
3793.84,0.01980
3770.7,0.01981
3747.55,0.01978
3724.41,0.01980
3701.26,0.01911
3678.12,0.01983
3654.97,0.01942
3631.83,0.01919
3608.68,0.01905
3585.54,0.01844
3562.39,0.01844
3539.25,0.01827
3516.1,0.01836
3492.96,0.01809
3469.81,0.01802
3446.67,0.01815
3423.52,0.01783
3400.38,0.01822
3377.23,0.01754
3354.09,0.01760
3330.94,0.01746
3307.8,0.01774
3284.65,0.01769
3261.51,0.01754
3238.36,0.01763
3215.22,0.01832
3192.07,0.01759
3168.93,0.01848
3145.78,0.01787
3122.64,0.01818
3099.49,0.01778
3076.35,0.01793
3053.2,0.01766
3030.06,0.01762
3006.91,0.01759
2983.77,0.01728
2960.62,0.01664
2937.48,0.01655
2914.33,0.01722
2891.19,0.01782
2868.04,0.01776
2844.9,0.01810
2821.75,0.01840
2798.61,0.01855
2775.46,0.01818
2752.32,0.01848
2729.17,0.01840
2706.03,0.01877
2682.88,0.01797
2659.74,0.01828
2636.59,0.01855
2613.45,0.01837
2590.3,0.01839
2567.16,0.01845
2544.02,0.01839
2520.87,0.01861
2497.73,0.01837
2474.58,0.01788
2451.44,0.01842
2428.29,0.01812
2405.15,0.01839
2382,0.01858
2358.86,0.01815
2335.71,0.01857
2312.57,0.01805
2289.42,0.01841
2266.28,0.01823
2243.13,0.01847
2219.99,0.01841
2196.84,0.01806
2173.7,0.01819
2150.55,0.01792
2127.41,0.01804
2104.26,0.01805
2081.12,0.01812
2057.97,0.01811
2034.83,0.01804
2011.68,0.01806
1988.54,0.01833
1965.39,0.01801
1942.25,0.01788
1919.1,0.01807
1895.96,0.01795
1872.81,0.01766
1849.67,0.01740
1826.52,0.01709
1803.38,0.01727
1780.23,0.01620
1757.09,0.01475
1733.94,0.01706
1710.8,0.01779
1687.65,0.01629
1664.51,0.01571
1641.36,0.01575
1618.22,0.01634
1595.07,0.01587
1571.93,0.01526
1548.78,0.01576
1525.64,0.01553
1502.49,0.01589
1479.35,0.01579
1456.2,0.01614
1433.06,0.01591
1409.91,0.01576
1386.77,0.01546
1363.62,0.01574
1340.48,0.01514
1317.33,0.01442
1294.19,0.01518
1271.04,0.01642
1247.9,0.01751
1224.75,0.01658
1201.61,0.01596
1178.46,0.01519
1155.32,0.01476
1132.17,0.01576
1109.03,0.01615
1085.88,0.01540
1062.74,0.01755
1039.59,0.01725
1016.45,0.01716
993.304,0.01843
970.159,0.01739
947.014,0.01677
923.869,0.01664
900.724,0.01641
877.579,0.01597
854.434,0.01607
831.289,0.01670
808.144,0.01602
784.999,0.01626
761.854,0.01551
738.709,0.01607
715.565,0.01494
692.42,0.01542
669.275,0.01534
646.13,0.01307
622.985,0.01392
599.84,0.01301