File: 01_Data/Polyester_Bed_Skirt/FTIR/IS/Polyester_Bed_Skirt_IS_S_220822_R2.dpt
7497.03,0.31435
7473.89,0.31522
7450.74,0.32030
7427.6,0.32572
7404.45,0.31393
7381.31,0.31760
7358.16,0.31612
7335.02,0.31733
7311.87,0.31114
7288.73,0.31457
7265.58,0.31021
7242.44,0.31359
7219.29,0.30183
7196.15,0.30748
7173,0.30891
7149.86,0.31067
7126.71,0.30590
7103.57,0.30288
7080.42,0.31937
7057.28,0.31568
7034.13,0.31169
7010.99,0.31370
6987.84,0.31320
6964.7,0.31121
6941.55,0.31652
6918.41,0.30696
6895.26,0.31359
6872.12,0.31243
6848.97,0.30969
6825.83,0.31209
6802.68,0.31201
6779.54,0.31403
6756.39,0.31732
6733.25,0.31051
6710.1,0.30654
6686.96,0.30902
6663.82,0.31244
6640.67,0.31748
6617.53,0.31021
6594.38,0.30873
6571.24,0.30922
6548.09,0.31265
6524.95,0.31099
6501.8,0.31367
6478.66,0.31131
6455.51,0.31078
6432.37,0.30929
6409.22,0.31253
6386.08,0.31367
6362.93,0.31272
6339.79,0.31276
6316.64,0.31148
6293.5,0.31124
6270.35,0.30689
6247.21,0.30689
6224.06,0.30750
6200.92,0.30810
6177.77,0.30755
6154.63,0.30837
6131.48,0.30657
6108.34,0.30760
6085.19,0.30760
6062.05,0.30469
6038.9,0.30433
6015.76,0.30648
5992.61,0.30472
5969.47,0.30360
5946.32,0.30346
5923.18,0.28855
5900.03,0.27458
5876.89,0.26778
5853.74,0.25591
5830.6,0.26656
5807.45,0.25938
5784.31,0.25905
5761.16,0.25907
5738.02,0.27156
5714.87,0.27643
5691.73,0.27775
5668.58,0.27803
5645.44,0.27929
5622.29,0.28030
5599.15,0.28482
5576,0.28447
5552.86,0.28577
5529.71,0.28264
5506.57,0.28237
5483.42,0.28385
5460.28,0.28420
5437.13,0.28457
5413.99,0.28783
5390.84,0.29160
5367.7,0.29220
5344.55,0.29213
5321.41,0.29014
5298.26,0.29096
5275.12,0.29055
5251.97,0.29087
5228.83,0.29192
5205.68,0.29121
5182.54,0.29135
5159.39,0.29122
5136.25,0.29211
5113.1,0.28976
5089.96,0.28978
5066.81,0.29031
5043.67,0.29033
5020.52,0.29115
4997.38,0.29169
4974.23,0.29222
4951.09,0.29314
4927.94,0.29318
4904.8,0.29329
4881.65,0.29318
4858.51,0.29293
4835.36,0.29214
4812.22,0.29082
4789.07,0.29183
4765.93,0.29158
4742.78,0.29214
4719.64,0.29271
4696.49,0.29227
4673.35,0.29113
4650.2,0.29033
4627.06,0.28845
4603.92,0.28739
4580.77,0.28556
4557.63,0.28365
4534.48,0.28344
4511.34,0.28297
4488.19,0.28135
4465.05,0.27668
4441.9,0.26511
4418.76,0.22873
4395.61,0.18811
4372.47,0.20184
4349.32,0.19857
4326.18,0.14642
4303.03,0.16240
4279.89,0.17592
4256.74,0.16568
4233.6,0.15933
4210.45,0.17114
4187.31,0.18602
4164.16,0.17698
4141.02,0.18964
4117.87,0.18524
4094.73,0.19790
4071.58,0.17675
4048.44,0.18220
4025.29,0.20332
4002.15,0.21123
3979,0.21783
3955.86,0.22346
3932.71,0.22050
3909.57,0.22684
3886.42,0.22873
3863.28,0.23200
3840.13,0.23603
3816.99,0.23406
3793.84,0.23593
3770.7,0.23341
3747.55,0.23682
3724.41,0.24078
3701.26,0.24160
3678.12,0.24602
3654.97,0.25623
3631.83,0.25146
3608.68,0.25748
3585.54,0.25371
3562.39,0.25617
3539.25,0.25362
3516.1,0.25006
3492.96,0.24697
3469.81,0.24172
3446.67,0.23178
3423.52,0.22076
3400.38,0.21965
3377.23,0.21657
3354.09,0.20787
3330.94,0.20762
3307.8,0.17655
3284.65,0.18932
3261.51,0.20468
3238.36,0.20126
3215.22,0.17126
3192.07,0.15597
3168.93,0.16214
3145.78,0.15652
3122.64,0.16478
3099.49,0.16745
3076.35,0.16290
3053.2,0.15071
3030.06,0.13266
3006.91,0.09022
2983.77,0.03623
2960.62,0.02931
2937.48,0.03014
2914.33,0.03705
2891.19,0.03440
2868.04,0.03369
2844.9,0.03386
2821.75,0.04953
2798.61,0.07699
2775.46,0.11740
2752.32,0.13053
2729.17,0.10215
2706.03,0.12325
2682.88,0.13259
2659.74,0.13350
2636.59,0.14631
2613.45,0.12266
2590.3,0.11771
2567.16,0.12100
2544.02,0.12283
2520.87,0.08204
2497.73,0.10892
2474.58,0.17625
2451.44,0.19539
2428.29,0.18764
2405.15,0.19626
2382,0.20077
2358.86,0.19894
2335.71,0.20935
2312.57,0.21967
2289.42,0.22218
2266.28,0.21351
2243.13,0.21814
2219.99,0.21769
2196.84,0.21269
2173.7,0.20956
2150.55,0.21046
2127.41,0.20905
2104.26,0.23553
2081.12,0.24063
2057.97,0.24567
2034.83,0.24366
2011.68,0.24480
1988.54,0.24360
1965.39,0.24174
1942.25,0.24203
1919.1,0.23605
1895.96,0.22917
1872.81,0.23363
1849.67,0.22476
1826.52,0.21074
1803.38,0.12517
1780.23,0.17039
1757.09,0.16718
1733.94,0.13946
1710.8,0.16432
1687.65,0.16514
1664.51,0.16581
1641.36,0.12275
1618.22,0.14963
1595.07,0.14754
1571.93,0.14752
1548.78,0.14127
1525.64,0.11514
1502.49,0.08214
1479.35,0.05235
1456.2,0.04004
1433.06,0.04767
1409.91,0.06102
1386.77,0.05672
1363.62,0.06493
1340.48,0.10574
1317.33,0.12288
1294.19,0.13189
1271.04,0.16405
1247.9,0.15824
1224.75,0.16766
1201.61,0.17375
1178.46,0.12956
1155.32,0.09666
1132.17,0.20772
1109.03,0.18383
1085.88,0.20829
1062.74,0.21233
1039.59,0.18245
1016.45,0.17273
993.304,0.09330
970.159,0.07586
947.014,0.19554
923.869,0.22917
900.724,0.14176
877.579,0.04807
854.434,0.16975
831.289,0.16917
808.144,0.12724
784.999,0.21877
761.854,0.24208
738.709,0.23579
715.565,0.07795
692.42,0.23668
669.275,0.24527
646.13,0.23789
622.985,0.22551
599.84,0.20519