File: 01_Data/Polyester_Bed_Skirt/FTIR/IS/Polyester_Bed_Skirt_IS_S_220822_R5.dpt
7497.03,0.31789
7473.89,0.31351
7450.74,0.31917
7427.6,0.31572
7404.45,0.31500
7381.31,0.31120
7358.16,0.30582
7335.02,0.30922
7311.87,0.30551
7288.73,0.31784
7265.58,0.31013
7242.44,0.31403
7219.29,0.30872
7196.15,0.31336
7173,0.30958
7149.86,0.31270
7126.71,0.31097
7103.57,0.30684
7080.42,0.30582
7057.28,0.30641
7034.13,0.30932
7010.99,0.31687
6987.84,0.31123
6964.7,0.30611
6941.55,0.31113
6918.41,0.31023
6895.26,0.30873
6872.12,0.30577
6848.97,0.30849
6825.83,0.31383
6802.68,0.30753
6779.54,0.31467
6756.39,0.31257
6733.25,0.31151
6710.1,0.30987
6686.96,0.31077
6663.82,0.31115
6640.67,0.31237
6617.53,0.31052
6594.38,0.31508
6571.24,0.31212
6548.09,0.30959
6524.95,0.31014
6501.8,0.31163
6478.66,0.31012
6455.51,0.31125
6432.37,0.31225
6409.22,0.31081
6386.08,0.30904
6362.93,0.31197
6339.79,0.31080
6316.64,0.31004
6293.5,0.30844
6270.35,0.31110
6247.21,0.30756
6224.06,0.30699
6200.92,0.30739
6177.77,0.30671
6154.63,0.30788
6131.48,0.30582
6108.34,0.31000
6085.19,0.30681
6062.05,0.30642
6038.9,0.30855
6015.76,0.30557
5992.61,0.30466
5969.47,0.30331
5946.32,0.29928
5923.18,0.28871
5900.03,0.27279
5876.89,0.26601
5853.74,0.25746
5830.6,0.26698
5807.45,0.25935
5784.31,0.25859
5761.16,0.25582
5738.02,0.26943
5714.87,0.27592
5691.73,0.27884
5668.58,0.28018
5645.44,0.27866
5622.29,0.28281
5599.15,0.28360
5576,0.28251
5552.86,0.28455
5529.71,0.28542
5506.57,0.28395
5483.42,0.28227
5460.28,0.28410
5437.13,0.28394
5413.99,0.28751
5390.84,0.28904
5367.7,0.29064
5344.55,0.29052
5321.41,0.28994
5298.26,0.29028
5275.12,0.28977
5251.97,0.29215
5228.83,0.29032
5205.68,0.29046
5182.54,0.29104
5159.39,0.29042
5136.25,0.29075
5113.1,0.29116
5089.96,0.28821
5066.81,0.28918
5043.67,0.28944
5020.52,0.28974
4997.38,0.29188
4974.23,0.29155
4951.09,0.29185
4927.94,0.29208
4904.8,0.29358
4881.65,0.29188
4858.51,0.29103
4835.36,0.29222
4812.22,0.29315
4789.07,0.29122
4765.93,0.29208
4742.78,0.29182
4719.64,0.29222
4696.49,0.29203
4673.35,0.29102
4650.2,0.28962
4627.06,0.28854
4603.92,0.28670
4580.77,0.28442
4557.63,0.28362
4534.48,0.28312
4511.34,0.28211
4488.19,0.28060
4465.05,0.27617
4441.9,0.26525
4418.76,0.22897
4395.61,0.18839
4372.47,0.20067
4349.32,0.19859
4326.18,0.14674
4303.03,0.16169
4279.89,0.17583
4256.74,0.16552
4233.6,0.15938
4210.45,0.17018
4187.31,0.18638
4164.16,0.17680
4141.02,0.19020
4117.87,0.18475
4094.73,0.19845
4071.58,0.17661
4048.44,0.18210
4025.29,0.20320
4002.15,0.21060
3979,0.21750
3955.86,0.22296
3932.71,0.22023
3909.57,0.22637
3886.42,0.22860
3863.28,0.23172
3840.13,0.23537
3816.99,0.23357
3793.84,0.23654
3770.7,0.23326
3747.55,0.23606
3724.41,0.24093
3701.26,0.24213
3678.12,0.24514
3654.97,0.25459
3631.83,0.25128
3608.68,0.25668
3585.54,0.25441
3562.39,0.25638
3539.25,0.25283
3516.1,0.25013
3492.96,0.24725
3469.81,0.24106
3446.67,0.23120
3423.52,0.22038
3400.38,0.22010
3377.23,0.21644
3354.09,0.20759
3330.94,0.20765
3307.8,0.17618
3284.65,0.18955
3261.51,0.20397
3238.36,0.20115
3215.22,0.17106
3192.07,0.15511
3168.93,0.16184
3145.78,0.15580
3122.64,0.16414
3099.49,0.16731
3076.35,0.16258
3053.2,0.15002
3030.06,0.13301
3006.91,0.09045
2983.77,0.03631
2960.62,0.02900
2937.48,0.03005
2914.33,0.03695
2891.19,0.03461
2868.04,0.03445
2844.9,0.03416
2821.75,0.04968
2798.61,0.07716
2775.46,0.11735
2752.32,0.13006
2729.17,0.10162
2706.03,0.12286
2682.88,0.13248
2659.74,0.13306
2636.59,0.14606
2613.45,0.12219
2590.3,0.11772
2567.16,0.12060
2544.02,0.12255
2520.87,0.08156
2497.73,0.10931
2474.58,0.17584
2451.44,0.19481
2428.29,0.18742
2405.15,0.19580
2382,0.20022
2358.86,0.19874
2335.71,0.20948
2312.57,0.21929
2289.42,0.22196
2266.28,0.21320
2243.13,0.21788
2219.99,0.21760
2196.84,0.21210
2173.7,0.20856
2150.55,0.21047
2127.41,0.20864
2104.26,0.23530
2081.12,0.23973
2057.97,0.24559
2034.83,0.24336
2011.68,0.24449
1988.54,0.24337
1965.39,0.24122
1942.25,0.24171
1919.1,0.23600
1895.96,0.22910
1872.81,0.23275
1849.67,0.22429
1826.52,0.21013
1803.38,0.12520
1780.23,0.16982
1757.09,0.16736
1733.94,0.13971
1710.8,0.16398
1687.65,0.16521
1664.51,0.16531
1641.36,0.12236
1618.22,0.14981
1595.07,0.14762
1571.93,0.14755
1548.78,0.14116
1525.64,0.11546
1502.49,0.08229
1479.35,0.05223
1456.2,0.04052
1433.06,0.04695
1409.91,0.06080
1386.77,0.05703
1363.62,0.06547
1340.48,0.10575
1317.33,0.12294
1294.19,0.13177
1271.04,0.16350
1247.9,0.15821
1224.75,0.16754
1201.61,0.17380
1178.46,0.12931
1155.32,0.09673
1132.17,0.20742
1109.03,0.18362
1085.88,0.20801
1062.74,0.21198
1039.59,0.18251
1016.45,0.17293
993.304,0.09318
970.159,0.07614
947.014,0.19549
923.869,0.22865
900.724,0.14166
877.579,0.04865
854.434,0.17113
831.289,0.16976
808.144,0.12758
784.999,0.21833
761.854,0.24221
738.709,0.23605
715.565,0.07804
692.42,0.23638
669.275,0.24423
646.13,0.23655
622.985,0.22522
599.84,0.20652