File: 01_Data/Polyester_Bed_Skirt/FTIR/IS/Polyester_Bed_Skirt_IS_S_220822_R4.dpt
7497.03,0.31885
7473.89,0.30963
7450.74,0.31810
7427.6,0.31895
7404.45,0.31631
7381.31,0.31089
7358.16,0.31938
7335.02,0.31415
7311.87,0.30895
7288.73,0.31466
7265.58,0.31620
7242.44,0.30728
7219.29,0.31204
7196.15,0.30456
7173,0.30867
7149.86,0.31198
7126.71,0.31201
7103.57,0.30755
7080.42,0.30898
7057.28,0.31311
7034.13,0.30729
7010.99,0.30792
6987.84,0.30463
6964.7,0.30885
6941.55,0.30898
6918.41,0.31565
6895.26,0.30789
6872.12,0.31220
6848.97,0.30918
6825.83,0.31039
6802.68,0.30853
6779.54,0.31219
6756.39,0.31247
6733.25,0.31135
6710.1,0.31156
6686.96,0.31350
6663.82,0.30779
6640.67,0.31089
6617.53,0.31344
6594.38,0.31483
6571.24,0.31433
6548.09,0.30863
6524.95,0.31289
6501.8,0.31010
6478.66,0.31241
6455.51,0.31268
6432.37,0.31352
6409.22,0.31299
6386.08,0.31109
6362.93,0.30787
6339.79,0.31056
6316.64,0.31110
6293.5,0.30783
6270.35,0.31026
6247.21,0.30817
6224.06,0.31022
6200.92,0.30783
6177.77,0.30936
6154.63,0.30837
6131.48,0.30634
6108.34,0.30368
6085.19,0.30670
6062.05,0.30745
6038.9,0.30436
6015.76,0.30649
5992.61,0.30415
5969.47,0.30366
5946.32,0.30243
5923.18,0.28866
5900.03,0.27301
5876.89,0.26817
5853.74,0.25853
5830.6,0.26917
5807.45,0.25708
5784.31,0.25851
5761.16,0.25820
5738.02,0.27237
5714.87,0.27644
5691.73,0.27723
5668.58,0.27707
5645.44,0.27900
5622.29,0.28404
5599.15,0.28310
5576,0.28458
5552.86,0.28633
5529.71,0.28308
5506.57,0.28163
5483.42,0.28324
5460.28,0.28358
5437.13,0.28394
5413.99,0.28931
5390.84,0.28904
5367.7,0.29029
5344.55,0.28857
5321.41,0.29079
5298.26,0.29130
5275.12,0.29263
5251.97,0.29102
5228.83,0.29068
5205.68,0.29004
5182.54,0.29131
5159.39,0.29162
5136.25,0.29099
5113.1,0.29120
5089.96,0.29097
5066.81,0.28993
5043.67,0.28924
5020.52,0.29230
4997.38,0.29172
4974.23,0.29221
4951.09,0.29229
4927.94,0.29261
4904.8,0.29264
4881.65,0.29217
4858.51,0.29202
4835.36,0.29230
4812.22,0.29181
4789.07,0.29219
4765.93,0.29251
4742.78,0.29216
4719.64,0.29279
4696.49,0.29188
4673.35,0.29187
4650.2,0.29066
4627.06,0.28916
4603.92,0.28807
4580.77,0.28451
4557.63,0.28378
4534.48,0.28349
4511.34,0.28182
4488.19,0.28167
4465.05,0.27759
4441.9,0.26599
4418.76,0.22926
4395.61,0.18790
4372.47,0.20101
4349.32,0.19715
4326.18,0.14638
4303.03,0.16219
4279.89,0.17552
4256.74,0.16522
4233.6,0.15937
4210.45,0.17069
4187.31,0.18593
4164.16,0.17662
4141.02,0.18993
4117.87,0.18468
4094.73,0.19813
4071.58,0.17634
4048.44,0.18239
4025.29,0.20382
4002.15,0.21104
3979,0.21772
3955.86,0.22299
3932.71,0.22020
3909.57,0.22649
3886.42,0.22944
3863.28,0.23256
3840.13,0.23566
3816.99,0.23372
3793.84,0.23677
3770.7,0.23331
3747.55,0.23678
3724.41,0.24067
3701.26,0.24247
3678.12,0.24577
3654.97,0.25561
3631.83,0.25139
3608.68,0.25792
3585.54,0.25387
3562.39,0.25659
3539.25,0.25365
3516.1,0.25029
3492.96,0.24693
3469.81,0.24130
3446.67,0.23196
3423.52,0.22086
3400.38,0.21936
3377.23,0.21592
3354.09,0.20821
3330.94,0.20867
3307.8,0.17622
3284.65,0.18930
3261.51,0.20533
3238.36,0.20157
3215.22,0.17176
3192.07,0.15527
3168.93,0.16238
3145.78,0.15640
3122.64,0.16453
3099.49,0.16776
3076.35,0.16291
3053.2,0.15045
3030.06,0.13283
3006.91,0.08975
2983.77,0.03584
2960.62,0.02861
2937.48,0.03057
2914.33,0.03713
2891.19,0.03468
2868.04,0.03379
2844.9,0.03418
2821.75,0.04931
2798.61,0.07657
2775.46,0.11756
2752.32,0.13035
2729.17,0.10180
2706.03,0.12319
2682.88,0.13219
2659.74,0.13347
2636.59,0.14611
2613.45,0.12336
2590.3,0.11806
2567.16,0.12148
2544.02,0.12260
2520.87,0.08144
2497.73,0.10930
2474.58,0.17621
2451.44,0.19522
2428.29,0.18804
2405.15,0.19629
2382,0.20084
2358.86,0.19878
2335.71,0.20925
2312.57,0.22020
2289.42,0.22237
2266.28,0.21411
2243.13,0.21774
2219.99,0.21767
2196.84,0.21273
2173.7,0.20941
2150.55,0.21094
2127.41,0.20922
2104.26,0.23543
2081.12,0.24055
2057.97,0.24566
2034.83,0.24363
2011.68,0.24471
1988.54,0.24329
1965.39,0.24192
1942.25,0.24218
1919.1,0.23617
1895.96,0.22921
1872.81,0.23343
1849.67,0.22446
1826.52,0.21056
1803.38,0.12556
1780.23,0.17004
1757.09,0.16757
1733.94,0.13975
1710.8,0.16447
1687.65,0.16527
1664.51,0.16556
1641.36,0.12268
1618.22,0.14960
1595.07,0.14758
1571.93,0.14803
1548.78,0.14108
1525.64,0.11531
1502.49,0.08247
1479.35,0.05233
1456.2,0.04024
1433.06,0.04721
1409.91,0.06076
1386.77,0.05662
1363.62,0.06522
1340.48,0.10578
1317.33,0.12250
1294.19,0.13159
1271.04,0.16338
1247.9,0.15820
1224.75,0.16772
1201.61,0.17393
1178.46,0.12964
1155.32,0.09637
1132.17,0.20735
1109.03,0.18514
1085.88,0.20830
1062.74,0.21231
1039.59,0.18314
1016.45,0.17305
993.304,0.09343
970.159,0.07526
947.014,0.19618
923.869,0.22929
900.724,0.14130
877.579,0.04852
854.434,0.17073
831.289,0.17024
808.144,0.12791
784.999,0.21830
761.854,0.24240
738.709,0.23602
715.565,0.07839
692.42,0.23677
669.275,0.24409
646.13,0.23587
622.985,0.22447
599.84,0.20644