File: 01_Data/Polyester_Bed_Skirt/FTIR/IS/Polyester_Bed_Skirt_IS_T_220822_R1.dpt
7497.03,0.02175
7473.89,0.02069
7450.74,0.01845
7427.6,0.02078
7404.45,0.02678
7381.31,0.01718
7358.16,0.02131
7335.02,0.01935
7311.87,0.02433
7288.73,0.01896
7265.58,0.02416
7242.44,0.02581
7219.29,0.02153
7196.15,0.02182
7173,0.02333
7149.86,0.01799
7126.71,0.02043
7103.57,0.01784
7080.42,0.01849
7057.28,0.02865
7034.13,0.02813
7010.99,0.02167
6987.84,0.01955
6964.7,0.02693
6941.55,0.02263
6918.41,0.01521
6895.26,0.02166
6872.12,0.01808
6848.97,0.02145
6825.83,0.02186
6802.68,0.02021
6779.54,0.02085
6756.39,0.01965
6733.25,0.02499
6710.1,0.02062
6686.96,0.02280
6663.82,0.01920
6640.67,0.02147
6617.53,0.02396
6594.38,0.01930
6571.24,0.02224
6548.09,0.01864
6524.95,0.02204
6501.8,0.02203
6478.66,0.02418
6455.51,0.02003
6432.37,0.01467
6409.22,0.02183
6386.08,0.01464
6362.93,0.01870
6339.79,0.02250
6316.64,0.02156
6293.5,0.01838
6270.35,0.01932
6247.21,0.02097
6224.06,0.02115
6200.92,0.01904
6177.77,0.02016
6154.63,0.01747
6131.48,0.01543
6108.34,0.01751
6085.19,0.01957
6062.05,0.02156
6038.9,0.01954
6015.76,0.01574
5992.61,0.02049
5969.47,0.02043
5946.32,0.01670
5923.18,0.01705
5900.03,0.01983
5876.89,0.01650
5853.74,0.01679
5830.6,0.01873
5807.45,0.01936
5784.31,0.01791
5761.16,0.01972
5738.02,0.01800
5714.87,0.01888
5691.73,0.01681
5668.58,0.01839
5645.44,0.01748
5622.29,0.02072
5599.15,0.01854
5576,0.01887
5552.86,0.02121
5529.71,0.01860
5506.57,0.01977
5483.42,0.01929
5460.28,0.02033
5437.13,0.01982
5413.99,0.01812
5390.84,0.01998
5367.7,0.02106
5344.55,0.01990
5321.41,0.01896
5298.26,0.01883
5275.12,0.01888
5251.97,0.01995
5228.83,0.01926
5205.68,0.02007
5182.54,0.01799
5159.39,0.01858
5136.25,0.01961
5113.1,0.01919
5089.96,0.01838
5066.81,0.01876
5043.67,0.01926
5020.52,0.01916
4997.38,0.01839
4974.23,0.01996
4951.09,0.01912
4927.94,0.01861
4904.8,0.02007
4881.65,0.01918
4858.51,0.01828
4835.36,0.01923
4812.22,0.01824
4789.07,0.01932
4765.93,0.01935
4742.78,0.01904
4719.64,0.01814
4696.49,0.01986
4673.35,0.01949
4650.2,0.01860
4627.06,0.01984
4603.92,0.01897
4580.77,0.01850
4557.63,0.01913
4534.48,0.02016
4511.34,0.01927
4488.19,0.01960
4465.05,0.01857
4441.9,0.01945
4418.76,0.01888
4395.61,0.02004
4372.47,0.01886
4349.32,0.01888
4326.18,0.01877
4303.03,0.01845
4279.89,0.01880
4256.74,0.01855
4233.6,0.01899
4210.45,0.01898
4187.31,0.01896
4164.16,0.01909
4141.02,0.01946
4117.87,0.01937
4094.73,0.01911
4071.58,0.01987
4048.44,0.01973
4025.29,0.01928
4002.15,0.02010
3979,0.01915
3955.86,0.01922
3932.71,0.01912
3909.57,0.01885
3886.42,0.01985
3863.28,0.01895
3840.13,0.01968
3816.99,0.01965
3793.84,0.01977
3770.7,0.01947
3747.55,0.01951
3724.41,0.01894
3701.26,0.01896
3678.12,0.01855
3654.97,0.01917
3631.83,0.01891
3608.68,0.01832
3585.54,0.01814
3562.39,0.01834
3539.25,0.01792
3516.1,0.01875
3492.96,0.01766
3469.81,0.01748
3446.67,0.01813
3423.52,0.01830
3400.38,0.01708
3377.23,0.01756
3354.09,0.01721
3330.94,0.01688
3307.8,0.01708
3284.65,0.01704
3261.51,0.01799
3238.36,0.01777
3215.22,0.01745
3192.07,0.01759
3168.93,0.01775
3145.78,0.01781
3122.64,0.01758
3099.49,0.01771
3076.35,0.01797
3053.2,0.01768
3030.06,0.01746
3006.91,0.01717
2983.77,0.01657
2960.62,0.01674
2937.48,0.01635
2914.33,0.01760
2891.19,0.01744
2868.04,0.01671
2844.9,0.01791
2821.75,0.01819
2798.61,0.01804
2775.46,0.01808
2752.32,0.01825
2729.17,0.01827
2706.03,0.01805
2682.88,0.01816
2659.74,0.01799
2636.59,0.01815
2613.45,0.01800
2590.3,0.01791
2567.16,0.01784
2544.02,0.01803
2520.87,0.01783
2497.73,0.01789
2474.58,0.01809
2451.44,0.01819
2428.29,0.01789
2405.15,0.01846
2382,0.01826
2358.86,0.01757
2335.71,0.01792
2312.57,0.01817
2289.42,0.01781
2266.28,0.01764
2243.13,0.01801
2219.99,0.01797
2196.84,0.01786
2173.7,0.01803
2150.55,0.01762
2127.41,0.01771
2104.26,0.01741
2081.12,0.01779
2057.97,0.01786
2034.83,0.01794
2011.68,0.01767
1988.54,0.01802
1965.39,0.01738
1942.25,0.01779
1919.1,0.01750
1895.96,0.01738
1872.81,0.01756
1849.67,0.01736
1826.52,0.01695
1803.38,0.01663
1780.23,0.01560
1757.09,0.01429
1733.94,0.01654
1710.8,0.01750
1687.65,0.01616
1664.51,0.01593
1641.36,0.01528
1618.22,0.01569
1595.07,0.01580
1571.93,0.01507
1548.78,0.01507
1525.64,0.01555
1502.49,0.01553
1479.35,0.01569
1456.2,0.01578
1433.06,0.01570
1409.91,0.01529
1386.77,0.01480
1363.62,0.01579
1340.48,0.01456
1317.33,0.01402
1294.19,0.01504
1271.04,0.01606
1247.9,0.01686
1224.75,0.01685
1201.61,0.01516
1178.46,0.01489
1155.32,0.01450
1132.17,0.01530
1109.03,0.01586
1085.88,0.01477
1062.74,0.01682
1039.59,0.01606
1016.45,0.01658
993.304,0.01825
970.159,0.01749
947.014,0.01706
923.869,0.01649
900.724,0.01589
877.579,0.01645
854.434,0.01597
831.289,0.01567
808.144,0.01545
784.999,0.01548
761.854,0.01554
738.709,0.01538
715.565,0.01491
692.42,0.01505
669.275,0.01433
646.13,0.01306
622.985,0.01266
599.84,0.01326