File: 01_Data/Polyester_Bed_Skirt/FTIR/IS/Polyester_Bed_Skirt_IS_S_220822_R3.dpt
7497.03,0.31248
7473.89,0.31217
7450.74,0.31312
7427.6,0.31194
7404.45,0.32585
7381.31,0.31435
7358.16,0.31380
7335.02,0.31261
7311.87,0.32179
7288.73,0.31674
7265.58,0.30822
7242.44,0.30193
7219.29,0.30990
7196.15,0.30623
7173,0.31409
7149.86,0.31197
7126.71,0.31114
7103.57,0.30994
7080.42,0.30836
7057.28,0.31393
7034.13,0.31441
7010.99,0.30995
6987.84,0.31066
6964.7,0.31353
6941.55,0.30940
6918.41,0.30942
6895.26,0.30784
6872.12,0.31256
6848.97,0.31146
6825.83,0.31239
6802.68,0.31339
6779.54,0.31159
6756.39,0.30992
6733.25,0.31124
6710.1,0.31351
6686.96,0.31395
6663.82,0.31395
6640.67,0.31087
6617.53,0.31207
6594.38,0.31170
6571.24,0.31145
6548.09,0.31255
6524.95,0.31291
6501.8,0.31467
6478.66,0.30919
6455.51,0.31257
6432.37,0.31368
6409.22,0.31063
6386.08,0.31239
6362.93,0.31139
6339.79,0.31238
6316.64,0.30934
6293.5,0.30868
6270.35,0.30942
6247.21,0.31039
6224.06,0.30723
6200.92,0.30983
6177.77,0.30797
6154.63,0.30820
6131.48,0.30510
6108.34,0.30530
6085.19,0.30542
6062.05,0.30517
6038.9,0.30748
6015.76,0.30634
5992.61,0.30377
5969.47,0.30100
5946.32,0.30019
5923.18,0.28886
5900.03,0.27297
5876.89,0.26849
5853.74,0.25874
5830.6,0.26549
5807.45,0.25647
5784.31,0.25988
5761.16,0.25726
5738.02,0.26876
5714.87,0.27496
5691.73,0.27774
5668.58,0.27818
5645.44,0.27855
5622.29,0.28064
5599.15,0.28503
5576,0.28333
5552.86,0.28449
5529.71,0.28170
5506.57,0.28339
5483.42,0.28218
5460.28,0.28357
5437.13,0.28540
5413.99,0.28776
5390.84,0.29102
5367.7,0.29231
5344.55,0.29157
5321.41,0.29050
5298.26,0.29025
5275.12,0.29006
5251.97,0.29075
5228.83,0.28892
5205.68,0.29000
5182.54,0.29077
5159.39,0.29125
5136.25,0.29001
5113.1,0.29022
5089.96,0.29094
5066.81,0.28947
5043.67,0.29000
5020.52,0.29108
4997.38,0.29303
4974.23,0.29222
4951.09,0.29264
4927.94,0.29238
4904.8,0.29379
4881.65,0.29399
4858.51,0.29128
4835.36,0.29269
4812.22,0.29240
4789.07,0.29148
4765.93,0.29289
4742.78,0.29186
4719.64,0.29143
4696.49,0.29215
4673.35,0.29180
4650.2,0.28936
4627.06,0.28981
4603.92,0.28720
4580.77,0.28487
4557.63,0.28358
4534.48,0.28315
4511.34,0.28261
4488.19,0.28129
4465.05,0.27804
4441.9,0.26603
4418.76,0.22898
4395.61,0.18814
4372.47,0.20000
4349.32,0.19809
4326.18,0.14671
4303.03,0.16169
4279.89,0.17568
4256.74,0.16533
4233.6,0.15999
4210.45,0.17127
4187.31,0.18570
4164.16,0.17713
4141.02,0.18943
4117.87,0.18496
4094.73,0.19779
4071.58,0.17549
4048.44,0.18189
4025.29,0.20349
4002.15,0.21015
3979,0.21752
3955.86,0.22296
3932.71,0.22051
3909.57,0.22664
3886.42,0.22922
3863.28,0.23269
3840.13,0.23475
3816.99,0.23347
3793.84,0.23612
3770.7,0.23316
3747.55,0.23685
3724.41,0.24138
3701.26,0.24145
3678.12,0.24567
3654.97,0.25559
3631.83,0.25118
3608.68,0.25655
3585.54,0.25403
3562.39,0.25605
3539.25,0.25327
3516.1,0.25058
3492.96,0.24750
3469.81,0.24099
3446.67,0.23138
3423.52,0.22061
3400.38,0.21972
3377.23,0.21669
3354.09,0.20837
3330.94,0.20809
3307.8,0.17667
3284.65,0.18999
3261.51,0.20400
3238.36,0.20137
3215.22,0.17135
3192.07,0.15568
3168.93,0.16223
3145.78,0.15646
3122.64,0.16411
3099.49,0.16748
3076.35,0.16246
3053.2,0.15020
3030.06,0.13275
3006.91,0.09025
2983.77,0.03613
2960.62,0.02833
2937.48,0.03048
2914.33,0.03731
2891.19,0.03442
2868.04,0.03412
2844.9,0.03370
2821.75,0.04935
2798.61,0.07709
2775.46,0.11706
2752.32,0.13014
2729.17,0.10168
2706.03,0.12326
2682.88,0.13228
2659.74,0.13377
2636.59,0.14645
2613.45,0.12304
2590.3,0.11762
2567.16,0.12062
2544.02,0.12247
2520.87,0.08175
2497.73,0.10907
2474.58,0.17594
2451.44,0.19523
2428.29,0.18764
2405.15,0.19592
2382,0.20043
2358.86,0.19877
2335.71,0.20942
2312.57,0.21958
2289.42,0.22188
2266.28,0.21359
2243.13,0.21779
2219.99,0.21779
2196.84,0.21278
2173.7,0.20907
2150.55,0.21032
2127.41,0.20878
2104.26,0.23524
2081.12,0.24015
2057.97,0.24585
2034.83,0.24386
2011.68,0.24468
1988.54,0.24348
1965.39,0.24146
1942.25,0.24161
1919.1,0.23625
1895.96,0.22913
1872.81,0.23346
1849.67,0.22484
1826.52,0.21003
1803.38,0.12538
1780.23,0.17006
1757.09,0.16751
1733.94,0.13970
1710.8,0.16419
1687.65,0.16508
1664.51,0.16557
1641.36,0.12261
1618.22,0.14939
1595.07,0.14739
1571.93,0.14755
1548.78,0.14074
1525.64,0.11505
1502.49,0.08230
1479.35,0.05200
1456.2,0.04011
1433.06,0.04697
1409.91,0.06085
1386.77,0.05649
1363.62,0.06525
1340.48,0.10572
1317.33,0.12206
1294.19,0.13168
1271.04,0.16337
1247.9,0.15815
1224.75,0.16794
1201.61,0.17389
1178.46,0.12942
1155.32,0.09644
1132.17,0.20766
1109.03,0.18377
1085.88,0.20885
1062.74,0.21275
1039.59,0.18322
1016.45,0.17273
993.304,0.09366
970.159,0.07568
947.014,0.19584
923.869,0.22898
900.724,0.14153
877.579,0.04870
854.434,0.17061
831.289,0.17017
808.144,0.12680
784.999,0.21845
761.854,0.24220
738.709,0.23581
715.565,0.07779
692.42,0.23775
669.275,0.24417
646.13,0.23729
622.985,0.22489
599.84,0.20742