File: 01_Data/Polyester_Bed_Skirt/FTIR/IS/Polyester_Bed_Skirt_IS_S_220822_R8.dpt
7497.03,0.32170
7473.89,0.31039
7450.74,0.31559
7427.6,0.30726
7404.45,0.32496
7381.31,0.31879
7358.16,0.31121
7335.02,0.31828
7311.87,0.30319
7288.73,0.30772
7265.58,0.30857
7242.44,0.31301
7219.29,0.30123
7196.15,0.30737
7173,0.30854
7149.86,0.30812
7126.71,0.30788
7103.57,0.31471
7080.42,0.30637
7057.28,0.30849
7034.13,0.31476
7010.99,0.30917
6987.84,0.30720
6964.7,0.30937
6941.55,0.30886
6918.41,0.31194
6895.26,0.31327
6872.12,0.30939
6848.97,0.31380
6825.83,0.30890
6802.68,0.31340
6779.54,0.31334
6756.39,0.31085
6733.25,0.31152
6710.1,0.30960
6686.96,0.31167
6663.82,0.31113
6640.67,0.30929
6617.53,0.30975
6594.38,0.31342
6571.24,0.31168
6548.09,0.31457
6524.95,0.30985
6501.8,0.31262
6478.66,0.31151
6455.51,0.31047
6432.37,0.31251
6409.22,0.31110
6386.08,0.31277
6362.93,0.30912
6339.79,0.30806
6316.64,0.30665
6293.5,0.31132
6270.35,0.31197
6247.21,0.31204
6224.06,0.31126
6200.92,0.30790
6177.77,0.30760
6154.63,0.30957
6131.48,0.30562
6108.34,0.30523
6085.19,0.30701
6062.05,0.30757
6038.9,0.30583
6015.76,0.30499
5992.61,0.30191
5969.47,0.30695
5946.32,0.29861
5923.18,0.28827
5900.03,0.27153
5876.89,0.27024
5853.74,0.25677
5830.6,0.26635
5807.45,0.26021
5784.31,0.25897
5761.16,0.25855
5738.02,0.26982
5714.87,0.27625
5691.73,0.27603
5668.58,0.27779
5645.44,0.28008
5622.29,0.28248
5599.15,0.28334
5576,0.28442
5552.86,0.28454
5529.71,0.28404
5506.57,0.28424
5483.42,0.28251
5460.28,0.28377
5437.13,0.28628
5413.99,0.28883
5390.84,0.29300
5367.7,0.29120
5344.55,0.29236
5321.41,0.28990
5298.26,0.29139
5275.12,0.29060
5251.97,0.29234
5228.83,0.29021
5205.68,0.29035
5182.54,0.29066
5159.39,0.29031
5136.25,0.29001
5113.1,0.29151
5089.96,0.29010
5066.81,0.29044
5043.67,0.28989
5020.52,0.29159
4997.38,0.29213
4974.23,0.29171
4951.09,0.29213
4927.94,0.29273
4904.8,0.29212
4881.65,0.29350
4858.51,0.29181
4835.36,0.29380
4812.22,0.29232
4789.07,0.29229
4765.93,0.29281
4742.78,0.29343
4719.64,0.29258
4696.49,0.29153
4673.35,0.29115
4650.2,0.29176
4627.06,0.29006
4603.92,0.28769
4580.77,0.28480
4557.63,0.28414
4534.48,0.28331
4511.34,0.28254
4488.19,0.28113
4465.05,0.27796
4441.9,0.26627
4418.76,0.22955
4395.61,0.18873
4372.47,0.20110
4349.32,0.19814
4326.18,0.14600
4303.03,0.16235
4279.89,0.17646
4256.74,0.16572
4233.6,0.15894
4210.45,0.17071
4187.31,0.18598
4164.16,0.17705
4141.02,0.19001
4117.87,0.18499
4094.73,0.19810
4071.58,0.17654
4048.44,0.18264
4025.29,0.20406
4002.15,0.21056
3979,0.21743
3955.86,0.22272
3932.71,0.22065
3909.57,0.22726
3886.42,0.22969
3863.28,0.23251
3840.13,0.23559
3816.99,0.23323
3793.84,0.23594
3770.7,0.23310
3747.55,0.23706
3724.41,0.24158
3701.26,0.24174
3678.12,0.24572
3654.97,0.25586
3631.83,0.25149
3608.68,0.25747
3585.54,0.25378
3562.39,0.25671
3539.25,0.25349
3516.1,0.25069
3492.96,0.24791
3469.81,0.24187
3446.67,0.23232
3423.52,0.22095
3400.38,0.22003
3377.23,0.21660
3354.09,0.20864
3330.94,0.20805
3307.8,0.17749
3284.65,0.19008
3261.51,0.20510
3238.36,0.20117
3215.22,0.17204
3192.07,0.15514
3168.93,0.16176
3145.78,0.15684
3122.64,0.16476
3099.49,0.16708
3076.35,0.16243
3053.2,0.15080
3030.06,0.13349
3006.91,0.09026
2983.77,0.03650
2960.62,0.02897
2937.48,0.03041
2914.33,0.03670
2891.19,0.03424
2868.04,0.03429
2844.9,0.03349
2821.75,0.04960
2798.61,0.07747
2775.46,0.11742
2752.32,0.13070
2729.17,0.10160
2706.03,0.12341
2682.88,0.13293
2659.74,0.13343
2636.59,0.14657
2613.45,0.12259
2590.3,0.11816
2567.16,0.12078
2544.02,0.12315
2520.87,0.08180
2497.73,0.10921
2474.58,0.17633
2451.44,0.19517
2428.29,0.18798
2405.15,0.19623
2382,0.20050
2358.86,0.19904
2335.71,0.20966
2312.57,0.21968
2289.42,0.22241
2266.28,0.21401
2243.13,0.21839
2219.99,0.21805
2196.84,0.21284
2173.7,0.20913
2150.55,0.21071
2127.41,0.20896
2104.26,0.23513
2081.12,0.24074
2057.97,0.24593
2034.83,0.24444
2011.68,0.24544
1988.54,0.24367
1965.39,0.24157
1942.25,0.24204
1919.1,0.23655
1895.96,0.22936
1872.81,0.23364
1849.67,0.22501
1826.52,0.21085
1803.38,0.12514
1780.23,0.17017
1757.09,0.16761
1733.94,0.13991
1710.8,0.16457
1687.65,0.16541
1664.51,0.16555
1641.36,0.12249
1618.22,0.14973
1595.07,0.14739
1571.93,0.14773
1548.78,0.14112
1525.64,0.11520
1502.49,0.08237
1479.35,0.05255
1456.2,0.04019
1433.06,0.04717
1409.91,0.06098
1386.77,0.05675
1363.62,0.06498
1340.48,0.10560
1317.33,0.12257
1294.19,0.13199
1271.04,0.16359
1247.9,0.15868
1224.75,0.16756
1201.61,0.17472
1178.46,0.12931
1155.32,0.09654
1132.17,0.20758
1109.03,0.18447
1085.88,0.20811
1062.74,0.21188
1039.59,0.18282
1016.45,0.17326
993.304,0.09360
970.159,0.07562
947.014,0.19588
923.869,0.22948
900.724,0.14164
877.579,0.04744
854.434,0.17059
831.289,0.16946
808.144,0.12714
784.999,0.21811
761.854,0.24230
738.709,0.23571
715.565,0.07868
692.42,0.23653
669.275,0.24501
646.13,0.23564
622.985,0.22398
599.84,0.20662