File: 01_Data/Polyester_Bed_Skirt/FTIR/IS/Polyester_Bed_Skirt_IS_S_220822_R1.dpt
7497.03,0.32475
7473.89,0.31303
7450.74,0.31354
7427.6,0.31221
7404.45,0.31485
7381.31,0.31691
7358.16,0.31634
7335.02,0.31495
7311.87,0.31120
7288.73,0.31275
7265.58,0.31325
7242.44,0.31315
7219.29,0.30793
7196.15,0.31039
7173,0.31190
7149.86,0.30735
7126.71,0.30826
7103.57,0.30607
7080.42,0.31166
7057.28,0.30923
7034.13,0.30583
7010.99,0.30881
6987.84,0.30712
6964.7,0.30644
6941.55,0.31678
6918.41,0.30713
6895.26,0.30891
6872.12,0.30884
6848.97,0.31327
6825.83,0.31461
6802.68,0.30591
6779.54,0.30965
6756.39,0.31101
6733.25,0.30934
6710.1,0.30925
6686.96,0.30954
6663.82,0.31070
6640.67,0.31090
6617.53,0.31478
6594.38,0.31254
6571.24,0.31511
6548.09,0.31417
6524.95,0.30881
6501.8,0.31214
6478.66,0.31105
6455.51,0.31258
6432.37,0.30979
6409.22,0.31264
6386.08,0.30622
6362.93,0.31295
6339.79,0.31117
6316.64,0.31033
6293.5,0.30913
6270.35,0.30734
6247.21,0.31051
6224.06,0.30990
6200.92,0.30888
6177.77,0.31193
6154.63,0.30749
6131.48,0.30762
6108.34,0.30705
6085.19,0.30556
6062.05,0.30424
6038.9,0.30689
6015.76,0.30778
5992.61,0.30481
5969.47,0.30372
5946.32,0.29831
5923.18,0.28835
5900.03,0.27533
5876.89,0.26806
5853.74,0.25846
5830.6,0.26759
5807.45,0.25870
5784.31,0.26027
5761.16,0.25976
5738.02,0.26891
5714.87,0.27517
5691.73,0.27721
5668.58,0.27867
5645.44,0.28014
5622.29,0.28123
5599.15,0.28516
5576,0.28440
5552.86,0.28501
5529.71,0.28542
5506.57,0.28444
5483.42,0.28564
5460.28,0.28481
5437.13,0.28732
5413.99,0.28940
5390.84,0.29121
5367.7,0.29136
5344.55,0.29099
5321.41,0.29132
5298.26,0.29138
5275.12,0.29199
5251.97,0.29143
5228.83,0.29090
5205.68,0.29134
5182.54,0.29199
5159.39,0.29145
5136.25,0.29115
5113.1,0.29056
5089.96,0.29061
5066.81,0.29035
5043.67,0.28988
5020.52,0.29188
4997.38,0.29134
4974.23,0.29382
4951.09,0.29302
4927.94,0.29312
4904.8,0.29405
4881.65,0.29351
4858.51,0.29216
4835.36,0.29206
4812.22,0.29100
4789.07,0.29194
4765.93,0.29301
4742.78,0.29277
4719.64,0.29159
4696.49,0.29122
4673.35,0.29133
4650.2,0.29021
4627.06,0.29045
4603.92,0.28797
4580.77,0.28468
4557.63,0.28450
4534.48,0.28342
4511.34,0.28256
4488.19,0.28078
4465.05,0.27786
4441.9,0.26584
4418.76,0.22924
4395.61,0.18839
4372.47,0.20103
4349.32,0.19801
4326.18,0.14730
4303.03,0.16242
4279.89,0.17575
4256.74,0.16565
4233.6,0.15929
4210.45,0.17114
4187.31,0.18603
4164.16,0.17650
4141.02,0.18979
4117.87,0.18572
4094.73,0.19786
4071.58,0.17666
4048.44,0.18237
4025.29,0.20329
4002.15,0.21075
3979,0.21748
3955.86,0.22354
3932.71,0.22018
3909.57,0.22743
3886.42,0.22922
3863.28,0.23232
3840.13,0.23547
3816.99,0.23347
3793.84,0.23608
3770.7,0.23316
3747.55,0.23694
3724.41,0.24116
3701.26,0.24195
3678.12,0.24578
3654.97,0.25575
3631.83,0.25116
3608.68,0.25744
3585.54,0.25405
3562.39,0.25658
3539.25,0.25310
3516.1,0.25026
3492.96,0.24745
3469.81,0.24132
3446.67,0.23145
3423.52,0.22124
3400.38,0.21957
3377.23,0.21587
3354.09,0.20807
3330.94,0.20808
3307.8,0.17680
3284.65,0.18975
3261.51,0.20473
3238.36,0.20143
3215.22,0.17067
3192.07,0.15564
3168.93,0.16177
3145.78,0.15684
3122.64,0.16440
3099.49,0.16725
3076.35,0.16246
3053.2,0.15066
3030.06,0.13287
3006.91,0.09032
2983.77,0.03637
2960.62,0.02916
2937.48,0.03045
2914.33,0.03747
2891.19,0.03457
2868.04,0.03460
2844.9,0.03353
2821.75,0.04979
2798.61,0.07735
2775.46,0.11755
2752.32,0.13054
2729.17,0.10181
2706.03,0.12352
2682.88,0.13255
2659.74,0.13340
2636.59,0.14618
2613.45,0.12323
2590.3,0.11808
2567.16,0.12113
2544.02,0.12246
2520.87,0.08198
2497.73,0.10908
2474.58,0.17561
2451.44,0.19501
2428.29,0.18776
2405.15,0.19587
2382,0.20089
2358.86,0.19879
2335.71,0.20939
2312.57,0.22008
2289.42,0.22211
2266.28,0.21348
2243.13,0.21808
2219.99,0.21798
2196.84,0.21302
2173.7,0.20922
2150.55,0.21028
2127.41,0.20927
2104.26,0.23536
2081.12,0.24053
2057.97,0.24544
2034.83,0.24401
2011.68,0.24518
1988.54,0.24350
1965.39,0.24169
1942.25,0.24212
1919.1,0.23637
1895.96,0.22933
1872.81,0.23369
1849.67,0.22455
1826.52,0.21078
1803.38,0.12534
1780.23,0.16962
1757.09,0.16752
1733.94,0.13941
1710.8,0.16425
1687.65,0.16528
1664.51,0.16540
1641.36,0.12246
1618.22,0.14989
1595.07,0.14775
1571.93,0.14739
1548.78,0.14090
1525.64,0.11520
1502.49,0.08220
1479.35,0.05227
1456.2,0.03974
1433.06,0.04722
1409.91,0.06099
1386.77,0.05688
1363.62,0.06508
1340.48,0.10548
1317.33,0.12254
1294.19,0.13162
1271.04,0.16330
1247.9,0.15808
1224.75,0.16814
1201.61,0.17396
1178.46,0.12949
1155.32,0.09633
1132.17,0.20785
1109.03,0.18470
1085.88,0.20840
1062.74,0.21227
1039.59,0.18307
1016.45,0.17288
993.304,0.09339
970.159,0.07541
947.014,0.19560
923.869,0.22978
900.724,0.14133
877.579,0.04886
854.434,0.17065
831.289,0.17048
808.144,0.12677
784.999,0.21768
761.854,0.24240
738.709,0.23562
715.565,0.07851
692.42,0.23689
669.275,0.24442
646.13,0.23506
622.985,0.22376
599.84,0.20624