File: 01_Data/Polyester_Bed_Skirt/FTIR/IS/Polyester_Bed_Skirt_IS_T_220822_R7.dpt
7497.03,0.02044
7473.89,0.02530
7450.74,0.02626
7427.6,0.01654
7404.45,0.01133
7381.31,0.02558
7358.16,0.02650
7335.02,0.01998
7311.87,0.02407
7288.73,0.02019
7265.58,0.02446
7242.44,0.02809
7219.29,0.02631
7196.15,0.02366
7173,0.02502
7149.86,0.02066
7126.71,0.02227
7103.57,0.01640
7080.42,0.02130
7057.28,0.02062
7034.13,0.02159
7010.99,0.01784
6987.84,0.01759
6964.7,0.02616
6941.55,0.02428
6918.41,0.02160
6895.26,0.01639
6872.12,0.02240
6848.97,0.01782
6825.83,0.01514
6802.68,0.02058
6779.54,0.02348
6756.39,0.02195
6733.25,0.02070
6710.1,0.02246
6686.96,0.02051
6663.82,0.02183
6640.67,0.02016
6617.53,0.02226
6594.38,0.02334
6571.24,0.01897
6548.09,0.02115
6524.95,0.01926
6501.8,0.01480
6478.66,0.01884
6455.51,0.01654
6432.37,0.01892
6409.22,0.02274
6386.08,0.02211
6362.93,0.02007
6339.79,0.01997
6316.64,0.01717
6293.5,0.02300
6270.35,0.02138
6247.21,0.02191
6224.06,0.01577
6200.92,0.01640
6177.77,0.02064
6154.63,0.02089
6131.48,0.01793
6108.34,0.01783
6085.19,0.01509
6062.05,0.01761
6038.9,0.01908
6015.76,0.01945
5992.61,0.01835
5969.47,0.01609
5946.32,0.01741
5923.18,0.01748
5900.03,0.02033
5876.89,0.01974
5853.74,0.01560
5830.6,0.02172
5807.45,0.01769
5784.31,0.01882
5761.16,0.01924
5738.02,0.01761
5714.87,0.02125
5691.73,0.01798
5668.58,0.01916
5645.44,0.01917
5622.29,0.01798
5599.15,0.01923
5576,0.01907
5552.86,0.01890
5529.71,0.01797
5506.57,0.02001
5483.42,0.01817
5460.28,0.01858
5437.13,0.02026
5413.99,0.01789
5390.84,0.02058
5367.7,0.01845
5344.55,0.01898
5321.41,0.01855
5298.26,0.01779
5275.12,0.01909
5251.97,0.01980
5228.83,0.01866
5205.68,0.01914
5182.54,0.01889
5159.39,0.01972
5136.25,0.01984
5113.1,0.01960
5089.96,0.01884
5066.81,0.01898
5043.67,0.01989
5020.52,0.02003
4997.38,0.01939
4974.23,0.02034
4951.09,0.02002
4927.94,0.02044
4904.8,0.01890
4881.65,0.01996
4858.51,0.01996
4835.36,0.01868
4812.22,0.01964
4789.07,0.01959
4765.93,0.01974
4742.78,0.01851
4719.64,0.01991
4696.49,0.01916
4673.35,0.01978
4650.2,0.02064
4627.06,0.02035
4603.92,0.01976
4580.77,0.01932
4557.63,0.01921
4534.48,0.01985
4511.34,0.01914
4488.19,0.02022
4465.05,0.01872
4441.9,0.01972
4418.76,0.01895
4395.61,0.01906
4372.47,0.01967
4349.32,0.01976
4326.18,0.02003
4303.03,0.01947
4279.89,0.01927
4256.74,0.01946
4233.6,0.01974
4210.45,0.01913
4187.31,0.01948
4164.16,0.02038
4141.02,0.02002
4117.87,0.01923
4094.73,0.01909
4071.58,0.01934
4048.44,0.01974
4025.29,0.01987
4002.15,0.01961
3979,0.01890
3955.86,0.02014
3932.71,0.01949
3909.57,0.01958
3886.42,0.01973
3863.28,0.01959
3840.13,0.02075
3816.99,0.01930
3793.84,0.01948
3770.7,0.01954
3747.55,0.01955
3724.41,0.01918
3701.26,0.01950
3678.12,0.01917
3654.97,0.01869
3631.83,0.01922
3608.68,0.01919
3585.54,0.01845
3562.39,0.01878
3539.25,0.01822
3516.1,0.01771
3492.96,0.01738
3469.81,0.01836
3446.67,0.01782
3423.52,0.01706
3400.38,0.01770
3377.23,0.01711
3354.09,0.01757
3330.94,0.01715
3307.8,0.01745
3284.65,0.01818
3261.51,0.01741
3238.36,0.01758
3215.22,0.01760
3192.07,0.01703
3168.93,0.01761
3145.78,0.01801
3122.64,0.01822
3099.49,0.01779
3076.35,0.01781
3053.2,0.01719
3030.06,0.01812
3006.91,0.01700
2983.77,0.01683
2960.62,0.01632
2937.48,0.01681
2914.33,0.01756
2891.19,0.01744
2868.04,0.01789
2844.9,0.01849
2821.75,0.01845
2798.61,0.01855
2775.46,0.01847
2752.32,0.01846
2729.17,0.01802
2706.03,0.01829
2682.88,0.01836
2659.74,0.01823
2636.59,0.01820
2613.45,0.01814
2590.3,0.01835
2567.16,0.01845
2544.02,0.01808
2520.87,0.01847
2497.73,0.01816
2474.58,0.01851
2451.44,0.01892
2428.29,0.01870
2405.15,0.01838
2382,0.01835
2358.86,0.01809
2335.71,0.01867
2312.57,0.01837
2289.42,0.01794
2266.28,0.01869
2243.13,0.01800
2219.99,0.01769
2196.84,0.01819
2173.7,0.01818
2150.55,0.01818
2127.41,0.01775
2104.26,0.01789
2081.12,0.01806
2057.97,0.01777
2034.83,0.01789
2011.68,0.01809
1988.54,0.01760
1965.39,0.01792
1942.25,0.01859
1919.1,0.01766
1895.96,0.01776
1872.81,0.01764
1849.67,0.01740
1826.52,0.01714
1803.38,0.01672
1780.23,0.01630
1757.09,0.01485
1733.94,0.01687
1710.8,0.01795
1687.65,0.01658
1664.51,0.01544
1641.36,0.01590
1618.22,0.01638
1595.07,0.01589
1571.93,0.01568
1548.78,0.01541
1525.64,0.01573
1502.49,0.01569
1479.35,0.01581
1456.2,0.01569
1433.06,0.01609
1409.91,0.01584
1386.77,0.01497
1363.62,0.01531
1340.48,0.01508
1317.33,0.01447
1294.19,0.01514
1271.04,0.01677
1247.9,0.01717
1224.75,0.01597
1201.61,0.01528
1178.46,0.01530
1155.32,0.01506
1132.17,0.01494
1109.03,0.01547
1085.88,0.01512
1062.74,0.01697
1039.59,0.01672
1016.45,0.01709
993.304,0.01822
970.159,0.01665
947.014,0.01642
923.869,0.01648
900.724,0.01647
877.579,0.01646
854.434,0.01578
831.289,0.01605
808.144,0.01607
784.999,0.01532
761.854,0.01564
738.709,0.01523
715.565,0.01471
692.42,0.01542
669.275,0.01296
646.13,0.01370
622.985,0.01428
599.84,0.01172