File: 01_Data/Polyester_Bed_Skirt/FTIR/IS/Polyester_Bed_Skirt_IS_S_220822_R7.dpt
7497.03,0.31263
7473.89,0.31997
7450.74,0.31666
7427.6,0.31567
7404.45,0.31903
7381.31,0.30696
7358.16,0.31203
7335.02,0.31568
7311.87,0.30771
7288.73,0.31023
7265.58,0.30565
7242.44,0.30996
7219.29,0.31005
7196.15,0.31150
7173,0.31233
7149.86,0.30418
7126.71,0.30504
7103.57,0.31772
7080.42,0.30648
7057.28,0.31268
7034.13,0.31219
7010.99,0.31275
6987.84,0.30474
6964.7,0.30716
6941.55,0.31005
6918.41,0.30730
6895.26,0.31021
6872.12,0.31214
6848.97,0.31097
6825.83,0.30647
6802.68,0.30737
6779.54,0.31026
6756.39,0.31192
6733.25,0.31363
6710.1,0.30840
6686.96,0.31193
6663.82,0.30859
6640.67,0.31069
6617.53,0.31084
6594.38,0.30800
6571.24,0.31403
6548.09,0.31011
6524.95,0.31298
6501.8,0.31082
6478.66,0.31238
6455.51,0.31229
6432.37,0.31037
6409.22,0.31360
6386.08,0.30802
6362.93,0.30910
6339.79,0.31030
6316.64,0.31041
6293.5,0.31087
6270.35,0.30976
6247.21,0.31154
6224.06,0.31085
6200.92,0.30683
6177.77,0.30532
6154.63,0.30702
6131.48,0.30797
6108.34,0.30758
6085.19,0.30854
6062.05,0.30568
6038.9,0.30731
6015.76,0.30635
5992.61,0.30743
5969.47,0.30322
5946.32,0.30034
5923.18,0.28780
5900.03,0.27204
5876.89,0.26668
5853.74,0.25654
5830.6,0.26674
5807.45,0.25830
5784.31,0.26046
5761.16,0.25922
5738.02,0.26733
5714.87,0.27688
5691.73,0.27747
5668.58,0.27949
5645.44,0.27853
5622.29,0.28184
5599.15,0.28539
5576,0.28403
5552.86,0.28399
5529.71,0.28389
5506.57,0.28248
5483.42,0.28302
5460.28,0.28396
5437.13,0.28611
5413.99,0.28891
5390.84,0.29081
5367.7,0.29010
5344.55,0.29193
5321.41,0.29107
5298.26,0.29207
5275.12,0.29046
5251.97,0.29058
5228.83,0.29020
5205.68,0.28943
5182.54,0.29006
5159.39,0.29014
5136.25,0.29038
5113.1,0.29122
5089.96,0.29028
5066.81,0.28858
5043.67,0.28932
5020.52,0.29206
4997.38,0.29224
4974.23,0.29236
4951.09,0.29266
4927.94,0.29293
4904.8,0.29418
4881.65,0.29209
4858.51,0.29278
4835.36,0.29238
4812.22,0.29249
4789.07,0.29208
4765.93,0.29178
4742.78,0.29191
4719.64,0.29146
4696.49,0.29207
4673.35,0.29092
4650.2,0.28920
4627.06,0.28941
4603.92,0.28785
4580.77,0.28587
4557.63,0.28398
4534.48,0.28371
4511.34,0.28193
4488.19,0.28112
4465.05,0.27719
4441.9,0.26549
4418.76,0.22847
4395.61,0.18886
4372.47,0.20039
4349.32,0.19765
4326.18,0.14666
4303.03,0.16301
4279.89,0.17569
4256.74,0.16553
4233.6,0.15924
4210.45,0.17141
4187.31,0.18560
4164.16,0.17710
4141.02,0.19035
4117.87,0.18523
4094.73,0.19807
4071.58,0.17615
4048.44,0.18279
4025.29,0.20339
4002.15,0.21146
3979,0.21726
3955.86,0.22274
3932.71,0.22032
3909.57,0.22669
3886.42,0.22864
3863.28,0.23239
3840.13,0.23507
3816.99,0.23325
3793.84,0.23592
3770.7,0.23309
3747.55,0.23712
3724.41,0.24091
3701.26,0.24162
3678.12,0.24495
3654.97,0.25539
3631.83,0.25049
3608.68,0.25676
3585.54,0.25412
3562.39,0.25646
3539.25,0.25358
3516.1,0.25092
3492.96,0.24671
3469.81,0.24033
3446.67,0.23126
3423.52,0.22076
3400.38,0.21991
3377.23,0.21637
3354.09,0.20830
3330.94,0.20734
3307.8,0.17686
3284.65,0.18971
3261.51,0.20401
3238.36,0.20118
3215.22,0.17079
3192.07,0.15527
3168.93,0.16203
3145.78,0.15705
3122.64,0.16403
3099.49,0.16722
3076.35,0.16240
3053.2,0.15087
3030.06,0.13317
3006.91,0.09016
2983.77,0.03654
2960.62,0.02847
2937.48,0.03062
2914.33,0.03753
2891.19,0.03459
2868.04,0.03388
2844.9,0.03370
2821.75,0.04952
2798.61,0.07709
2775.46,0.11715
2752.32,0.13038
2729.17,0.10153
2706.03,0.12285
2682.88,0.13208
2659.74,0.13301
2636.59,0.14609
2613.45,0.12262
2590.3,0.11796
2567.16,0.12091
2544.02,0.12239
2520.87,0.08214
2497.73,0.10918
2474.58,0.17585
2451.44,0.19559
2428.29,0.18787
2405.15,0.19633
2382,0.20060
2358.86,0.19904
2335.71,0.20906
2312.57,0.21973
2289.42,0.22162
2266.28,0.21337
2243.13,0.21785
2219.99,0.21772
2196.84,0.21275
2173.7,0.20925
2150.55,0.21033
2127.41,0.20891
2104.26,0.23536
2081.12,0.24082
2057.97,0.24539
2034.83,0.24405
2011.68,0.24494
1988.54,0.24314
1965.39,0.24168
1942.25,0.24179
1919.1,0.23620
1895.96,0.22893
1872.81,0.23332
1849.67,0.22475
1826.52,0.21069
1803.38,0.12525
1780.23,0.17014
1757.09,0.16731
1733.94,0.13952
1710.8,0.16459
1687.65,0.16534
1664.51,0.16550
1641.36,0.12227
1618.22,0.14979
1595.07,0.14742
1571.93,0.14743
1548.78,0.14101
1525.64,0.11520
1502.49,0.08188
1479.35,0.05259
1456.2,0.04015
1433.06,0.04761
1409.91,0.06091
1386.77,0.05716
1363.62,0.06529
1340.48,0.10561
1317.33,0.12255
1294.19,0.13169
1271.04,0.16329
1247.9,0.15780
1224.75,0.16746
1201.61,0.17380
1178.46,0.12941
1155.32,0.09612
1132.17,0.20748
1109.03,0.18446
1085.88,0.20831
1062.74,0.21196
1039.59,0.18273
1016.45,0.17369
993.304,0.09379
970.159,0.07540
947.014,0.19574
923.869,0.22917
900.724,0.14132
877.579,0.04718
854.434,0.16997
831.289,0.16967
808.144,0.12694
784.999,0.21842
761.854,0.24237
738.709,0.23640
715.565,0.07822
692.42,0.23623
669.275,0.24446
646.13,0.23730
622.985,0.22536
599.84,0.20872