File: 01_Data/Polyester_Bed_Skirt/FTIR/IS/Polyester_Bed_Skirt_IS_S_220822_R6.dpt
7497.03,0.31653
7473.89,0.31463
7450.74,0.31508
7427.6,0.31296
7404.45,0.32226
7381.31,0.31112
7358.16,0.31761
7335.02,0.30721
7311.87,0.30479
7288.73,0.31179
7265.58,0.31043
7242.44,0.30913
7219.29,0.31215
7196.15,0.30953
7173,0.31519
7149.86,0.30700
7126.71,0.31483
7103.57,0.31239
7080.42,0.30708
7057.28,0.31199
7034.13,0.31380
7010.99,0.31493
6987.84,0.31577
6964.7,0.31174
6941.55,0.31268
6918.41,0.31102
6895.26,0.31487
6872.12,0.31068
6848.97,0.31135
6825.83,0.30738
6802.68,0.31119
6779.54,0.31276
6756.39,0.31098
6733.25,0.31308
6710.1,0.30961
6686.96,0.31244
6663.82,0.31056
6640.67,0.31392
6617.53,0.31565
6594.38,0.30959
6571.24,0.31146
6548.09,0.31429
6524.95,0.31112
6501.8,0.31419
6478.66,0.31169
6455.51,0.31462
6432.37,0.31205
6409.22,0.31134
6386.08,0.31233
6362.93,0.31256
6339.79,0.31164
6316.64,0.31146
6293.5,0.31126
6270.35,0.30966
6247.21,0.30930
6224.06,0.30969
6200.92,0.31014
6177.77,0.30963
6154.63,0.30564
6131.48,0.30921
6108.34,0.30750
6085.19,0.30608
6062.05,0.30710
6038.9,0.30594
6015.76,0.30744
5992.61,0.30437
5969.47,0.30401
5946.32,0.29992
5923.18,0.29140
5900.03,0.27208
5876.89,0.26888
5853.74,0.25663
5830.6,0.26780
5807.45,0.25770
5784.31,0.25875
5761.16,0.26035
5738.02,0.27203
5714.87,0.27612
5691.73,0.27597
5668.58,0.27681
5645.44,0.27908
5622.29,0.28247
5599.15,0.28390
5576,0.28721
5552.86,0.28447
5529.71,0.28512
5506.57,0.28223
5483.42,0.28389
5460.28,0.28290
5437.13,0.28576
5413.99,0.28944
5390.84,0.29190
5367.7,0.29136
5344.55,0.29214
5321.41,0.29188
5298.26,0.29109
5275.12,0.28994
5251.97,0.29335
5228.83,0.29262
5205.68,0.29155
5182.54,0.29135
5159.39,0.29150
5136.25,0.29167
5113.1,0.29074
5089.96,0.29017
5066.81,0.29072
5043.67,0.29108
5020.52,0.29129
4997.38,0.29359
4974.23,0.29149
4951.09,0.29316
4927.94,0.29309
4904.8,0.29312
4881.65,0.29340
4858.51,0.29352
4835.36,0.29227
4812.22,0.29214
4789.07,0.29214
4765.93,0.29246
4742.78,0.29390
4719.64,0.29175
4696.49,0.29353
4673.35,0.29217
4650.2,0.29072
4627.06,0.28969
4603.92,0.28849
4580.77,0.28622
4557.63,0.28314
4534.48,0.28484
4511.34,0.28238
4488.19,0.28132
4465.05,0.27809
4441.9,0.26571
4418.76,0.22982
4395.61,0.18769
4372.47,0.20204
4349.32,0.19907
4326.18,0.14783
4303.03,0.16254
4279.89,0.17594
4256.74,0.16436
4233.6,0.15991
4210.45,0.17218
4187.31,0.18611
4164.16,0.17729
4141.02,0.19001
4117.87,0.18520
4094.73,0.19854
4071.58,0.17667
4048.44,0.18245
4025.29,0.20429
4002.15,0.21156
3979,0.21771
3955.86,0.22339
3932.71,0.22108
3909.57,0.22726
3886.42,0.23021
3863.28,0.23299
3840.13,0.23607
3816.99,0.23430
3793.84,0.23683
3770.7,0.23362
3747.55,0.23672
3724.41,0.24218
3701.26,0.24198
3678.12,0.24577
3654.97,0.25674
3631.83,0.25219
3608.68,0.25795
3585.54,0.25472
3562.39,0.25701
3539.25,0.25375
3516.1,0.25098
3492.96,0.24783
3469.81,0.24137
3446.67,0.23259
3423.52,0.22133
3400.38,0.22009
3377.23,0.21702
3354.09,0.20843
3330.94,0.20793
3307.8,0.17678
3284.65,0.18959
3261.51,0.20443
3238.36,0.20172
3215.22,0.17222
3192.07,0.15484
3168.93,0.16215
3145.78,0.15718
3122.64,0.16406
3099.49,0.16739
3076.35,0.16328
3053.2,0.15039
3030.06,0.13339
3006.91,0.09075
2983.77,0.03591
2960.62,0.02871
2937.48,0.03016
2914.33,0.03691
2891.19,0.03459
2868.04,0.03428
2844.9,0.03359
2821.75,0.04987
2798.61,0.07724
2775.46,0.11802
2752.32,0.13073
2729.17,0.10204
2706.03,0.12350
2682.88,0.13271
2659.74,0.13323
2636.59,0.14632
2613.45,0.12313
2590.3,0.11812
2567.16,0.12152
2544.02,0.12288
2520.87,0.08204
2497.73,0.10961
2474.58,0.17606
2451.44,0.19558
2428.29,0.18823
2405.15,0.19653
2382,0.20089
2358.86,0.19930
2335.71,0.20969
2312.57,0.22019
2289.42,0.22219
2266.28,0.21421
2243.13,0.21817
2219.99,0.21843
2196.84,0.21325
2173.7,0.20939
2150.55,0.21096
2127.41,0.20940
2104.26,0.23588
2081.12,0.24089
2057.97,0.24620
2034.83,0.24445
2011.68,0.24541
1988.54,0.24401
1965.39,0.24209
1942.25,0.24233
1919.1,0.23669
1895.96,0.22978
1872.81,0.23409
1849.67,0.22525
1826.52,0.21110
1803.38,0.12543
1780.23,0.17051
1757.09,0.16794
1733.94,0.13960
1710.8,0.16440
1687.65,0.16513
1664.51,0.16606
1641.36,0.12256
1618.22,0.14968
1595.07,0.14772
1571.93,0.14795
1548.78,0.14123
1525.64,0.11501
1502.49,0.08242
1479.35,0.05240
1456.2,0.03995
1433.06,0.04741
1409.91,0.06076
1386.77,0.05669
1363.62,0.06521
1340.48,0.10596
1317.33,0.12294
1294.19,0.13212
1271.04,0.16384
1247.9,0.15852
1224.75,0.16786
1201.61,0.17382
1178.46,0.12937
1155.32,0.09725
1132.17,0.20839
1109.03,0.18463
1085.88,0.20894
1062.74,0.21319
1039.59,0.18258
1016.45,0.17339
993.304,0.09316
970.159,0.07578
947.014,0.19604
923.869,0.22937
900.724,0.14200
877.579,0.04838
854.434,0.17038
831.289,0.16981
808.144,0.12794
784.999,0.21807
761.854,0.24179
738.709,0.23596
715.565,0.07886
692.42,0.23665
669.275,0.24484
646.13,0.23665
622.985,0.22539
599.84,0.20462