File: 01_Data/Polyester_Bed_Skirt/FTIR/IS/Polyester_Bed_Skirt_IS_T_220822_R2.dpt
7497.03,0.02336
7473.89,0.02982
7450.74,0.02776
7427.6,0.02785
7404.45,0.02684
7381.31,0.02134
7358.16,0.03087
7335.02,0.02207
7311.87,0.02524
7288.73,0.02218
7265.58,0.02472
7242.44,0.02218
7219.29,0.02275
7196.15,0.02448
7173,0.02023
7149.86,0.01907
7126.71,0.02451
7103.57,0.02323
7080.42,0.02435
7057.28,0.01899
7034.13,0.01973
7010.99,0.02670
6987.84,0.02170
6964.7,0.01755
6941.55,0.02428
6918.41,0.02532
6895.26,0.02573
6872.12,0.02060
6848.97,0.01572
6825.83,0.01965
6802.68,0.02721
6779.54,0.01895
6756.39,0.02283
6733.25,0.01616
6710.1,0.01525
6686.96,0.02060
6663.82,0.01797
6640.67,0.01547
6617.53,0.01921
6594.38,0.01597
6571.24,0.02438
6548.09,0.02244
6524.95,0.02289
6501.8,0.01362
6478.66,0.01807
6455.51,0.01780
6432.37,0.02160
6409.22,0.01867
6386.08,0.02146
6362.93,0.01632
6339.79,0.01991
6316.64,0.02263
6293.5,0.01701
6270.35,0.02047
6247.21,0.01772
6224.06,0.02208
6200.92,0.02039
6177.77,0.01669
6154.63,0.02119
6131.48,0.01696
6108.34,0.02014
6085.19,0.01698
6062.05,0.02000
6038.9,0.02133
6015.76,0.01837
5992.61,0.01714
5969.47,0.01746
5946.32,0.01652
5923.18,0.01778
5900.03,0.01863
5876.89,0.01913
5853.74,0.02134
5830.6,0.02017
5807.45,0.01935
5784.31,0.01904
5761.16,0.01873
5738.02,0.01823
5714.87,0.02124
5691.73,0.01954
5668.58,0.02036
5645.44,0.01794
5622.29,0.01717
5599.15,0.01944
5576,0.01879
5552.86,0.01769
5529.71,0.01806
5506.57,0.01700
5483.42,0.01825
5460.28,0.02022
5437.13,0.02026
5413.99,0.01814
5390.84,0.01984
5367.7,0.01944
5344.55,0.01877
5321.41,0.01806
5298.26,0.01726
5275.12,0.01871
5251.97,0.01904
5228.83,0.01956
5205.68,0.01937
5182.54,0.01890
5159.39,0.01985
5136.25,0.02015
5113.1,0.01948
5089.96,0.02013
5066.81,0.02013
5043.67,0.01969
5020.52,0.02021
4997.38,0.01938
4974.23,0.01877
4951.09,0.02009
4927.94,0.02027
4904.8,0.01946
4881.65,0.01823
4858.51,0.01897
4835.36,0.01914
4812.22,0.01897
4789.07,0.01916
4765.93,0.01943
4742.78,0.01927
4719.64,0.01970
4696.49,0.02071
4673.35,0.01886
4650.2,0.02015
4627.06,0.01946
4603.92,0.02013
4580.77,0.01942
4557.63,0.01900
4534.48,0.01941
4511.34,0.01911
4488.19,0.02031
4465.05,0.01962
4441.9,0.01943
4418.76,0.01995
4395.61,0.01995
4372.47,0.01910
4349.32,0.02055
4326.18,0.01996
4303.03,0.01964
4279.89,0.02037
4256.74,0.02017
4233.6,0.01932
4210.45,0.02013
4187.31,0.02003
4164.16,0.01980
4141.02,0.02034
4117.87,0.01972
4094.73,0.01989
4071.58,0.01979
4048.44,0.01979
4025.29,0.01937
4002.15,0.02041
3979,0.01984
3955.86,0.01980
3932.71,0.01927
3909.57,0.01991
3886.42,0.01963
3863.28,0.01973
3840.13,0.02063
3816.99,0.02002
3793.84,0.02074
3770.7,0.01990
3747.55,0.02001
3724.41,0.01925
3701.26,0.02025
3678.12,0.01976
3654.97,0.01909
3631.83,0.01900
3608.68,0.01909
3585.54,0.01938
3562.39,0.01870
3539.25,0.01855
3516.1,0.01918
3492.96,0.01841
3469.81,0.01865
3446.67,0.01792
3423.52,0.01717
3400.38,0.01801
3377.23,0.01787
3354.09,0.01765
3330.94,0.01774
3307.8,0.01690
3284.65,0.01724
3261.51,0.01688
3238.36,0.01788
3215.22,0.01833
3192.07,0.01837
3168.93,0.01798
3145.78,0.01844
3122.64,0.01852
3099.49,0.01793
3076.35,0.01829
3053.2,0.01757
3030.06,0.01807
3006.91,0.01805
2983.77,0.01753
2960.62,0.01641
2937.48,0.01661
2914.33,0.01792
2891.19,0.01779
2868.04,0.01813
2844.9,0.01804
2821.75,0.01820
2798.61,0.01853
2775.46,0.01848
2752.32,0.01852
2729.17,0.01868
2706.03,0.01890
2682.88,0.01848
2659.74,0.01886
2636.59,0.01810
2613.45,0.01835
2590.3,0.01896
2567.16,0.01855
2544.02,0.01835
2520.87,0.01875
2497.73,0.01862
2474.58,0.01886
2451.44,0.01869
2428.29,0.01848
2405.15,0.01869
2382,0.01815
2358.86,0.01888
2335.71,0.01857
2312.57,0.01851
2289.42,0.01904
2266.28,0.01877
2243.13,0.01842
2219.99,0.01850
2196.84,0.01874
2173.7,0.01863
2150.55,0.01834
2127.41,0.01844
2104.26,0.01841
2081.12,0.01828
2057.97,0.01824
2034.83,0.01804
2011.68,0.01824
1988.54,0.01811
1965.39,0.01825
1942.25,0.01816
1919.1,0.01834
1895.96,0.01820
1872.81,0.01745
1849.67,0.01766
1826.52,0.01711
1803.38,0.01706
1780.23,0.01635
1757.09,0.01497
1733.94,0.01702
1710.8,0.01825
1687.65,0.01670
1664.51,0.01614
1641.36,0.01605
1618.22,0.01607
1595.07,0.01613
1571.93,0.01578
1548.78,0.01586
1525.64,0.01588
1502.49,0.01594
1479.35,0.01611
1456.2,0.01578
1433.06,0.01617
1409.91,0.01583
1386.77,0.01557
1363.62,0.01569
1340.48,0.01475
1317.33,0.01470
1294.19,0.01513
1271.04,0.01650
1247.9,0.01774
1224.75,0.01667
1201.61,0.01570
1178.46,0.01563
1155.32,0.01477
1132.17,0.01471
1109.03,0.01642
1085.88,0.01567
1062.74,0.01722
1039.59,0.01676
1016.45,0.01590
993.304,0.01789
970.159,0.01749
947.014,0.01686
923.869,0.01556
900.724,0.01657
877.579,0.01607
854.434,0.01606
831.289,0.01619
808.144,0.01664
784.999,0.01520
761.854,0.01526
738.709,0.01593
715.565,0.01538
692.42,0.01499
669.275,0.01233
646.13,0.01378
622.985,0.01089
599.84,0.01318