File: 01_Data/Overstuffed_Chair_Polyester_Fabric/Cone/Overstuffed_Chair_Polyester_Fabric_Cone_HF75Scalar_210325_R2.csv
LABORATORY,FSRI
TEST IDENT,Fabric_HF75_2
OPERATOR,Morrissey
MATERIAL,PE Microfiber Fabric
ORIENTATION,Horizontal
HEAT FLUX,75
SURF AREA,0.01
C FACTOR,0.0386052
SPEC HOLDER DIFF,-97.56
SPECIMEN MASS,1.91
SCAN TIME,0.25
O2 DELAY TIME,11
CO DELAY TIME,11
CO2 DELAY TIME,8
FLOW FACTOR,1
SCAN COUNT,621
TIME TO IGN,8.75
END OF TEST SCAN,141
END OF TEST TIME,35.25
TEST STATUS,1
PRE TEST CMT,
POST TEST CMT,"Prior to ignition, the sample shrivelled towards the center and impacted the spark ignitor, causing a spike in the mass data. The sample melted away from the ignitor before igniting."