File: 01_Data/Overstuffed_Chair_Polyester_Fabric/Cone/Overstuffed_Chair_Polyester_Fabric_Cone_HF25Scalar_210325_R3.csv
LABORATORY,FSRI
TEST IDENT,Fabric_H25_3
OPERATOR,Morrissey
MATERIAL,Polyester Microfiber Fabric
ORIENTATION,Horizontal
HEAT FLUX,25
SURF AREA,0.01
C FACTOR,0.0386052
SPEC HOLDER DIFF,-87.32
SPECIMEN MASS,1.88
SCAN TIME,0.25
O2 DELAY TIME,11
CO DELAY TIME,11
CO2 DELAY TIME,8
FLOW FACTOR,1
SCAN COUNT,3047
TIME TO IGN,586.75
END OF TEST SCAN,2567
END OF TEST TIME,641.75
TEST STATUS,1
PRE TEST CMT,
POST TEST CMT,"Prior to ignition, the sample shrivelled towards the center and impacted the spark ignitor, causing a spike in the mass data. The sample melted away from the ignitor before igniting."