File: 01_Data/Overstuffed_Chair_Polyester_Fabric/Cone/Overstuffed_Chair_Polyester_Fabric_Cone_HF50Scalar_210326_R1.csv
LABORATORY,FSRI
TEST IDENT,fabric_HF50_1
OPERATOR,Dow
MATERIAL,PE microfiber fabric
ORIENTATION,Horizontal
HEAT FLUX,50
SURF AREA,0.01
C FACTOR,0.0386052
SPEC HOLDER DIFF,-99.96
SPECIMEN MASS,1.89
SCAN TIME,0.25
O2 DELAY TIME,11
CO DELAY TIME,11
CO2 DELAY TIME,8
FLOW FACTOR,1
SCAN COUNT,690
TIME TO IGN,20
END OF TEST SCAN,210
END OF TEST TIME,52.5
TEST STATUS,1
PRE TEST CMT,
POST TEST CMT,"Prior to ignition, the sample shrivelled towards the center and impacted the spark ignitor, causing a spike in the mass data. The sample melted away from the ignitor before igniting."