File: 01_Data/PMMA/Cone/PMMA_HRRPUA_25.csv
Time after Ignition,PMMA_R1,PMMA_R2,PMMA_R3,Mean,Std. Dev.
0.0,22.7,13.4,13.7,16.6,5.3
0.75,30.9,23.0,21.9,25.2,4.9
1.5,43.4,31.7,31.5,35.5,6.8
2.25,56.9,43.3,44.8,48.3,7.4
3.0,67.3,55.0,57.9,60.1,6.4
3.75,84.6,67.3,70.5,74.1,9.2
4.5,96.0,82.8,82.7,87.2,7.7
5.25,111.5,101.6,93.9,102.3,8.8
6.0,123.0,111.5,114.5,116.3,6.0
6.75,141.0,132.8,131.4,135.1,5.1
7.5,156.5,152.2,150.0,152.9,3.3
8.25,177.9,170.8,169.9,172.9,4.4
9.0,192.6,189.7,194.1,192.2,2.3
9.75,217.3,198.4,211.5,209.1,9.6
10.5,228.8,211.4,233.1,224.4,11.5
11.25,249.3,222.6,254.7,242.2,17.2
12.0,268.3,233.7,261.1,254.4,18.3
12.75,275.3,239.8,280.1,265.1,22.0
13.5,287.0,255.8,294.9,279.2,20.7
14.25,299.9,260.7,303.3,288.0,23.7
15.0,310.8,276.3,324.2,303.8,24.8
15.75,319.5,293.6,329.9,314.3,18.7
16.5,340.9,310.7,344.2,331.9,18.5
17.25,351.6,323.0,345.8,340.2,15.1
18.0,356.0,330.2,375.6,353.9,22.8
18.75,367.4,338.5,367.7,357.9,16.8
19.5,375.0,342.8,371.3,363.0,17.6
20.25,393.6,352.2,384.9,376.9,21.8
21.0,388.9,361.0,388.4,379.4,15.9
21.75,392.5,371.2,415.6,393.1,22.2
22.5,402.8,379.6,419.7,400.7,20.2
23.25,420.4,388.4,429.5,412.7,21.6
24.0,421.7,395.4,431.0,416.0,18.5
24.75,423.8,405.5,435.6,421.6,15.2
25.5,438.3,395.8,449.3,427.8,28.3
26.25,439.9,404.1,450.8,431.6,24.5
27.0,448.8,405.7,467.8,440.8,31.8
27.75,462.3,425.9,464.9,451.0,21.8
28.5,457.4,432.5,472.9,454.3,20.4
29.25,462.9,436.8,491.7,463.8,27.5
30.0,456.6,450.3,494.0,467.0,23.6
30.75,472.8,446.5,499.2,472.8,26.4
31.5,464.6,458.1,509.1,477.2,27.7
32.25,490.3,466.2,516.5,491.0,25.2
33.0,472.1,476.9,515.1,488.0,23.5
33.75,490.5,448.0,529.5,489.3,40.8
34.5,507.4,465.5,538.9,503.9,36.8
35.25,488.3,474.9,544.6,502.6,37.0
36.0,514.9,472.2,565.6,517.6,46.7
36.75,524.4,471.8,553.9,516.7,41.6
37.5,522.2,496.8,584.3,534.4,45.0
38.25,516.7,498.5,555.8,523.7,29.3
39.0,524.5,496.4,562.2,527.7,33.0
39.75,551.5,504.9,575.8,544.1,36.0
40.5,533.3,510.5,581.0,541.6,36.0
41.25,537.9,522.9,589.6,550.1,35.0
42.0,536.3,532.5,567.5,545.4,19.2
42.75,544.1,544.1,608.5,565.6,37.2
43.5,561.1,533.4,608.4,567.7,37.9
44.25,557.8,529.3,613.7,566.9,43.0
45.0,562.8,571.1,638.8,590.9,41.7
45.75,571.7,541.3,637.7,583.6,49.3
46.5,592.9,557.2,626.3,592.2,34.5
47.25,588.8,554.5,638.7,594.0,42.3
48.0,574.6,542.9,629.4,582.3,43.8
48.75,581.7,577.9,639.4,599.6,34.5
49.5,608.0,564.4,662.9,611.7,49.4
50.25,597.1,574.1,672.3,614.5,51.4
51.0,603.0,599.3,690.1,630.8,51.4
51.75,609.9,589.3,685.3,628.2,50.5
52.5,620.1,597.4,702.9,640.2,55.5
53.25,610.9,592.9,678.6,627.4,45.2
54.0,617.7,588.1,685.5,630.4,49.9
54.75,609.0,594.8,688.5,630.8,50.5
55.5,596.4,611.1,708.3,638.6,60.8
56.25,632.7,613.2,710.1,652.0,51.3
57.0,622.1,609.9,704.0,645.3,51.2
57.75,635.6,605.2,731.4,657.4,65.9
58.5,634.3,634.7,733.2,667.4,57.0
59.25,650.8,632.5,709.3,664.2,40.1
60.0,638.4,638.0,739.4,671.9,58.4
60.75,641.0,644.6,714.6,666.7,41.5
61.5,661.2,645.1,727.6,678.0,43.7
62.25,649.5,663.5,745.4,686.1,51.8
63.0,662.0,652.3,730.4,681.6,42.6
63.75,665.8,649.9,764.3,693.3,62.0
64.5,673.1,643.4,719.6,678.7,38.4
65.25,669.2,619.4,769.4,686.0,76.4
66.0,678.4,682.8,749.2,703.5,39.7
66.75,642.1,669.5,754.6,688.7,58.7
67.5,704.7,682.3,762.9,716.6,41.6
68.25,695.5,697.0,761.8,718.1,37.8
69.0,688.8,677.0,794.6,720.1,64.8
69.75,690.9,688.1,759.0,712.6,40.2
70.5,693.5,681.5,760.9,712.0,42.8
71.25,675.9,691.1,783.0,716.7,58.0
72.0,707.8,686.3,769.0,721.1,42.9
72.75,706.1,695.9,766.8,722.9,38.4
73.5,707.7,679.7,765.4,717.6,43.7
74.25,699.9,688.0,747.3,711.7,31.4
75.0,686.9,680.7,782.7,716.8,57.2
75.75,713.6,705.2,770.8,729.9,35.7
76.5,681.0,700.1,789.9,723.7,58.2
77.25,706.3,710.1,793.9,736.8,49.5
78.0,715.6,684.7,750.0,716.8,32.7
78.75,674.3,666.9,730.2,690.5,34.6
79.5,692.7,696.0,753.7,714.1,34.3
80.25,702.0,663.2,761.7,709.0,49.6
81.0,718.4,679.2,718.8,705.5,22.8
81.75,694.4,674.3,716.6,695.1,21.2
82.5,695.0,691.1,751.8,712.6,34.0
83.25,689.6,721.4,751.7,720.9,31.1
84.0,702.1,702.5,752.0,718.9,28.7
84.75,689.5,683.8,740.1,704.5,31.0
85.5,697.0,677.4,736.7,703.7,30.2
86.25,670.5,671.2,750.3,697.3,45.9
87.0,684.4,710.2,756.9,717.2,36.7
87.75,709.1,665.5,737.1,703.9,36.1
88.5,701.3,678.0,766.4,715.2,45.8
89.25,677.9,688.3,737.6,701.3,31.9
90.0,693.9,702.6,767.2,721.2,40.1
90.75,670.0,684.8,716.8,690.5,23.9
91.5,693.3,677.1,756.1,708.8,41.8
92.25,651.9,705.3,764.0,707.1,56.0
93.0,683.6,689.1,752.5,708.4,38.3
93.75,709.3,687.8,733.6,710.2,22.9
94.5,675.7,666.2,771.3,704.4,58.2
95.25,658.2,678.1,740.7,692.3,43.1
96.0,683.2,667.9,751.7,700.9,44.6
96.75,708.3,698.3,747.6,718.1,26.1
97.5,709.5,681.7,758.5,716.6,38.9
98.25,666.9,706.0,754.1,709.0,43.6
99.0,696.2,680.7,761.8,712.9,43.0
99.75,673.2,673.6,763.9,703.6,52.3
100.5,694.5,674.1,742.1,703.6,34.9
101.25,679.1,716.9,762.6,719.5,41.8
102.0,696.1,695.7,780.7,724.2,49.0
102.75,674.0,695.8,759.6,709.8,44.5
103.5,681.5,701.9,796.9,726.8,61.5
104.25,706.8,692.0,790.5,729.8,53.1
105.0,692.1,701.2,754.4,715.9,33.6
105.75,672.9,691.8,748.3,704.3,39.2
106.5,678.5,689.2,773.0,713.6,51.8
107.25,687.6,692.5,792.0,724.0,58.9
108.0,673.3,650.3,775.1,699.6,66.4
108.75,689.6,693.9,773.6,719.0,47.3
109.5,684.4,694.7,772.4,717.2,48.1
110.25,687.8,690.8,768.2,715.6,45.6
111.0,692.5,680.1,746.3,706.3,35.2
111.75,659.8,682.7,804.5,715.7,77.8
112.5,678.1,707.0,788.5,724.5,57.3
113.25,667.2,690.5,789.7,715.8,65.0
114.0,689.1,696.7,756.8,714.2,37.1
114.75,676.3,710.0,767.2,717.8,45.9
115.5,657.3,694.4,781.5,711.1,63.7
116.25,698.8,682.6,738.0,706.4,28.5
117.0,654.3,699.8,797.7,717.3,73.3
117.75,664.2,686.6,789.5,713.4,66.8
118.5,695.5,706.9,775.0,725.8,43.0
119.25,694.6,692.5,751.7,712.9,33.6
120.0,682.7,714.4,789.2,728.8,54.7
120.75,685.0,694.6,748.9,709.5,34.4
121.5,728.8,687.9,764.7,727.1,38.4
122.25,691.7,700.6,750.0,714.1,31.4
123.0,678.0,701.9,774.1,718.0,50.0
123.75,690.7,703.1,768.9,720.9,42.0
124.5,703.4,696.1,771.0,723.5,41.3
125.25,720.9,690.5,747.7,719.7,28.6
126.0,696.4,685.1,761.8,714.4,41.4
126.75,691.5,739.3,739.8,723.6,27.7
127.5,716.9,702.0,766.9,728.6,34.0
128.25,664.0,713.3,774.6,717.3,55.4
129.0,691.7,692.8,757.4,714.0,37.6
129.75,685.5,708.2,771.9,721.9,44.8
130.5,708.0,714.2,764.0,728.8,30.7
131.25,680.7,693.6,747.7,707.3,35.5
132.0,692.5,683.6,761.4,712.5,42.6
132.75,700.4,725.2,759.7,728.4,29.8
133.5,688.5,709.0,743.0,713.5,27.5
134.25,686.8,712.2,719.7,706.2,17.3
135.0,693.9,714.3,749.8,719.3,28.3
135.75,701.2,710.6,737.1,716.3,18.7
136.5,681.6,687.7,733.6,700.9,28.4
137.25,677.7,669.4,725.5,690.9,30.3
138.0,665.8,692.7,717.6,692.0,25.9
138.75,695.8,697.3,705.9,699.7,5.4
139.5,688.8,699.5,692.0,693.4,5.5
140.25,674.5,698.7,653.0,675.4,22.9
141.0,661.3,683.2,665.5,670.0,11.6
141.75,678.0,696.1,666.9,680.3,14.8
142.5,672.2,693.5,663.7,676.5,15.4
143.25,693.6,713.0,650.1,685.5,32.2
144.0,670.2,673.7,659.5,667.8,7.4
144.75,666.3,673.0,623.8,654.3,26.7
145.5,651.2,676.7,631.7,653.2,22.6
146.25,668.7,687.7,621.0,659.2,34.4
147.0,659.2,681.8,620.4,653.8,31.0
147.75,673.9,671.0,599.3,648.1,42.2
148.5,664.0,666.4,610.7,647.0,31.5
149.25,662.9,678.1,597.6,646.2,42.7
150.0,631.2,666.1,602.9,633.4,31.6
150.75,651.8,653.4,586.9,630.7,37.9
151.5,645.7,658.3,582.6,628.9,40.6
152.25,641.1,646.0,577.0,621.4,38.5
153.0,639.5,666.6,548.8,618.3,61.7
153.75,635.5,656.6,561.4,617.8,50.0
154.5,612.3,655.0,540.4,602.6,57.9
155.25,601.8,641.8,538.0,593.8,52.3
156.0,618.1,646.5,536.8,600.5,56.9
156.75,599.5,625.7,522.4,582.5,53.7
157.5,609.6,610.4,503.8,574.6,61.3
158.25,612.2,606.4,493.9,570.8,66.7
159.0,601.4,613.8,483.4,566.2,71.9
159.75,601.0,618.6,465.1,561.6,84.0
160.5,587.3,615.0,437.7,546.6,95.4
161.25,581.5,580.5,443.7,535.2,79.3
162.0,592.5,589.2,424.8,535.5,95.9
162.75,569.3,575.2,402.1,515.5,98.3
163.5,571.0,557.0,395.5,507.9,97.5
164.25,577.3,550.0,377.3,501.5,108.4
165.0,585.8,540.3,364.5,496.9,116.8
165.75,562.4,531.6,345.5,479.8,117.4
166.5,556.9,497.8,331.6,462.1,116.8
167.25,567.9,496.7,318.4,461.0,128.5
168.0,563.9,474.2,302.9,447.0,132.6
168.75,566.9,454.4,286.5,435.9,141.1
169.5,538.7,444.6,269.5,417.6,136.6
170.25,535.7,429.2,261.0,408.6,138.5
171.0,530.6,409.9,241.3,393.9,145.3
171.75,517.1,395.6,222.5,378.4,148.0
172.5,498.5,390.0,203.1,363.8,149.4
173.25,496.0,377.7,193.1,355.6,152.7
174.0,478.2,362.6,178.0,339.6,151.4
174.75,464.4,341.2,161.6,322.4,152.3
175.5,441.9,326.2,145.3,304.5,149.5
176.25,417.8,315.9,128.1,287.3,147.0
177.0,413.2,299.0,115.5,275.9,150.2
177.75,382.7,285.7,107.6,258.6,139.5
178.5,363.1,264.0,96.2,241.1,134.9
179.25,335.3,250.8,87.3,224.4,126.1
180.0,313.7,232.2,79.8,208.5,118.7
180.75,287.3,212.3,72.8,190.8,108.9
181.5,258.3,193.8,64.8,172.3,98.5
182.25,231.7,177.6,56.1,155.1,89.9
183.0,201.9,167.7,47.9,139.2,80.9
183.75,179.5,149.5,41.5,123.5,72.6
184.5,155.8,140.4,37.0,111.1,64.6
185.25,134.2,128.8,33.6,98.9,56.6
186.0,115.3,116.1,30.3,87.3,49.3
186.75,98.2,102.3,26.5,75.7,42.6
187.5,80.0,89.0,23.7,64.2,35.4
188.25,64.2,77.3,21.1,54.2,29.4
188.75,55.8,70.7,,63.2,10.5