File: 01_Data/Polyolefin_Carpet_Low_Pile/Cone/Polyolefin_Carpet_Low_Pile_HRRPUA_25.csv
Time after Ignition,Polyolefin_Carpet_Low_Pile_R1,Polyolefin_Carpet_Low_Pile_R2,Polyolefin_Carpet_Low_Pile_R3,Mean,Std. Dev.
0.0,13.9,14.0,13.6,13.8,0.2
0.5,16.8,19.2,15.2,17.1,2.0
1.0,22.4,23.3,19.8,21.8,1.8
1.5,26.8,29.6,22.7,26.4,3.4
2.0,33.3,37.2,26.9,32.4,5.2
2.5,39.7,45.0,31.2,38.6,7.0
3.0,45.1,57.3,35.1,45.9,11.1
3.5,53.5,63.1,41.7,52.8,10.7
4.0,61.8,72.4,46.8,60.3,12.9
4.5,68.8,81.8,54.6,68.4,13.6
5.0,78.6,92.3,59.1,76.7,16.7
5.5,85.2,101.4,65.2,83.9,18.1
6.0,96.0,109.8,75.2,93.7,17.4
6.5,105.0,117.3,82.6,101.6,17.6
7.0,115.3,124.4,91.4,110.4,17.1
7.5,123.6,133.0,100.7,119.1,16.6
8.0,132.9,137.2,107.6,125.9,16.0
8.5,140.5,141.2,114.3,132.0,15.3
9.0,148.8,149.4,123.9,140.7,14.6
9.5,158.3,153.5,129.6,147.1,15.4
10.0,166.2,162.7,135.2,154.7,17.0
10.5,170.1,166.1,141.4,159.2,15.6
11.0,179.2,168.6,151.1,166.3,14.2
11.5,183.1,177.6,156.7,172.5,13.9
12.0,189.2,180.7,159.7,176.5,15.2
12.5,196.9,188.3,168.4,184.5,14.6
13.0,205.3,191.3,173.5,190.0,15.9
13.5,215.8,197.7,184.3,199.3,15.8
14.0,218.8,199.3,187.6,201.9,15.8
14.5,225.4,208.5,198.5,210.8,13.6
15.0,235.6,207.3,204.3,215.7,17.3
15.5,241.5,209.1,211.2,220.6,18.2
16.0,248.9,212.0,213.7,224.9,20.8
16.5,255.0,218.2,217.4,230.2,21.5
17.0,269.9,225.2,222.0,239.0,26.8
17.5,277.1,231.8,230.2,246.4,26.6
18.0,284.8,236.6,235.7,252.4,28.1
18.5,282.2,242.1,242.8,255.7,23.0
19.0,292.9,247.0,242.8,260.9,27.8
19.5,307.0,246.6,250.9,268.2,33.7
20.0,313.0,254.1,254.5,273.9,33.9
20.5,317.4,257.6,252.7,275.9,36.1
21.0,328.6,259.1,262.2,283.3,39.3
21.5,332.4,263.9,262.6,286.3,39.9
22.0,334.5,268.4,274.2,292.4,36.6
22.5,336.7,270.3,280.8,295.9,35.7
23.0,352.8,274.5,276.3,301.2,44.7
23.5,348.3,276.3,278.7,301.1,40.9
24.0,352.3,282.9,286.0,307.1,39.2
24.5,363.0,287.1,288.1,312.7,43.6
25.0,356.8,289.1,294.4,313.4,37.7
25.5,375.8,293.9,289.9,319.9,48.4
26.0,370.1,293.7,294.9,319.6,43.8
26.5,373.5,299.2,299.0,323.9,43.0
27.0,379.1,309.6,300.3,329.6,43.1
27.5,387.8,299.8,303.7,330.4,49.7
28.0,394.3,308.5,312.7,338.5,48.4
28.5,398.7,313.2,313.8,341.9,49.2
29.0,398.9,309.8,323.0,343.9,48.1
29.5,408.6,311.8,322.0,347.5,53.2
30.0,410.7,305.4,326.5,347.6,55.7
30.5,411.8,315.5,326.4,351.2,52.7
31.0,420.3,312.3,331.0,354.5,57.7
31.5,424.9,313.4,333.7,357.3,59.4
32.0,426.7,315.0,333.1,358.2,59.9
32.5,423.1,316.9,332.7,357.6,57.3
33.0,425.9,323.3,338.7,362.6,55.3
33.5,433.5,318.8,342.6,365.0,60.5
34.0,438.3,318.1,342.2,366.2,63.6
34.5,435.6,320.1,344.2,366.6,60.9
35.0,427.1,323.9,343.6,364.9,54.8
35.5,432.4,325.4,347.3,368.4,56.6
36.0,429.9,319.7,354.5,368.1,56.3
36.5,445.9,327.9,351.5,375.1,62.4
37.0,438.2,318.0,361.2,372.5,60.9
37.5,435.9,324.4,355.2,371.8,57.5
38.0,445.0,324.9,357.9,376.0,62.1
38.5,439.9,325.0,356.0,373.6,59.5
39.0,453.1,329.3,357.6,380.0,64.9
39.5,449.5,323.0,354.2,375.6,65.9
40.0,445.0,325.0,359.7,376.6,61.8
40.5,438.3,325.2,361.0,374.8,57.8
41.0,436.8,332.0,369.6,379.5,53.1
41.5,452.6,326.1,360.1,379.6,65.5
42.0,445.4,336.2,362.1,381.2,57.1
42.5,441.3,326.3,366.5,378.1,58.4
43.0,441.2,323.7,364.8,376.6,59.6
43.5,433.8,327.5,362.7,374.7,54.1
44.0,447.8,330.7,362.6,380.4,60.5
44.5,438.3,324.2,368.9,377.1,57.5
45.0,430.7,326.9,363.4,373.7,52.7
45.5,431.8,326.9,366.3,375.0,53.0
46.0,441.5,325.4,361.8,376.2,59.4
46.5,438.0,330.4,356.2,374.8,56.2
47.0,437.2,330.3,361.2,376.2,55.0
47.5,430.6,320.6,365.5,372.2,55.3
48.0,427.7,330.6,368.8,375.7,49.0
48.5,443.4,329.0,360.7,377.7,59.1
49.0,434.6,318.5,369.8,374.3,58.2
49.5,426.8,319.5,359.5,368.6,54.2
50.0,433.1,323.7,360.5,372.4,55.7
50.5,422.2,318.1,357.0,365.8,52.6
51.0,420.6,318.3,357.8,365.6,51.6
51.5,426.7,324.3,353.8,368.3,52.7
52.0,422.4,319.6,358.9,367.0,51.9
52.5,425.3,317.2,352.4,365.0,55.1
53.0,418.3,318.5,350.7,362.5,50.9
53.5,414.9,314.1,356.2,361.7,50.6
54.0,411.9,316.8,348.7,359.1,48.4
54.5,407.9,314.7,351.2,357.9,46.9
55.0,406.9,310.3,343.5,353.6,49.1
55.5,403.3,307.7,344.9,352.0,48.2
56.0,403.7,310.7,349.7,354.7,46.7
56.5,396.6,318.9,336.4,350.6,40.8
57.0,397.2,315.7,344.1,352.3,41.4
57.5,384.7,318.5,348.2,350.5,33.1
58.0,396.5,304.8,340.5,347.3,46.2
58.5,388.0,311.0,339.6,346.2,38.9
59.0,395.7,313.3,343.6,350.9,41.7
59.5,385.6,310.7,332.9,343.1,38.5
60.0,393.5,304.0,335.5,344.3,45.4
60.5,384.5,299.1,339.3,341.0,42.7
61.0,381.3,306.1,334.4,340.6,38.0
61.5,374.0,301.4,332.8,336.1,36.4
62.0,385.2,300.8,323.7,336.6,43.6
62.5,376.5,299.2,317.5,331.1,40.4
63.0,375.2,297.2,320.2,330.9,40.1
63.5,361.4,297.5,324.3,327.7,32.1
64.0,368.9,297.4,313.2,326.5,37.6
64.5,363.1,289.1,318.0,323.4,37.3
65.0,354.4,296.9,311.9,321.0,29.8
65.5,354.3,294.3,314.1,320.9,30.6
66.0,351.7,288.7,307.8,316.1,32.3
66.5,352.1,286.2,305.3,314.5,33.9
67.0,347.7,289.3,308.6,315.2,29.8
67.5,339.7,288.8,303.4,310.7,26.2
68.0,338.5,280.8,301.9,307.1,29.2
68.5,334.3,281.6,300.4,305.4,26.7
69.0,330.5,275.4,292.5,299.5,28.2
69.5,330.0,283.5,295.4,303.0,24.2
70.0,315.4,275.9,291.4,294.2,19.9
70.5,316.3,276.3,285.2,292.6,21.0
71.0,310.6,273.5,285.4,289.8,18.9
71.5,309.9,268.3,279.3,285.8,21.5
72.0,299.3,266.6,282.4,282.8,16.3
72.5,295.8,267.9,280.0,281.2,14.0
73.0,296.3,266.9,279.0,280.8,14.8
73.5,288.2,265.8,272.9,275.6,11.5
74.0,275.4,261.4,270.0,269.0,7.1
74.5,270.3,258.9,265.2,264.8,5.7
75.0,269.7,262.1,262.8,264.9,4.2
75.5,258.9,257.4,255.7,257.3,1.6
76.0,254.4,255.2,253.1,254.2,1.0
76.5,253.0,254.2,248.8,252.0,2.8
77.0,244.5,252.2,244.9,247.2,4.3
77.5,237.1,249.0,237.0,241.0,6.9
78.0,232.0,247.7,234.7,238.1,8.4
78.5,224.7,245.2,227.8,232.6,11.0
79.0,216.8,241.0,225.0,227.6,12.3
79.5,218.1,241.6,224.2,228.0,12.2
80.0,205.0,239.4,221.2,221.9,17.2
80.5,201.5,240.0,213.7,218.4,19.7
81.0,197.7,232.4,207.9,212.6,17.8
81.5,186.8,235.3,204.7,208.9,24.6
82.0,185.6,228.3,198.1,204.0,22.0
82.5,178.2,226.4,196.2,200.3,24.3
83.0,174.0,224.2,196.0,198.1,25.2
83.5,173.1,222.1,189.8,195.0,24.9
84.0,163.4,222.5,181.2,189.0,30.3
84.5,162.0,218.3,180.6,187.0,28.6
85.0,156.5,217.0,173.6,182.4,31.2
85.5,152.1,215.4,174.2,180.6,32.1
86.0,148.0,213.0,166.7,175.9,33.4
86.5,143.2,211.9,162.4,172.5,35.4
87.0,138.7,207.3,162.4,169.5,34.8
87.5,136.9,202.5,156.6,165.4,33.7
88.0,134.4,200.8,153.7,163.0,34.1
88.5,130.9,199.9,149.8,160.2,35.7
89.0,124.6,195.0,148.9,156.2,35.8
89.5,121.6,192.4,145.0,153.0,36.1
90.0,120.6,190.2,140.6,150.5,35.8
90.5,115.2,184.6,134.4,144.7,35.9
91.0,111.4,184.5,131.2,142.4,37.8
91.5,107.6,182.6,127.9,139.3,38.8
92.0,104.4,179.0,126.0,136.5,38.4
92.5,103.9,175.4,121.1,133.5,37.3
93.0,101.9,177.7,120.3,133.3,39.6
93.5,98.1,171.0,117.6,128.9,37.7
94.0,97.8,170.8,114.0,127.5,38.3
94.5,96.8,167.4,110.7,125.0,37.4
95.0,92.4,165.0,110.1,122.5,37.9
95.5,90.4,162.7,108.8,120.6,37.6
96.0,88.9,163.6,104.2,118.9,39.5
96.5,87.0,160.3,105.0,117.4,38.2
97.0,84.6,157.9,99.8,114.1,38.7
97.5,82.0,155.8,98.6,112.1,38.7
98.0,79.2,151.2,96.4,109.0,37.6
98.5,77.2,149.8,93.2,106.7,38.1
99.0,74.0,151.0,90.7,105.2,40.5
99.5,72.3,147.2,86.8,102.1,39.7
100.0,68.9,144.0,84.2,99.0,39.7
100.5,68.2,142.3,82.6,97.7,39.3
101.0,66.7,141.4,79.9,96.0,39.9
101.5,63.2,139.2,79.7,94.0,40.0
102.0,62.3,135.5,76.3,91.4,38.8
102.5,60.5,134.0,74.3,89.6,39.1
103.0,58.0,131.0,72.5,87.2,38.7
103.5,57.1,128.7,69.6,85.1,38.3
104.0,56.2,126.3,68.1,83.5,37.5
104.5,52.8,123.8,65.3,80.7,37.9
105.0,52.6,122.1,64.3,79.7,37.2
105.5,50.0,120.1,62.2,77.5,37.4
106.0,48.7,120.1,59.0,75.9,38.6
106.5,47.3,117.9,58.7,74.6,37.8
107.0,45.3,115.8,55.7,72.3,38.1
107.5,45.1,113.1,54.5,70.9,36.9
108.0,43.8,110.5,53.2,69.2,36.1
108.5,43.2,107.4,50.7,67.1,35.1
109.0,41.4,107.0,50.4,66.3,35.6
109.5,40.9,104.8,48.7,64.8,34.8
110.0,39.1,102.0,48.2,63.1,34.0
110.5,38.6,99.5,46.6,61.6,33.1
111.0,37.6,97.7,45.8,60.4,32.6
111.5,36.2,95.3,44.0,58.5,32.1
112.0,35.4,92.9,43.6,57.3,31.1
112.5,34.8,91.9,41.5,56.0,31.2
113.0,33.2,90.0,40.7,54.6,30.9
113.5,32.2,90.0,40.0,54.1,31.4
114.0,31.7,87.3,38.2,52.4,30.4
114.5,31.3,85.1,37.4,51.2,29.4
115.0,30.3,83.4,36.2,49.9,29.1
115.5,29.9,80.1,36.0,48.7,27.4
116.0,28.9,79.4,34.9,47.8,27.6
116.5,28.2,77.5,34.5,46.7,26.8
117.0,27.6,75.9,33.7,45.7,26.3
117.5,26.7,74.0,32.6,44.4,25.8
118.0,26.6,71.7,32.0,43.4,24.6
118.5,26.0,69.9,31.3,42.4,23.9
119.0,25.3,69.1,30.6,41.7,23.9
119.5,24.7,67.3,30.1,40.7,23.2
120.0,24.0,66.6,29.1,39.9,23.2
120.5,23.4,66.0,29.0,39.4,23.1
121.0,23.1,64.6,28.0,38.6,22.7
121.5,22.1,63.1,27.6,37.6,22.3
122.0,21.8,62.0,27.1,36.9,21.8
122.5,21.1,60.2,26.5,35.9,21.2
123.0,20.6,58.7,25.8,35.0,20.6
123.5,19.9,58.3,25.4,34.6,20.8
124.0,19.8,57.2,24.7,33.9,20.3
124.5,19.4,56.2,24.0,33.2,20.1
125.0,18.6,54.8,23.8,32.4,19.6
125.5,18.4,54.4,23.2,32.0,19.6
126.0,18.1,52.6,22.1,30.9,18.9
126.5,17.6,52.7,21.8,30.7,19.2
127.0,17.4,51.0,21.1,29.8,18.5
127.5,17.0,50.9,20.3,29.4,18.7
128.0,17.1,50.2,19.9,29.0,18.3
128.5,16.1,48.7,19.3,28.0,18.0
129.0,15.8,49.0,18.8,27.9,18.3
129.5,15.4,47.9,18.4,27.3,18.0
130.0,15.2,47.0,17.8,26.6,17.6
130.5,15.1,46.8,17.5,26.5,17.6
131.0,15.0,46.1,16.7,25.9,17.5
131.5,14.8,45.7,16.1,25.5,17.5
132.0,14.6,44.3,15.4,24.8,16.9
132.5,14.6,43.8,15.1,24.5,16.7
133.0,14.4,42.6,14.6,23.9,16.2
133.5,14.6,41.5,14.2,23.4,15.6
134.0,14.2,40.7,13.5,22.8,15.5
134.5,14.3,39.4,13.1,22.3,14.8
135.0,14.6,39.1,12.9,22.2,14.6
135.5,14.6,38.5,12.6,21.9,14.4
136.0,14.7,37.7,12.4,21.6,14.0
136.5,14.8,36.7,11.8,21.1,13.6
137.0,14.9,36.0,11.2,20.7,13.4
137.5,15.2,35.4,11.0,20.5,13.0
138.0,15.0,33.7,10.9,19.9,12.1
138.5,15.2,32.7,10.4,19.4,11.8
139.0,15.4,32.0,9.9,19.1,11.5
139.5,15.4,31.1,9.4,18.6,11.2
140.0,15.6,31.1,9.4,18.7,11.2
140.5,15.7,30.3,8.8,18.3,11.0
141.0,15.6,29.8,8.5,18.0,10.8
141.5,15.6,28.8,8.2,17.5,10.4
142.0,15.6,28.5,8.0,17.4,10.3
142.5,15.7,27.4,7.9,17.0,9.8
143.0,15.8,26.5,7.4,16.6,9.6
143.5,15.5,25.4,7.2,16.0,9.1
144.0,15.4,24.4,6.8,15.5,8.8
144.5,14.7,23.3,,19.0,6.0
145.0,14.1,22.4,,18.3,5.9
145.5,13.1,21.6,,17.4,6.0
146.0,12.6,21.0,,16.8,5.9
146.5,11.9,20.1,,16.0,5.8
147.0,11.1,19.9,,15.5,6.2