File: 01_Data/Polyolefin_Carpet_Low_Pile/Cone/Polyolefin_Carpet_Low_Pile_HRRPUA_50.csv
Time after Ignition,Polyolefin_Carpet_Low_Pile_R1,Polyolefin_Carpet_Low_Pile_R2,Polyolefin_Carpet_Low_Pile_R3,Mean,Std. Dev.
0.0,23.3,29.0,17.5,23.3,5.8
1.25,42.9,48.7,29.0,40.2,10.1
2.5,84.3,77.6,46.4,69.4,20.2
3.75,124.3,113.8,79.5,105.8,23.5
5.0,167.0,164.5,120.8,150.8,26.0
6.25,214.1,203.7,162.3,193.4,27.4
7.5,246.8,247.7,196.5,230.3,29.3
8.75,285.6,271.4,235.9,264.3,25.6
10.0,334.1,292.4,278.8,301.7,28.8
11.25,373.0,324.4,327.5,341.7,27.2
12.5,411.7,351.9,388.4,384.0,30.2
13.75,442.0,373.0,418.4,411.1,35.1
15.0,486.8,416.2,462.7,455.2,35.9
16.25,534.8,452.6,502.4,496.6,41.4
17.5,594.0,499.7,547.2,547.0,47.1
18.75,625.1,536.5,578.1,579.9,44.3
20.0,644.2,557.7,605.8,602.6,43.4
21.25,684.9,590.0,629.2,634.7,47.7
22.5,688.5,621.0,667.6,659.0,34.5
23.75,725.3,652.0,695.2,690.9,36.8
25.0,730.1,656.0,696.4,694.1,37.1
26.25,750.3,690.5,744.1,728.3,32.9
27.5,770.0,706.3,756.2,744.2,33.5
28.75,776.8,709.7,744.9,743.8,33.6
30.0,749.5,719.7,734.3,734.5,14.9
31.25,765.4,699.8,736.0,733.8,32.9
32.5,744.1,706.6,740.8,730.5,20.7
33.75,726.3,675.8,733.3,711.8,31.4
35.0,707.3,687.8,725.0,706.7,18.6
36.25,688.0,675.8,708.5,690.8,16.5
37.5,647.7,670.5,706.6,674.9,29.7
38.75,612.6,623.3,715.0,650.3,56.2
40.0,570.3,607.1,662.8,613.4,46.5
41.25,548.4,572.3,637.5,586.1,46.1
42.5,506.1,550.9,613.1,556.7,53.7
43.75,470.7,508.1,601.2,526.7,67.2
45.0,442.5,477.5,556.5,492.2,58.4
46.25,412.0,443.2,514.9,456.7,52.8
47.5,374.8,400.2,485.7,420.3,58.1
48.75,336.1,379.7,450.3,388.7,57.6
50.0,300.5,349.9,416.0,355.5,58.0
51.25,264.6,313.7,382.8,320.4,59.4
52.5,237.3,282.6,345.3,288.4,54.2
53.75,219.6,258.7,306.0,261.4,43.2
55.0,198.2,236.1,266.9,233.7,34.4
56.25,182.6,219.2,233.4,211.7,26.2
57.5,163.1,202.8,216.4,194.1,27.7
58.75,146.8,182.5,188.4,172.6,22.5
60.0,132.7,162.4,169.8,155.0,19.6
61.25,118.7,142.1,150.0,136.9,16.2
62.5,108.6,127.4,131.4,122.5,12.1
63.75,98.1,115.4,117.4,110.3,10.6
65.0,89.8,106.5,108.4,101.6,10.3
66.25,83.6,94.7,94.0,90.8,6.2
67.5,79.1,85.3,84.5,82.9,3.4
68.75,75.3,75.2,76.7,75.7,0.8
70.0,71.2,68.5,70.4,70.1,1.4
71.25,65.6,60.9,65.3,63.9,2.6
72.5,62.5,54.9,61.6,59.7,4.1
73.75,58.8,49.7,56.0,54.8,4.7
75.0,55.9,45.8,48.9,50.2,5.2
76.25,53.2,41.9,44.4,46.5,5.9
77.5,51.4,37.7,41.0,43.4,7.1
78.75,48.2,35.3,38.1,40.5,6.8
80.0,46.2,32.6,35.3,38.0,7.2
81.25,44.4,30.2,33.2,35.9,7.5
82.5,42.5,27.8,31.0,33.8,7.7
83.75,41.3,26.0,28.7,32.0,8.1
85.0,39.6,24.8,27.2,30.5,7.9
86.25,37.5,22.9,25.2,28.5,7.8
87.5,36.7,21.7,23.5,27.3,8.2
88.75,36.2,20.5,22.2,26.3,8.6
90.0,34.2,19.1,21.1,24.8,8.2
91.25,33.3,18.3,20.0,23.8,8.2
92.5,32.3,17.6,19.3,23.1,8.0
93.75,30.9,17.0,18.4,22.1,7.7
95.0,29.7,16.1,17.1,21.0,7.6
96.25,29.4,15.3,16.0,20.2,8.0
97.5,27.9,14.4,14.7,19.0,7.7
98.75,27.3,14.0,14.2,18.5,7.6
100.0,26.7,13.5,13.5,17.9,7.6
101.25,26.0,13.3,12.6,17.3,7.5
102.5,25.0,12.7,11.9,16.5,7.3
103.75,24.5,12.4,11.4,16.1,7.3
105.0,24.0,11.7,11.0,15.6,7.3
106.25,23.1,11.3,10.1,14.9,7.2
107.5,22.3,11.0,8.9,14.1,7.2
108.75,22.3,10.8,7.8,13.6,7.6
110.0,21.5,11.0,7.0,13.2,7.5
111.25,21.1,10.8,5.9,12.6,7.8
112.5,20.6,10.9,5.1,12.2,7.8
113.75,20.1,10.7,4.6,11.8,7.8
115.0,19.6,10.9,4.3,11.6,7.7
116.25,18.7,10.9,,14.8,5.6
117.5,18.0,10.8,,14.4,5.1
118.75,17.6,10.9,,14.2,4.8
120.0,17.2,10.6,,13.9,4.7
121.25,16.5,10.2,,13.3,4.4
122.5,16.2,9.9,,13.1,4.5
123.75,15.8,9.9,,12.8,4.2
125.0,15.8,9.6,,12.7,4.4
126.25,15.8,9.4,,12.6,4.5
127.5,15.8,9.1,,12.4,4.8
128.75,15.2,8.9,,12.1,4.4
130.0,14.6,9.4,,12.0,3.7
131.25,14.4,9.6,,12.0,3.4
132.5,14.2,9.9,,12.1,3.1
133.75,13.8,9.9,,11.8,2.7
135.0,13.4,10.0,,11.7,2.5
136.25,13.1,9.7,,11.4,2.4
137.5,13.3,9.4,,11.3,2.8
138.75,13.4,8.9,,11.2,3.2
140.0,13.9,8.3,,11.1,4.0
141.25,13.8,8.1,,10.9,4.0
142.5,13.5,7.9,,10.7,3.9
143.75,13.7,7.7,,10.7,4.2
145.0,13.1,7.7,,10.4,3.8
146.25,12.7,7.1,,9.9,4.0
147.5,12.4,6.7,,9.5,4.0
148.75,12.3,6.5,,9.4,4.1
150.0,12.0,6.7,,9.3,3.7
151.25,11.5,7.4,,9.5,2.9
152.5,11.1,7.7,,9.4,2.4
153.75,10.9,7.5,,9.2,2.4
155.0,10.8,7.1,,9.0,2.6
156.25,10.7,7.2,,8.9,2.4
157.5,10.2,7.2,,8.7,2.1
158.75,9.9,7.1,,8.5,2.0
160.0,9.2,7.1,,8.1,1.5
161.25,8.4,7.1,,7.7,0.9
162.5,8.0,7.0,,7.5,0.7
163.75,7.7,6.5,,7.1,0.9
165.0,7.5,6.2,,6.9,1.0
166.25,7.4,6.0,,6.7,1.0
167.5,7.4,6.0,,6.7,1.0
168.75,7.5,6.1,,6.8,0.9
170.0,7.4,6.4,,6.9,0.7
171.25,7.4,6.5,,6.9,0.6
172.5,7.4,6.1,,6.8,0.9
173.75,7.3,5.7,,6.5,1.1
175.0,7.4,5.4,,6.4,1.4
176.25,6.8,5.2,,6.0,1.1
177.5,6.6,5.2,,5.9,1.0
178.75,6.3,5.0,,5.7,0.9
180.0,6.1,5.1,,5.6,0.8
181.25,6.2,5.2,,5.7,0.7
182.5,6.2,5.3,,5.7,0.6
183.75,6.1,5.4,,5.7,0.4
185.0,6.0,5.7,,5.9,0.2
186.25,6.1,6.1,,6.1,0.0
187.5,6.1,6.1,,6.1,0.0
188.75,6.1,5.8,,6.0,0.2
190.0,6.0,5.8,,5.9,0.2
191.25,6.0,5.6,,5.8,0.3
192.5,6.1,5.5,,5.8,0.4
193.75,6.0,5.6,,5.8,0.3
195.0,5.5,5.5,,5.5,0.0
196.25,5.1,5.7,,5.4,0.4
197.5,5.5,5.8,,5.7,0.2
198.75,5.8,5.9,,5.8,0.1
200.0,5.9,5.9,,5.9,0.0
201.25,6.0,6.3,,6.1,0.3
202.5,6.3,6.8,,6.5,0.4
203.75,6.3,6.9,,6.6,0.4
205.0,6.4,7.2,,6.8,0.6
206.25,6.0,7.0,,6.5,0.7
207.5,5.3,6.5,,5.9,0.9
208.75,4.8,6.3,,5.5,1.1
210.0,4.5,6.1,,5.3,1.1
211.25,4.3,6.1,,5.2,1.3
212.5,4.1,6.0,,5.1,1.3
213.75,3.9,6.1,,5.0,1.6
215.0,3.7,6.1,,4.9,1.7
216.25,3.7,6.6,,5.1,2.0
217.5,3.6,6.4,,5.0,1.9
218.75,4.1,6.3,,5.2,1.6
220.0,4.5,6.4,,5.4,1.4
221.25,4.1,6.4,,5.2,1.6
222.5,4.4,6.4,,5.4,1.4
223.75,4.6,6.4,,5.5,1.2
225.0,4.7,6.4,,5.5,1.2
226.25,4.7,6.3,,5.5,1.1
227.5,4.8,6.4,,5.6,1.1
228.75,4.8,6.3,,5.5,1.0
230.0,4.6,6.4,,5.5,1.3
231.25,4.4,6.3,,5.4,1.4
232.5,4.2,6.3,,5.2,1.5
233.75,4.4,6.1,,5.2,1.3
235.0,4.4,5.7,,5.1,0.9
236.25,4.5,5.3,,4.9,0.6
237.5,4.5,5.1,,4.8,0.5
238.75,4.5,4.5,,4.5,0.0
240.0,4.5,3.9,,4.2,0.4
241.25,5.0,3.7,,4.4,0.9
242.5,5.3,3.5,,4.4,1.3
243.75,5.5,3.6,,4.5,1.3
245.0,5.7,3.7,,4.7,1.4
246.25,5.7,3.8,,4.7,1.4
247.5,5.7,4.1,,4.9,1.1
248.75,5.8,4.6,,5.2,0.9
250.0,5.8,4.9,,5.3,0.6
251.25,5.8,5.0,,5.4,0.6
252.5,5.8,5.7,,5.7,0.1
253.75,5.6,5.6,,5.6,0.0
255.0,5.4,5.3,,5.3,0.1
256.25,5.1,5.0,,5.1,0.1
257.5,5.0,4.8,,4.9,0.1
258.75,5.0,5.2,,5.1,0.1
260.0,4.7,5.5,,5.1,0.6
261.25,4.2,5.7,,4.9,1.0
262.5,4.0,5.8,,4.9,1.3
263.75,3.8,5.8,,4.8,1.4
265.0,4.0,5.1,,4.6,0.8
266.25,4.6,4.2,,4.4,0.2
267.5,4.9,3.7,,4.3,0.8
268.75,5.0,3.4,,4.2,1.1
270.0,5.3,3.3,,4.3,1.4
271.25,5.2,3.0,,4.1,1.6
272.5,5.3,2.5,,3.9,2.0
273.75,5.3,2.1,,3.7,2.2
275.0,5.4,1.6,,3.5,2.7
276.25,5.5,,,5.5,
277.5,5.5,,,5.5,
278.75,6.0,,,6.0,
280.0,6.2,,,6.2,
281.25,6.4,,,6.4,
282.5,6.4,,,6.4,
283.75,5.9,,,5.9,
285.0,5.6,,,5.6,
286.25,5.5,,,5.5,
287.5,5.4,,,5.4,
288.75,5.3,,,5.3,
290.0,5.3,,,5.3,
291.25,5.3,,,5.3,
292.5,5.4,,,5.4,
293.75,5.8,,,5.8,
295.0,6.2,,,6.2,
296.25,6.3,,,6.3,
297.5,6.4,,,6.4,
298.75,6.4,,,6.4,
300.0,6.4,,,6.4,
301.25,6.4,,,6.4,
302.5,6.5,,,6.5,
303.75,6.5,,,6.5,
305.0,6.5,,,6.5,
306.25,6.5,,,6.5,
307.5,6.7,,,6.7,
308.75,6.7,,,6.7,
310.0,6.8,,,6.8,
311.25,6.9,,,6.9,
312.5,6.9,,,6.9,
313.75,6.9,,,6.9,
315.0,6.8,,,6.8,
316.25,6.3,,,6.3,
317.5,5.9,,,5.9,
318.75,5.8,,,5.8,
320.0,5.5,,,5.5,
321.25,5.4,,,5.4,
322.5,5.3,,,5.3,
323.75,5.2,,,5.2,
325.0,5.2,,,5.2,
326.25,5.2,,,5.2,
327.5,5.2,,,5.2,
328.75,5.2,,,5.2,
330.0,5.2,,,5.2,
331.25,5.2,,,5.2,
332.5,5.1,,,5.1,
333.75,5.2,,,5.2,
335.0,5.1,,,5.1,
336.25,5.1,,,5.1,
337.5,5.3,,,5.3,
338.75,5.2,,,5.2,
340.0,5.2,,,5.2,
341.25,5.2,,,5.2,
342.5,5.2,,,5.2,
343.75,5.2,,,5.2,
345.0,4.8,,,4.8,
346.25,4.5,,,4.5,
347.5,4.3,,,4.3,
348.75,3.7,,,3.7,
350.0,3.5,,,3.5,
351.25,3.4,,,3.4,
352.5,3.4,,,3.4,
353.75,3.9,,,3.9,
355.0,4.2,,,4.2,
356.25,4.3,,,4.3,
357.5,4.5,,,4.5,
358.75,4.5,,,4.5,
360.0,4.1,,,4.1,
361.25,3.6,,,3.6,
362.5,2.9,,,2.9,
363.75,2.4,,,2.4,
365.0,2.0,,,2.0,
366.25,1.8,,,1.8,
367.5,1.6,,,1.6,
368.75,1.6,,,1.6,
370.0,1.5,,,1.5,
371.25,1.5,,,1.5,
372.5,1.5,,,1.5,
373.5,1.3,,,1.3,