File: 01_Data/Pallet_Wood/Cone/Pallet_Wood_Cone_HF35Scan_180728_R3.csv
Names,Time,Stack TC,Smoke TC,Exh Press,Smoke Comp,Smoke Meas,CO Meter,CO2 Meter,O2 Meter,Sample Mass,Ext Coeff,Start Test,Flame Verif
Chan Gain,,500,500,1,1,1,1,1,1,1,1,1,1
Offset,,0,0,0.124825,0,0,0,0,0,0,0,0,0
Gain,,1,1,25.011,13.6595,14.2307,1,1,1,1.00094,1.03371,1,1
Units,sec,C,C,Pa,%,%,%,%,%,g,/m,,
Baseline,,33.684,35.6605,170.561,100.102,99.4177,0.0112125,0.0629392,20.8762,-918.978,0.0622268,,
37,9,33.7042,35.6641,169.22,100.421,100.001,0.0114997,0.0655389,20.8748,58.8654,0.038031,0,0
74,18.25,34.39,36.1078,170.352,100.469,99.452,0.0108745,0.06371703,20.8764,58.8854,0.0922718,0,0
111,27.5,34.5573,37.2426,166.134,100.518,99.046,0.0111942,0.0633726,20.8756,58.8353,0.133808,0,0
148,36.75,34.6965,36.2046,169.23,100.539,98.7993,0.01105359,0.0634884,20.8768,58.7453,0.158299,0,0
185,46,35.6686,36.7603,172.469,100.593,97.7288,0.0114182,0.0641815,20.8747,58.6652,0.261897,0,0
222,55.25,35.8968,37.534,166.904,100.639,100.118,0.01216856,0.0907288,20.8388,58.4149,0.0470695,0,1
259,64.5,41.0576,46.1836,157.597,100.681,99.0503,0.01290761,0.24796,20.673,57.8744,0.148064,0,0
296,73.75,44.0703,52.382,156.152,100.702,99.1706,0.0133885,0.28006,20.6416,57.1538,0.138935,0,0
333,83,47.6663,54.8218,155.329,100.721,100.116,0.0134122,0.282934,20.6358,56.303,0.0546637,0,0
370,92.25,48.7814,55.8227,164.339,100.75,99.1415,0.0134698,0.2738235,20.6443,55.6323,0.14595,0,0
407,101.5,48.0673,57.0701,159.375,100.779,98.699,0.0132705,0.264554,20.6565,54.8916,0.189066,0,0
444,110.75,48.7882,55.0777,160.724,100.781,99.178,0.0133899,0.253613,20.6664,54.181,0.145389,0,0
481,120,48.3656,55.5829,157.07,100.796,99.1958,0.0132129,0.243433,20.6787,53.5003,0.145073,0,0
518,129.25,49.0852,54.4192,161.693,100.794,99.138,0.0133351,0.235587,20.6887,52.8597,0.150167,0,0
555,138.5,49.0856,53.9627,159.904,100.803,99.5784,0.0132938,0.226756,20.6971,52.2291,0.110842,0,0
592,147.75,48.5028,54.5076,160.165,100.817,99.8993,0.0130841,0.221435,20.7033,51.5585,0.0829388,0,0
629,157,47.9983,54.7599,160.614,100.816,99.7083,0.0136861,0.216521,20.7085,50.9579,0.100225,0,0
666,166.25,48.5398,53.1853,160.367,100.831,100.032,0.0136674,0.211822,20.7134,50.3073,0.0720841,0,0
703,175.5,48.7154,54.6468,159.219,100.823,100.273,0.0133811,0.211126,20.7148,49.7368,0.04955,0,0
740,184.75,48.9096,53.9881,164.278,100.826,99.3825,0.0133734,0.205762,20.7197,49.1262,0.130719,0,0
777,194,49.5952,53.4488,168.245,100.827,99.8042,0.0132813,0.201542,20.7253,48.4556,0.0924377,0,0
814,203.25,48.9347,54.1202,162.006,100.834,100.124,0.013655,0.201133,20.7249,47.9451,0.0640795,0,0
851,212.5,49.3703,54.1134,163.579,100.821,100.367,0.0137917,0.201691,20.7246,47.3245,0.0409207,0,0
888,221.75,49.4765,53.1057,159.867,100.827,99.8481,0.0134337,0.199955,20.7259,46.6939,0.0884907,0,0
925,231,49.5074,53.0096,166.702,100.798,100.063,0.013872,0.196859,20.728,46.1034,0.0662882,0,0
962,240.25,49.5152,54.0495,160.162,100.783,100.45,0.01393282,0.198856,20.7262,45.4327,0.0299801,0,0
999,249.5,49.1937,54.9764,162.584,100.772,99.244,0.0137383,0.198996,20.7262,44.8922,0.138531,0,0
1036,258.75,50.1365,54.2974,159.142,100.73,99.3578,0.0136571,0.199219,20.7265,44.2616,0.124389,0,0
1073,268,50.5574,53.9642,161.684,100.701,99.6744,0.013967,0.197466,20.7273,43.6511,0.09287744,0,0
1110,277.25,49.4036,54.1813,157.542,100.638,100.181,0.01405434,0.196561,20.7288,43.1306,0.0412952,0,0
1147,286.5,49.6671,53.0481,167.748,100.556,99.6488,0.0139539,0.197442,20.7267,42.48,0.0822115,0,0
1184,295.75,50.6281,54.5911,160.104,100.444,100.344,0.0138178,0.198878,20.7252,41.9595,0.009007363,0,0
1221,305,49.9344,54.5003,158.166,100.31,99.9532,0.0134814,0.200445,20.7239,41.2788,0.0322703,0,0
1258,314.25,50.1656,55.4944,156.881,100.156,99.5854,0.0134394,0.200374,20.7255,40.7583,0.0517869,0,0
1295,323.5,51.0214,54.6484,156.167,99.9986,99.2648,0.013192,0.201776,20.7238,40.1578,0.0667775,0,0
1332,332.75,50.9569,54.6234,159.622,99.7889,99.5007,0.0133451,0.203815,20.7232,39.5672,0.0262301,0,0
1369,342,50.8833,55.3095,152.786,99.5905,99.1741,0.0132276,0.205611,20.7192,38.9967,0.0379923,0,0
1406,351.25,51.9854,55.4661,154.735,99.415,99.2019,0.0135992,0.207332,20.7187,38.3361,0.0194577,0,0
1443,360.5,50.6585,56.3477,159.455,99.2036,98.3437,0.0137327,0.209422,20.714,37.8056,0.0789416,0,0
1480,369.75,51.6073,56.2128,160.849,99.0102,98.3033,0.0134059,0.213083,20.7115,37.175,0.0649704,0,0
1517,379,51.1829,57.0498,159.033,98.8476,97.2841,0.0129634,0.213214,20.7119,36.6245,0.144579,0,0
1554,388.25,51.3212,57.3798,162.646,98.7814,98.3103,0.0131499,0.214798,20.7095,36.0239,0.0433448,0,0
1591,397.5,52.2205,57.4204,160.933,98.796,97.7288,0.0129091,0.218728,20.7034,35.4934,0.09848,0,0
1628,406.75,52.7023,57.4023,160.98,98.8472,98.2304,0.0130713,0.222345,20.7,34.8228,0.0567629,0,0
1665,416,52.7647,56.6312,153.774,99.0261,98.0497,0.01314809,0.224834,20.6962,34.2522,0.0898458,0,0
1702,425.25,53.4247,58.138,158.761,99.2366,98.2994,0.0131309,0.227953,20.6915,33.6416,0.08603587,0,0
1739,434.5,52.5307,58.4429,162.273,99.4312,98.9257,0.0129353,0.232172,20.6854,33.0811,0.0462221,0,0
1776,443.75,54.0093,57.9435,165.538,99.6096,98.9548,0.0130024,0.23517,20.6852,32.4505,0.059812,0,0
1813,453,53.4868,60.2113,159.697,99.7918,98.289,0.0132483,0.244714,20.6754,31.8199,0.137592,0,0
1850,462.25,54.2915,59.1271,154.769,99.9882,99.3395,0.01289447,0.248829,20.6704,31.2394,0.059012,0,0
1887,471.5,55.2273,60.9823,155.073,100.1278,98.4627,0.01297853,0.25617,20.6622,30.5487,0.152059,0,0
1924,480.75,56.3987,61.5244,160.858,100.242,99.5467,0.01333,0.265034,20.6536,29.8581,0.0631156,0,0
1961,490,56.9937,62.3485,154.041,100.286,98.5622,0.0130754,0.274703,20.6412,29.1574,0.157201,0,0
1998,499.25,57.2062,63.4036,158.174,100.284,98.3072,0.0129122,0.284127,20.6309,28.4468,0.180533,0,0
2035,508.5,58.3006,63.8253,151.67,100.21,97.9946,0.0133032,0.295714,20.6171,27.636,0.202747,0,0
2072,517.75,58.9723,64.6504,157.433,100.082,99.1102,0.0138121,0.307369,20.6041,26.8352,0.0884683,0,0
2109,527,59.7821,67.1308,151.235,99.974,97.4052,0.0141799,0.320367,20.5886,25.9844,0.23603,0,0
2146,536.25,60.0146,68.4071,152.775,99.9015,97.5594,0.0136495,0.33482,20.5732,25.1437,0.215109,0,0
2183,545.5,62.3849,69.2628,151.261,99.9256,98.5704,0.0137849,0.349671,20.556,24.2128,0.123817,0,0
2220,554.75,62.427,70.6338,148.701,100.331,97.1677,0.0135428,0.35831,20.5453,23.3119,0.290478,0,0
2257,564,63.9256,71.3114,150.535,100.61,98.5748,0.014141,0.365262,20.5384,22.301,0.185281,0,0
2294,573.25,64.8716,72.293,151.168,100.749,97.4695,0.0140615,0.366018,20.5359,21.3701,0.300065,0,0
2331,582.5,64.4362,72.8115,149.093,100.759,97.7444,0.0139458,0.365398,20.5375,20.4392,0.275426,0,0
2368,591.75,65.2019,72.2266,153.368,100.637,97.9685,0.0138988,0.35969,20.5421,19.5284,0.2437,0,0
2405,601,65.008,72.7416,154.581,100.386,96.9775,0.01414674,0.356429,20.5455,18.6175,0.313218,0,0
2442,610.25,64.1379,72.9915,153.143,100.139,97.2676,0.0138788,0.343808,20.5582,17.7467,0.263815,0,0
2479,619.5,64.2635,72.2794,149.681,100.33,98.5266,0.0137877,0.334131,20.5665,16.9559,0.164435,0,0
2516,628.75,65.2446,71.1928,157.961,100.549,98.4045,0.0136446,0.324266,20.5767,16.0851,0.195505,0,0
2553,638,63.4536,70.3819,154.797,100.715,97.7957,0.0132367,0.311421,20.5887,15.3444,0.266697,0,0
2590,647.25,63.9788,69.8397,154.07,100.801,98.6034,0.0132982,0.299355,20.6028,14.6037,0.199873,0,0
2627,656.5,63.2504,68.3665,150.193,100.79,98.5465,0.0130121,0.280189,20.6238,14.0232,0.20413,0,0
2664,665.75,62.2862,66.3931,156.101,100.709,98.6608,0.012855,0.258054,20.6483,13.4326,0.186349,0,0
2701,675,61.1594,65.2272,150.718,100.57,99.254,0.01289612,0.241438,20.6646,12.9222,0.119408,0,0
2738,684.25,59.7892,63.0249,157.757,100.396,99.1545,0.01301461,0.220288,20.6882,12.4917,0.112812,0,0
2775,693.5,58.0162,62.2816,154.939,100.167,99.0959,0.01360087,0.204201,20.7081,12.0914,0.0975197,0,0
2812,702.75,56.8205,60.644,156.694,99.8077,99.1233,0.01439124,0.191056,20.7216,11.661,0.062391,0,0
2849,712,56.0644,59.418,156.369,99.4988,98.4914,0.0149854,0.182057,20.7314,11.4508,0.0922729,0,0
2886,721.25,55.7591,58.8644,156.967,99.2107,97.5611,0.0155159,0.170945,20.7428,11.1205,0.152035,0,0
2923,730.5,55.3628,56.8382,158.497,98.989,97.2645,0.015696,0.163856,20.7518,10.9203,0.159354,0,0
2960,739.75,55.1319,56.2525,158.307,98.8593,97.6133,0.0158671,0.155225,20.7609,10.68,0.115018,0,0
2997,749,53.5895,55.8809,160.578,98.7893,98.4419,0.0176853,0.147334,20.7701,10.3998,0.0319429,0,0
3034,758.25,52.9357,53.3705,160.217,98.7805,97.6671,0.0180933,0.142217,20.7767,10.1896,0.102787,0,0
3071,767.5,51.5665,53.5892,164.624,98.8472,97.9286,0.01764968,0.136423,20.7803,10.0294,0.0846674,0,0
3108,776.75,51.4351,52.7921,160.135,98.9585,98.0792,0.0188016,0.129741,20.7853,9.91933,0.0809292,0,0
3145,786,50.814,51.9769,160.086,99.1182,98.5431,0.0196299,0.121177,20.7955,9.71914,0.052766,0,0
3182,795.25,50.4645,50.9547,160.631,99.3762,99.062,0.0199609,0.117844,20.7999,9.68911,0.028713,0,0
3219,804.5,49.7109,50.8251,164.255,99.623,98.8723,0.0203928,0.11431,20.8039,9.50894,0.0685907,0,0
3256,813.75,49.6571,50.1644,162.864,99.8739,99.3391,0.0204934,0.114788,20.8019,9.40885,0.0486878,0,0
3293,823,48.6595,50.2198,160.298,100.08,99.7269,0.0204885,0.11262,20.806,9.27873,0.0320334,0,0
3330,832.25,48.0162,49.385,165.888,100.204,99.4937,0.0202953,0.112849,20.8057,9.20866,0.0644734,0,0
3367,841.5,48.6196,49.2425,163.709,100.259,99.3682,0.0201184,0.112059,20.8052,9.06853,0.080897,0,0
3404,850.75,48.098,48.9364,159.875,100.231,99.029,0.0201369,0.11214,20.8069,9.0385,0.109375,0,0
3441,860,47.7834,48.6796,159.804,100.143,99.8477,0.0194374,0.112751,20.8076,9.00847,0.0268013,0,0
3478,869.25,46.94,49.159,164.007,100.004,99.4103,0.0193706,0.110212,20.8099,8.90838,0.0540265,0,0
3515,878.5,47.4263,49.1823,163.857,99.886,99.571,0.0194954,0.111671,20.8085,8.80829,0.0286408,0,0
3552,887.75,47.4676,48.214,160.738,99.8323,99.1281,0.0190943,0.110855,20.8102,8.73822,0.0641879,0,0
3589,897,47.0868,48.1231,162.409,100.077,99.839,0.0191417,0.109437,20.8114,8.65814,0.0216255,0,0
3626,906.25,46.5486,48.494,163.064,100.446,99.9167,0.01883922,0.108967,20.8098,8.57807,0.047933,0,0
3663,915.5,46.5573,48.6845,166.919,100.665,100.094,0.0187728,0.10939,20.8128,8.48798,0.051601,0,0
3700,924.75,46.5966,47.6758,164.443,100.747,100.198,,,,8.40791,0.0495575,0,0
3715,928.5,47.1003,48.634,161.552,100.736,100.262,,,,8.35786,0.042808,0,0