File: 01_Data/Pallet_Wood/Cone/Pallet_Wood_Cone_HF35Scalar_180728_R2.csv
LABORATORY,FSRI
TEST IDENT,UL FSRI TF Fuel 3-2
OPERATOR,DM
MATERIAL,0.525 inch thick pallet wood
ORIENTATION,Horizontal
HEAT FLUX,35
SURF AREA,0.01
C FACTOR,0.03923798
SPEC HOLDER DIFF,341.68
SPECIMEN MASS,57.64
SCAN TIME,0.25
O2 DELAY TIME,11
CO DELAY TIME,11
CO2 DELAY TIME,8
FLOW FACTOR,1
SCAN COUNT,3419
TIME TO IGN,51
END OF TEST SCAN,2939
END OF TEST TIME,734.75
TEST STATUS,1
PRE TEST CMT,"Board from solid hardwood pallet, Training Fires IFSI 2016, smooth surface, approx 7% MC, with Grid  "