File: 01_Data/Pallet_Wood/Cone/Pallet_Wood_Cone_HF35Scan_180728_R2.csv
Names,Time,Stack TC,Smoke TC,Exh Press,Smoke Comp,Smoke Meas,CO Meter,CO2 Meter,O2 Meter,Sample Mass,Ext Coeff,Start Test,Flame Verif
Chan Gain,,500,500,1,1,1,1,1,1,1,1,1,1
Offset,,0,0,0.124825,0,0,0,0,0,0,0,0,0
Gain,,1,1,25.011,13.6595,14.2307,1,1,1,1.00094,1.03371,1,1
Units,sec,C,C,Pa,%,%,%,%,%,g,/m,,
Baseline,,41.2553,43.3704,165.809,99.3099,99.8578,0.007912978,0.068466,20.8786,-918.995,-0.0498575,,
35,8.5,40.144,41.963,164.254,99.357,100.179,0.008177242,0.0704176,20.8731,47.1844,-0.0747078,0,0
70,17.25,40.9807,42.2804,163.228,99.3337,99.9063,0.007964352,0.0688041,20.8752,47.0743,-0.0521186,0,0
105,26,41.579,42.863,166.872,99.3262,99.0694,0.008176061,0.0686845,20.8774,47.0342,0.0234715,0,0
140,34.75,40.9882,43.2863,166.002,99.3129,99.2223,0.007980396,0.0688138,20.8775,46.9241,0.00827194,0,0
175,43.5,41.697,43.534,167.279,99.327,98.0137,0.008294245,0.06945423,20.8764,46.9341,0.120697,0,0
210,52.25,42.2924,45.0451,162.25,99.4137,99.7864,0.008536667,0.114687,20.8235,46.7039,-0.033931,0,1
245,61,47.9472,53.838,152.308,99.4721,98.4375,0.009519514,0.261269,20.6675,46.0934,0.094802,0,0
280,69.75,51.4017,59.872,155.913,99.5946,98.7446,0.0100595,0.295264,20.6301,45.3727,0.0777264,0,0
315,78.5,53.4193,61.445,162.736,99.74263,99.2006,0.0100783,0.295202,20.6291,44.5919,0.0494124,0,0
350,87.25,54.2233,63.2195,153.78,99.8839,99.7421,0.009887732,0.291402,20.6335,43.9313,0.0128833,0,0
385,96,55.0105,62.9838,151.233,99.9548,98.7793,0.009986416,0.281869,20.6465,43.2006,0.107268,0,0
420,104.75,54.7541,62.9973,158.15,100.037,99.0451,0.010348,0.27099,20.6597,42.5,0.0903135,0,0
455,113.5,54.726,62.5367,158.836,100.115,99.8616,0.009861954,0.26497,20.6643,41.8394,0.0229723,0,0
490,122.25,55.0882,62.9636,161.194,100.198,100.512,0.009937813,0.255873,20.6751,41.1187,-0.0283591,0,0
525,131,54.9741,62.0924,154.876,100.282,100.554,0.00964665,0.247944,20.6823,40.5181,-0.024503,0,0
560,139.75,55.2521,61.7076,152.642,100.354,100.091,0.0104341,0.243033,20.6871,39.8975,0.0238219,0,0
595,148.5,55.8507,61.9713,163.665,100.43,99.723,0.0102251,0.240879,20.6901,39.2769,0.0640967,0,0
630,157.25,55.2036,61.5244,156.326,100.535,100.175,0.0101114,0.237039,20.6941,38.6464,0.0325245,0,0
665,166,55.2331,61.2298,157.057,100.609,100.071,0.010085,0.229753,20.7011,38.0658,0.0486534,0,0
700,174.75,55.5947,61.7003,156.206,100.676,101.197,0.010148,0.226512,20.7057,37.4452,-0.0468044,0,0
735,183.5,55.6947,60.4933,161.702,100.725,100.8,0.0101566,0.223156,20.7108,36.8246,-0.006739493,0,0
770,192.25,55.8665,60.6673,157.973,100.756,101.23,0.0102339,0.218664,20.7177,36.3041,-0.04255924,0,0
805,201,55.8855,60.1309,162.556,100.769,101.15,0.0104194,0.216943,20.7177,35.7136,-0.0341947,0,0
840,209.75,55.0964,60.2235,160.882,100.777,100.915,0.0104382,0.213588,20.718,35.1531,-0.0123956,0,0
875,218.5,55.1666,59.478,154.288,100.766,101.64,0.0106144,0.212038,20.7177,34.6025,-0.0783062,0,0
910,227.25,54.8368,59.8945,157.367,100.772,101.525,0.0105967,0.210818,20.7195,34.042,-0.0675071,0,0
945,236,55.1636,59.9991,158.785,100.766,100.869,0.0106802,0.208905,20.7249,33.4114,-0.009234889,0,0
980,244.75,54.78,59.7525,152.399,100.76,101.083,0.0106902,0.205522,20.7297,32.921,-0.0289853,0,0
1015,253.5,54.7935,59.844,157.242,100.739,100.844,0.0102404,0.204283,20.7299,32.3004,-0.00940856,0,0
1050,262.25,54.789,59.7585,157.637,100.709,101.289,0.01023747,0.203621,20.73,31.6298,-0.052086,0,0
1085,271,54.9366,59.8393,161.58,100.709,100.595,0.010933,0.202475,20.7319,31.1393,0.0102545,0,0
1120,279.75,54.7628,58.9662,160.376,100.671,101.37,0.010429,0.20028,20.7327,30.6989,-0.0627689,0,0
1155,288.5,55.0474,59.6101,161.241,100.636,100.099,0.0108266,0.200896,20.7322,30.11833,0.048462,0,0
1190,297.25,55.2558,58.8545,165.516,100.588,100.796,0.0106972,0.199545,20.7337,29.5778,-0.01866658,0,0
1225,306,54.7404,59.2444,153.33,100.52,100.679,0.0112199,0.200393,20.7313,29.0373,-0.0142781,0,0
1260,314.75,54.6808,58.9957,158.818,100.449,101.224,0.0107468,0.199845,20.7323,28.5068,-0.069705,0,0
1295,323.5,55.3842,58.969,154.015,100.405,101.131,0.01053958,0.200793,20.7325,28.0063,-0.0652503,0,0
1330,332.25,55.2594,60.1906,157.508,100.371,100.82,0.0109913,0.204685,20.7291,27.3858,-0.0404911,0,0
1365,341,55.3259,59.5915,157.007,100.319,99.9588,0.0109101,0.206542,20.7282,26.8953,0.0326247,0,0
1400,349.75,55.2259,60.2488,157.596,100.293,100.804,0.0107815,0.205974,20.7265,26.3748,-0.0460917,0,0
1435,358.5,54.9284,59.9227,154.89,100.281,100.489,0.0106098,0.209364,20.7236,25.8543,-0.0187402,0,0
1470,367.25,55.473,59.4316,155.954,100.25,100.808,0.0104553,0.209755,20.7231,25.2938,-0.0503625,0,0
1505,376,55.5173,60.8074,160.748,100.196,99.8928,0.0102505,0.212099,20.7197,24.7633,0.02745547,0,0
1540,384.75,55.6092,60.7218,156.151,100.173,100.024,0.0103278,0.218231,20.7133,24.2828,0.01356,0,0
1575,393.5,56.4673,61.5878,157.71,100.115,99.5936,0.009861771,0.222923,20.7085,23.7724,0.0473738,0,0
1610,402.25,56.4656,61.4692,157.368,100.071,99.7612,0.009912947,0.228059,20.7013,23.1318,0.0281214,0,0
1645,411,57.4073,61.5461,154.183,100.032,99.8559,0.009447835,0.232962,20.6966,22.6513,0.01600655,0,0
1680,419.75,57.4079,62.2796,152.955,100.211,100.439,0.009776275,0.240681,20.6902,22.0808,-0.0206436,0,0
1715,428.5,57.6849,63.3744,158.456,100.339,101.41,0.009905322,0.242271,20.6895,21.4702,-0.09628,0,0
1750,437.25,57.2687,62.9035,157.762,100.394,99.026,0.009671873,0.248096,20.6825,20.8796,0.124387,0,0
1785,446,57.8298,63.4108,152.533,100.405,101.171,0.009667737,0.254297,20.6741,20.2991,-0.0689469,0,0
1820,454.75,58.494,64.3078,152.35,100.438,100.874,0.0097105,0.26383,20.6642,19.6985,-0.0392713,0,0
1855,463.5,59.3415,65.2897,154.32,100.433,100.35,0.009591106,0.271945,20.6542,18.9879,0.007556979,0,0
1890,472.25,60.0321,65.9586,155.002,100.452,100.392,0.00950561,0.284233,20.6399,18.3473,0.005367464,0,0
1925,481,61.0299,66.6047,152.575,100.44,100.478,0.00981834,0.29574,20.628,17.6666,-0.003449952,0,0
1960,489.75,61.6145,68.7381,151.853,100.477,99.4946,0.0101457,0.309125,20.6138,16.8458,0.0890688,0,0
1995,498.5,63.1984,69.6885,145.014,100.485,99.3443,0.01017959,0.322255,20.6004,16.0951,0.103564,0,0
2030,507.25,63.1627,71.1985,153.381,100.484,99.3778,0.009944231,0.333944,20.5879,15.2744,0.100362,0,0
2065,516,64.2655,72.411,154.117,100.522,98.4605,0.0105959,0.351339,20.5646,14.4136,0.187863,0,0
2100,524.75,65.3722,73.4951,148.612,100.533,99.0225,0.0104146,0.365989,20.5487,13.4927,0.13731,0,0
2135,533.5,66.572,75.5064,143.302,100.553,98.1704,0.0105989,0.376324,20.5375,12.5418,0.2174,0,0
2170,542.25,67.2525,74.9523,151.548,100.537,99.056,0.0108501,0.380437,20.5295,11.651,0.134586,0,0
2205,551,68.1946,76.1167,150.241,100.551,98.4579,0.010748,0.386467,20.5228,10.6901,0.190772,0,0
2240,559.75,68.3462,77.3419,147.085,100.56,97.6853,0.0107667,0.386191,20.52388,9.75918,0.262995,0,0
2275,568.5,69.064,77.0901,150.136,100.58,97.6806,0.0109467,0.382644,20.525,8.85833,0.265205,0,0
2310,577.25,69.0943,76.9767,144.891,100.594,98.5179,0.0105201,0.381252,20.5271,7.92746,0.189125,0,0
2345,586,69.2957,77.5053,154.571,100.605,98.6169,0.01067549,0.371509,20.5351,7.07666,0.180956,0,0
2380,594.75,69.2778,76.7003,150.948,100.619,98.6295,0.0105544,0.363366,20.5447,6.21585,0.181113,0,0
2415,603.5,68.546,76.2052,149.532,100.623,98.9826,0.009959568,0.351908,20.5585,5.4251,0.149012,0,0
2450,612.25,68.7937,75.0249,150.438,100.633,97.7904,0.009989104,0.332973,20.5794,4.68441,0.259822,0,0
2485,621,67.4675,74.6828,153.294,100.625,99.8933,0.009908056,0.314809,20.5999,3.94371,0.0661895,0,0
2520,629.75,66.2716,72.2812,153.201,100.622,99.6501,0.009792279,0.291029,20.6203,3.37317,0.0880304,0,0
2555,638.5,65.5407,70.8374,151.415,100.633,100.719,0.009695561,0.269817,20.6426,2.73257,-0.007767754,0,0
2590,647.25,64.4639,68.4328,151.985,100.628,100.282,0.0103382,0.254109,20.6597,2.29216,0.0312772,0,0
2625,656,63.8524,68.144,156.274,100.618,100.95,0.0103487,0.234764,20.6837,1.89178,-0.0298204,0,0
2660,664.75,61.9266,65.9285,155.689,100.618,100.983,0.0105776,0.214807,20.7062,1.4914,-0.0327843,0,0
2695,673.5,60.9747,63.5578,154.671,100.615,100.862,0.0114183,0.196212,20.7236,1.16109,-0.0222353,0,0
2730,682.25,60.0316,62.2395,158.155,100.603,101.013,0.0123306,0.183334,20.737,0.820772,-0.0368659,0,0
2765,691,58.4732,60.8149,157.833,100.572,100.929,0.01316812,0.17048,20.7499,0.580546,-0.0321182,0,0
2800,699.75,57.9945,59.3131,157.744,100.554,100.823,0.0135836,0.155802,20.7673,0.370348,-0.0242076,0,0
2835,708.5,56.6535,58.1287,161.73,100.534,101.487,0.0142286,0.145469,20.7795,0.250235,-0.0855358,0,0
2870,717.25,55.9297,56.5098,158.769,100.534,101.157,0.0152096,0.137596,20.7887,0.0500471,-0.055998,0,0
2905,726,54.8025,56.0331,158.633,100.544,101.494,0.0161731,0.132485,20.7955,-0.0900847,-0.0852935,0,0
2940,734.75,54.7602,54.8582,157.819,100.545,101.487,0.0169889,0.126567,20.801,-0.180169,-0.0845598,0,0
2975,743.5,53.7004,53.8197,163.599,100.576,101.594,0.016556,0.124202,20.8013,-0.300282,-0.0913575,0,0
3010,752.25,52.8387,54.2059,164.92,100.603,101.547,0.0177104,0.123046,20.803,-0.400377,-0.0846885,0,0
3045,761,52.1466,53.4859,163.909,100.601,101.234,0.0178695,0.121914,20.8052,-0.490461,-0.0569111,0,0
3080,769.75,51.7631,53.1211,158.838,100.607,101.128,0.0176565,0.119748,20.8092,-0.610574,-0.0468137,0,0
3115,778.5,52.1505,52.7418,160.654,100.597,101.027,0.0171823,0.119661,20.8086,-0.69065,-0.0386753,0,0
3150,787.25,51.4723,53.0121,159.192,100.602,101.017,0.0170117,0.119726,20.8084,-0.790744,-0.0373668,0,0
3185,796,51.2844,52.9333,160.421,100.605,101.699,0.01668513,0.119576,20.8084,-0.8508,-0.0980636,0,0
3220,804.75,51.2299,51.628,159.53,100.613,100.841,0.0165647,0.118762,20.8097,-0.940885,-0.0205493,0,0
3255,813.5,50.1716,52.0732,159.073,100.613,100.747,0.0164716,0.117152,20.8116,-1.02096,-0.012034,0,0
3290,822.25,50.3249,51.6892,162.023,100.621,100.949,0.01613507,0.117418,20.8113,-1.10104,-0.0294788,0,0
3325,831,50.0056,51.2432,160.377,100.607,101.556,0.0158014,0.116876,20.8139,-1.19112,-0.0851271,0,0
3360,839.75,50.3521,51.6105,159.791,100.603,100.786,0.0156784,0.115985,20.8113,-1.28121,-0.0164155,0,0
3395,848.5,49.587,51.4745,160.844,100.608,100.964,,,,-1.34126,-0.0320075,0,0
3419,854.5,49.8213,51.5313,160.012,100.618,101.385,,,,-1.40132,-0.0689365,0,0