File: 01_Data/Pallet_Wood/Cone/Pallet_Wood_HRRPUA_35.csv
Time after Ignition,Pallet_Wood_R1,Pallet_Wood_R2,Pallet_Wood_R3,Mean,Std. Dev.
0.0,6.2,11.5,12.6,10.1,3.4
2.75,37.3,49.2,48.7,45.1,6.8
5.5,71.8,76.0,74.8,74.2,2.2
8.25,92.6,96.1,98.0,95.6,2.7
11.0,107.6,109.0,107.3,108.0,0.9
13.75,115.4,116.9,111.4,114.6,2.9
16.5,120.2,119.8,115.9,118.6,2.4
19.25,127.4,122.1,118.4,122.6,4.6
22.0,127.1,121.7,120.0,122.9,3.7
24.75,128.6,122.4,118.8,123.3,4.9
27.5,128.0,125.2,120.1,124.4,4.0
30.25,127.2,121.4,120.6,123.1,3.6
33.0,127.2,124.4,119.6,123.8,3.8
35.75,128.7,119.0,116.5,121.4,6.4
38.5,123.5,118.6,116.5,119.5,3.6
41.25,120.8,115.5,112.0,116.1,4.4
44.0,120.6,115.2,110.7,115.5,4.9
46.75,118.8,112.0,110.0,113.6,4.6
49.5,116.6,110.5,107.5,111.5,4.6
52.25,113.4,107.6,107.4,109.4,3.4
55.0,110.4,107.9,105.0,107.8,2.7
57.75,110.6,106.9,104.8,107.4,2.9
60.5,109.6,105.9,101.6,105.7,4.0
63.25,105.7,105.4,100.6,103.9,2.8
66.0,103.8,103.5,97.8,101.7,3.4
68.75,103.9,100.8,96.1,100.3,4.0
71.5,102.8,99.8,95.4,99.3,3.8
74.25,102.5,98.6,92.7,97.9,4.9
77.0,100.6,97.7,93.2,97.2,3.8
79.75,98.2,97.1,90.3,95.2,4.3
82.5,96.6,95.4,89.0,93.7,4.1
85.25,95.6,95.2,89.6,93.5,3.3
88.0,95.5,94.0,88.4,92.6,3.8
90.75,94.7,94.2,88.3,92.4,3.6
93.5,93.0,93.6,86.8,91.1,3.8
96.25,92.0,93.0,87.6,90.9,2.9
99.0,89.9,90.9,85.2,88.7,3.0
101.75,89.5,89.8,83.8,87.7,3.4
104.5,88.5,90.9,85.1,88.2,2.9
107.25,88.1,89.8,82.3,86.7,3.9
110.0,86.2,89.5,81.8,85.8,3.9
112.75,86.6,90.5,81.6,86.3,4.5
115.5,86.1,87.2,84.0,85.8,1.7
118.25,84.4,87.6,81.9,84.6,2.8
121.0,83.7,84.6,81.4,83.2,1.7
123.75,84.7,84.8,80.0,83.2,2.7
126.5,82.7,83.9,78.8,81.8,2.7
129.25,81.3,83.5,78.7,81.1,2.4
132.0,80.3,82.8,77.1,80.1,2.9
134.75,77.9,80.7,77.7,78.8,1.7
137.5,77.4,79.4,76.3,77.7,1.6
140.25,76.9,79.1,76.0,77.3,1.6
143.0,76.1,78.1,74.9,76.4,1.6
145.75,76.1,79.0,76.6,77.2,1.6
148.5,75.0,78.4,76.4,76.6,1.7
151.25,75.1,79.2,75.0,76.4,2.4
154.0,75.1,80.5,74.9,76.8,3.2
156.75,74.0,79.5,76.5,76.7,2.7
159.5,72.0,81.2,76.6,76.6,4.6
162.25,71.7,79.9,75.7,75.8,4.1
165.0,71.4,80.3,76.4,76.0,4.5
167.75,71.8,79.7,74.8,75.4,4.0
170.5,71.1,80.5,75.7,75.8,4.7
173.25,70.9,79.5,72.6,74.3,4.6
176.0,69.7,78.2,73.9,73.9,4.2
178.75,68.9,78.0,74.8,73.9,4.6
181.5,67.8,77.9,75.9,73.9,5.4
184.25,67.5,76.7,75.9,73.4,5.1
187.0,66.4,75.0,74.9,72.1,4.9
189.75,66.6,74.7,75.7,72.3,5.0
192.5,65.7,73.9,74.8,71.4,5.0
195.25,64.0,73.1,75.9,71.0,6.2
198.0,65.8,72.8,75.0,71.2,4.8
200.75,66.8,74.2,75.0,72.0,4.5
203.5,67.7,73.9,75.4,72.3,4.1
206.25,66.6,73.4,75.2,71.7,4.5
209.0,65.2,73.8,74.7,71.2,5.3
211.75,65.7,73.6,73.9,71.0,4.7
214.5,67.6,74.2,73.8,71.9,3.7
217.25,66.6,71.5,73.3,70.4,3.5
220.0,66.5,73.3,73.7,71.2,4.1
222.75,67.4,72.2,73.1,70.9,3.1
225.5,66.2,72.4,74.3,70.9,4.2
228.25,65.7,71.9,74.5,70.7,4.5
231.0,65.0,72.3,73.4,70.2,4.5
233.75,65.9,72.0,74.7,70.9,4.5
236.5,65.6,73.5,75.7,71.6,5.3
239.25,64.9,72.1,74.6,70.5,5.0
242.0,65.0,71.4,75.5,70.6,5.3
244.75,64.5,71.3,76.0,70.6,5.8
247.5,64.3,71.8,76.3,70.8,6.0
250.25,64.1,73.2,75.9,71.1,6.2
253.0,63.9,72.8,76.0,70.9,6.3
255.75,62.9,72.0,75.5,70.1,6.5
258.5,63.6,72.3,75.9,70.6,6.3
261.25,63.3,71.6,74.7,69.9,5.9
264.0,63.0,72.2,75.8,70.3,6.6
266.75,63.0,72.6,76.2,70.6,6.8
269.5,62.0,72.5,75.8,70.1,7.2
272.25,61.9,72.3,77.8,70.6,8.0
275.0,63.7,72.3,76.3,70.7,6.4
277.75,63.8,71.9,76.2,70.7,6.3
280.5,64.3,74.9,75.8,71.7,6.4
283.25,64.2,73.3,77.3,71.6,6.8
286.0,63.6,73.7,78.5,71.9,7.6
288.75,63.6,74.0,79.0,72.2,7.9
291.5,63.8,73.8,79.3,72.3,7.9
294.25,64.4,74.2,78.9,72.5,7.4
297.0,64.5,74.8,77.7,72.4,6.9
299.75,66.0,75.4,79.7,73.7,7.0
302.5,65.8,76.4,79.7,74.0,7.3
305.25,65.4,76.4,81.0,74.3,8.0
308.0,66.0,76.2,80.7,74.3,7.5
310.75,66.6,76.9,81.8,75.1,7.7
313.5,68.3,75.6,80.8,74.9,6.3
316.25,68.2,76.3,82.5,75.6,7.2
319.0,67.4,77.1,82.8,75.8,7.8
321.75,68.6,77.6,82.7,76.3,7.1
324.5,67.7,78.3,81.8,75.9,7.3
327.25,69.6,78.7,81.1,76.5,6.0
330.0,70.2,79.6,81.0,76.9,5.9
332.75,71.3,81.6,83.4,78.8,6.5
335.5,70.5,81.1,83.1,78.2,6.8
338.25,71.6,81.5,84.7,79.3,6.8
341.0,72.0,82.8,85.1,79.9,7.0
343.75,72.8,84.4,86.9,81.4,7.5
346.5,73.1,85.1,85.5,81.3,7.0
349.25,74.2,87.2,88.1,83.2,7.8
352.0,75.5,86.1,88.1,83.3,6.8
354.75,76.4,88.0,88.5,84.3,6.8
357.5,77.6,88.8,87.4,84.6,6.1
360.25,78.0,87.7,88.7,84.8,5.9
363.0,79.2,89.8,89.5,86.1,6.0
365.75,80.0,92.2,91.2,87.8,6.7
368.5,82.4,91.1,89.0,87.5,4.6
371.25,84.2,93.1,92.2,89.8,4.9
374.0,84.1,92.1,92.8,89.7,4.8
376.75,83.7,90.8,94.4,89.6,5.4
379.5,85.6,92.9,94.9,91.2,4.9
382.25,85.1,93.1,93.2,90.5,4.7
385.0,85.9,94.5,95.3,91.9,5.2
387.75,88.6,97.1,93.1,92.9,4.3
390.5,86.6,97.5,94.6,92.9,5.6
393.25,88.8,99.5,97.3,95.2,5.7
396.0,89.7,99.5,97.5,95.6,5.2
398.75,91.1,99.6,101.0,97.3,5.3
401.5,92.9,103.0,98.3,98.1,5.0
404.25,91.0,102.8,100.9,98.3,6.3
407.0,93.8,106.3,100.4,100.2,6.2
409.75,95.5,108.3,101.2,101.6,6.4
412.5,95.7,108.7,104.2,102.9,6.6
415.25,96.6,110.0,105.0,103.9,6.8
418.0,100.1,112.4,105.8,106.1,6.1
420.75,100.5,113.3,104.9,106.2,6.5
423.5,103.8,115.0,109.1,109.3,5.6
426.25,105.2,117.5,109.8,110.9,6.2
429.0,105.8,121.0,109.4,112.1,7.9
431.75,108.1,121.6,111.7,113.8,7.0
434.5,110.8,123.2,116.7,116.9,6.2
437.25,113.0,125.3,115.4,117.9,6.5
440.0,116.3,126.8,116.1,119.7,6.1
442.75,116.7,129.8,119.9,122.1,6.8
445.5,118.0,133.2,120.1,123.8,8.3
448.25,120.6,134.6,120.4,125.2,8.2
451.0,124.1,134.2,123.8,127.4,5.9
453.75,126.9,134.8,124.5,128.7,5.4
456.5,128.6,138.1,127.7,131.5,5.7
459.25,128.9,144.6,130.1,134.5,8.7
462.0,132.5,146.0,132.0,136.8,8.0
464.75,131.6,147.7,134.7,138.0,8.5
467.5,136.9,152.4,136.0,141.8,9.2
470.25,138.4,152.4,136.4,142.4,8.7
473.0,139.4,155.7,139.8,145.0,9.3
475.75,142.0,156.0,141.6,146.5,8.2
478.5,145.0,159.6,142.3,149.0,9.3
481.25,144.1,156.8,144.1,148.3,7.4
484.0,149.4,161.7,147.2,152.8,7.8
486.75,149.7,162.0,148.0,153.2,7.7
489.5,146.3,163.9,152.2,154.1,8.9
492.25,152.5,163.4,154.6,156.8,5.8
495.0,151.0,165.0,154.7,156.9,7.2
497.75,147.4,165.1,155.9,156.2,8.8
500.5,144.6,170.5,158.3,157.8,12.9
503.25,145.0,162.7,160.3,156.0,9.6
506.0,145.3,169.4,161.7,158.8,12.3
508.75,144.1,165.1,162.2,157.2,11.4
511.5,143.4,163.0,160.0,155.5,10.6
514.25,143.9,165.9,160.8,156.9,11.5
517.0,144.7,168.7,162.8,158.8,12.5
519.75,142.2,165.2,161.4,156.2,12.3
522.5,141.4,164.8,163.2,156.5,13.1
525.25,141.2,163.7,158.0,154.3,11.7
528.0,141.2,162.0,161.7,155.0,11.9
530.75,139.9,161.1,162.8,154.6,12.7
533.5,142.7,162.2,161.9,155.6,11.2
536.25,138.0,162.1,159.0,153.1,13.1
539.0,138.2,154.1,159.5,150.6,11.1
541.75,136.5,160.4,154.7,150.6,12.5
544.5,135.7,155.1,158.3,149.7,12.2
547.25,133.8,157.2,156.4,149.1,13.3
550.0,130.5,151.6,155.0,145.7,13.3
552.75,132.4,150.3,152.6,145.1,11.0
555.5,132.3,146.6,152.1,143.7,10.3
558.25,129.6,143.0,150.2,140.9,10.4
561.0,126.2,140.2,149.9,138.8,11.9
563.75,124.6,141.4,147.4,137.8,11.8
566.5,123.3,134.8,145.9,134.7,11.3
569.25,122.5,133.4,145.8,133.9,11.7
572.0,118.9,129.3,142.6,130.2,11.9
574.75,117.0,129.1,142.4,129.5,12.7
577.5,114.5,126.4,142.6,127.8,14.1
580.25,110.2,119.3,139.9,123.1,15.2
583.0,111.2,118.0,138.5,122.6,14.2
585.75,107.1,114.1,135.7,119.0,14.9
588.5,105.3,111.9,133.5,116.9,14.8
591.25,102.5,109.1,132.4,114.7,15.7
594.0,97.8,106.1,129.0,111.0,16.2
596.75,96.5,104.0,126.6,109.0,15.6
599.5,93.7,100.4,125.3,106.5,16.6
602.25,89.9,98.1,119.9,102.6,15.5
605.0,86.6,94.4,116.9,99.3,15.8
607.75,85.5,91.3,113.4,96.7,14.7
610.5,83.2,86.8,110.7,93.5,14.9
613.25,81.4,82.3,106.7,90.1,14.3
616.0,79.8,82.6,106.2,89.5,14.5
618.75,77.1,78.6,103.1,86.2,14.6
621.5,76.9,76.5,101.4,84.9,14.3
624.25,74.7,73.2,95.2,81.0,12.3
627.0,74.1,73.0,93.5,80.2,11.5
629.75,73.2,70.8,92.4,78.8,11.9
632.5,70.5,68.8,89.0,76.1,11.2
635.25,69.3,66.9,83.2,73.1,8.8
638.0,67.9,64.2,82.8,71.6,9.9
640.75,68.1,63.0,81.3,70.8,9.4
643.5,65.8,60.1,78.8,68.3,9.6
646.25,64.0,56.4,77.1,65.8,10.4
649.0,62.5,54.2,75.7,64.1,10.8
651.75,61.1,53.1,75.9,63.4,11.5
654.5,59.0,50.9,72.0,60.6,10.6
657.25,58.9,49.6,71.1,59.9,10.8
660.0,59.1,47.4,69.7,58.7,11.1
662.75,57.9,45.8,68.0,57.3,11.1
665.5,57.7,45.1,67.6,56.8,11.2
668.25,55.8,43.5,65.3,54.9,10.9
671.0,53.9,42.7,64.4,53.7,10.9
673.75,53.6,42.0,63.2,52.9,10.6
676.5,52.3,41.1,60.6,51.3,9.8
679.25,52.3,41.2,60.7,51.4,9.8
682.0,52.3,39.6,59.8,50.6,10.2
684.75,51.7,,57.3,54.5,3.9
687.5,50.9,,55.2,53.0,3.1
690.25,48.8,,54.0,51.4,3.7
693.0,48.5,,53.8,51.1,3.7
695.75,48.6,,52.0,50.3,2.4
698.5,47.8,,51.9,49.9,2.9
701.25,46.9,,50.1,48.5,2.2
704.0,46.4,,50.0,48.2,2.5
706.75,46.2,,49.5,47.9,2.4
709.5,46.0,,48.8,47.4,2.0
712.25,44.4,,48.0,46.2,2.5
715.0,44.2,,47.5,45.9,2.3
717.75,42.7,,47.0,44.8,3.1
720.5,41.5,,45.7,43.6,3.0
723.25,41.3,,44.8,43.0,2.5
726.0,42.3,,43.1,42.7,0.6
728.75,41.5,,41.6,41.6,0.1
731.5,41.5,,40.2,40.9,1.0
734.25,40.8,,39.7,40.3,0.8
737.0,41.6,,39.1,40.3,1.8
739.75,40.0,,39.0,39.5,0.7
742.5,39.3,,38.7,39.0,0.5
745.25,39.7,,37.4,38.6,1.6
748.0,39.4,,37.1,38.2,1.6
750.75,38.4,,36.4,37.4,1.5
753.5,37.9,,36.4,37.1,1.0
756.25,37.5,,,37.5,
759.0,36.8,,,36.8,
761.75,36.6,,,36.6,
764.5,36.3,,,36.3,
767.25,35.8,,,35.8,
770.0,35.3,,,35.3,
772.75,34.5,,,34.5,
775.5,34.4,,,34.4,
778.25,34.1,,,34.1,
781.0,35.2,,,35.2,
783.75,35.1,,,35.1,
786.5,34.1,,,34.1,
789.25,33.7,,,33.7,
792.0,33.1,,,33.1,
794.75,33.2,,,33.2,
797.5,33.7,,,33.7,
800.25,33.9,,,33.9,
803.0,33.1,,,33.1,
805.75,32.2,,,32.2,
808.5,31.8,,,31.8,
811.25,31.7,,,31.7,
812.0,31.3,,,31.3,