File: 01_Data/Pallet_Wood/Cone/Pallet_Wood_Cone_HF35Scan_180728_R1.csv
Names,Time,Stack TC,Smoke TC,Exh Press,Smoke Comp,Smoke Meas,CO Meter,CO2 Meter,O2 Meter,Sample Mass,Ext Coeff,Start Test,Flame Verif
Chan Gain,,500,500,1,1,1,1,1,1,1,1,1,1
Offset,,0,0,0.124825,0,0,0,0,0,0,0,0,0
Gain,,1,1,25.011,13.6595,14.2307,1,1,1,1.00094,1.03371,1,1
Units,sec,C,C,Pa,%,%,%,%,%,g,/m,,
Baseline,,40.0798,42.2226,166.114,98.8394,98.6928,0.007113696,0.0676113,20.8918,-918.709,0.0134899,,
40,9.75,39.3168,41.3043,164.161,98.8376,98.5652,0.007192803,0.067725,20.8894,55.8726,0.0250261,0,0
80,19.75,40.0055,42.4389,163.206,98.8285,98.2812,0.00737055,0.067562,20.8904,55.8826,0.050352,0,0
120,29.75,40.2784,42.6137,169.489,98.8314,98.5335,0.007273292,0.0680515,20.8912,55.8525,0.0273703,0,0
160,39.75,40.2086,42.4343,163.444,98.8201,97.6528,0.007203323,0.068568,20.889,55.7424,0.107752,0,0
200,49.75,40.3404,42.5736,171.877,98.821,96.8993,0.007712692,0.0693665,20.8903,55.6223,0.178066,0,0
240,59.75,43.4687,47.2941,155.58,98.8289,98.7237,0.008540186,0.189154,20.7625,55.1619,0.009653104,0,0
280,69.75,49.1943,55.7811,160.248,98.8364,98.6634,0.009040005,0.285624,20.6544,54.5113,0.0158879,0,0
320,79.75,52.3423,60.5195,153.917,98.846,97.9928,0.009222835,0.304355,20.632,53.6805,0.078603,0,0
360,89.75,54.306,62.1851,153.711,98.8964,98.038,0.00941495,0.302752,20.6335,52.7196,0.0790509,0,0
400,99.75,54.271,63.42,158.82,98.9698,98.395,0.00951355,0.289455,20.6465,51.9188,0.0528176,0,0
440,109.75,55.0939,62.8773,154.271,99.0702,97.5008,0.009189286,0.273489,20.6653,51.2582,0.144799,0,0
480,119.75,54.6374,63.047,151.308,99.1557,98.2634,0.008909498,0.263712,20.6778,50.4575,0.0819694,0,0
520,129.75,55.0383,61.7932,157.479,99.2399,98.2617,0.009093809,0.256808,20.6845,49.7568,0.0898266,0,0
560,139.75,54.7648,61.337,158.453,99.352,97.833,0.009217648,0.246328,20.6966,48.9961,0.139709,0,0
600,149.75,54.2945,61.147,156.84,99.4504,98.4397,0.009032835,0.240829,20.7037,48.2954,0.0926249,0,0
640,159.75,54.4119,60.9638,155.883,99.5246,99.3052,0.009284612,0.235448,20.7116,47.5547,0.0200089,0,0
680,169.75,54.4737,60.8332,160.162,99.5876,99.2774,0.009522365,0.23017,20.718,46.794,0.0282799,0,0
720,179.75,54.5342,60.2812,155.892,99.6584,98.6629,0.009789825,0.225356,20.7235,46.1734,0.0910327,0,0
760,189.75,54.3222,60.2084,153.905,99.7614,100.359,0.009473092,0.215983,20.7334,45.4828,-0.054141,0,0
800,199.75,54.494,60.2367,160.479,99.8656,99.4494,0.009611905,0.211619,20.7377,44.8522,0.0378674,0,0
840,209.75,54.9697,58.8556,155.857,99.9494,99.7387,0.009716265,0.207536,20.7397,44.1615,0.0191385,0,0
880,219.75,54.2094,59.0134,154.574,100.048,99.399,0.010036,0.202019,20.7459,43.5109,0.0590249,0,0
920,229.75,53.7886,58.8681,155.061,100.134,99.5862,0.0100999,0.19686,20.7496,42.9004,0.0497822,0,0
960,239.75,53.6151,58.5932,154.062,100.161,100.771,0.0102922,0.192307,20.7573,42.2898,-0.0550773,0,0
1000,249.75,52.9664,57.7927,160.826,100.176,99.938,0.0103498,0.189631,20.76,41.6592,0.0215457,0,0
1040,259.75,53.2162,57.6562,161.827,100.194,100.697,0.0104979,0.190001,20.7569,41.0987,-0.0454121,0,0
1080,269.75,53.7331,57.0787,157.576,100.195,100.673,0.010722,0.188673,20.7579,40.448,-0.0431854,0,0
1120,279.75,53.0229,57.2907,161.139,100.202,100.348,0.0105058,0.187159,20.7585,39.8575,-0.0132366,0,0
1160,289.75,53.8432,57.0003,156.254,100.207,99.2088,0.0104214,0.186339,20.7602,39.2769,0.0907395,0,0
1200,299.75,53.5442,56.8467,153.846,100.195,99.6835,0.0104603,0.184742,20.7624,38.6964,0.0464393,0,0
1240,309.75,52.9718,56.9673,159.817,100.199,99.257,0.0108571,0.183757,20.764,38.0858,0.0856172,0,0
1280,319.75,53.0106,56.9985,153.412,100.21,99.7934,0.0104337,0.183186,20.765,37.5053,0.0377328,0,0
1320,329.75,53.2663,56.5335,161.93,100.198,100.572,0.0106368,0.183577,20.7649,36.9848,-0.033765,0,0
1360,339.75,52.9179,57.01,156.847,100.202,99.8299,0.0107483,0.183982,20.7633,36.4042,0.0337771,0,0
1400,349.75,53.4627,56.6585,159.517,100.196,100.451,0.0106059,0.187575,20.7613,35.8337,-0.0230615,0,0
1440,359.75,53.8311,57.324,160.014,100.193,99.4941,0.0103081,0.188909,20.7598,35.2732,0.0634538,0,0
1480,369.75,53.1732,57.8707,156.713,100.186,100.605,0.0105409,0.191772,20.7545,34.7527,-0.037795,0,0
1520,379.75,53.3498,58.1187,152.013,100.183,100.554,0.010452,0.193118,20.7531,34.1822,-0.033516,0,0
1560,389.75,53.8879,57.4392,161.167,100.193,99.8763,0.009984137,0.197681,20.7488,33.6817,0.0286893,0,0
1600,399.75,53.9738,58.3957,161.165,100.21,100.191,0.009889677,0.202131,20.7434,33.0511,0.001695844,0,0
1640,409.75,54.0097,58.1097,155.408,100.207,99.9462,0.009754322,0.206732,20.7376,32.4705,0.0236268,0,0
1680,419.75,54.6233,58.8846,166.015,100.205,99.9528,0.009734279,0.213628,20.729,31.92,0.02284723,0,0
1720,429.75,55.1244,59.558,163.634,100.21,100.294,0.009481639,0.218512,20.723,31.2894,-0.007614129,0,0
1760,439.75,55.3364,60.4986,152.688,100.207,100.123,0.009468201,0.228004,20.7148,30.6188,0.0075667,0,0
1800,449.75,56.335,60.5084,149.814,100.217,100.215,0.009378534,0.234695,20.7095,30.0082,9.83655E-05,0,0
1840,459.75,56.4745,62.4507,152.972,100.21,98.2008,0.009271321,0.243907,20.6999,29.3776,0.183604,0,0
1880,469.75,57.1682,63.3201,160.501,100.207,99.5133,0.009102793,0.252161,20.6912,28.717,0.0629943,0,0
1920,479.75,57.6225,64.177,154.162,100.212,100.199,0.009217144,0.262607,20.6791,27.9863,0.001140325,0,0
1960,489.75,59.3099,65.1687,151.132,100.206,99.2431,0.008987886,0.276516,20.6617,27.2656,0.0875658,0,0
2000,499.75,59.622,66.8104,155.499,100.207,99.2062,0.009368301,0.291972,20.6462,26.4649,0.091053,0,0
2040,509.75,60.9502,67.7082,150.982,100.211,98.6277,0.009130645,0.307452,20.6274,25.6141,0.144421,0,0
2080,519.75,62.2458,69.4187,151.221,100.212,99.3734,0.009341811,0.322537,20.6115,24.7032,0.076198,0,0
2120,529.75,62.8482,71.3717,148.584,100.208,99.2331,0.009643613,0.335389,20.5968,23.7624,0.0886674,0,0
2160,539.75,63.7564,72.4307,149.322,100.212,98.53,0.009424184,0.348072,20.5813,22.8815,0.153484,0,0
2200,549.75,64.6147,73.5422,155.303,100.215,98.1917,0.009879336,0.351323,20.5782,21.9206,0.184936,0,0
2240,559.75,64.9946,73.3096,150.542,100.207,97.8973,0.009924449,0.34654,20.5837,20.9397,0.211451,0,0
2280,569.75,65.408,73.6697,150.812,100.201,98.7554,0.009977214,0.342353,20.5871,20.0188,0.131746,0,0
2320,579.75,65.1412,73.2075,148.004,100.191,98.4219,0.009544672,0.338118,20.5914,19.088,0.161517,0,0
2360,589.75,65.2817,73.1675,152.193,100.181,98.8705,0.009424211,0.328332,20.6006,18.2472,0.119374,0,0
2400,599.75,65.1756,72.7029,152.382,100.142,98.3698,0.0102669,0.321594,20.6073,17.3363,0.161943,0,0
2440,609.75,65.595,71.6631,154.498,100.122,99.0855,0.009921335,0.310842,20.6166,16.5956,0.0943966,0,0
2480,619.75,64.5869,70.7984,154.545,100.086,98.7593,0.009609109,0.295389,20.6353,15.7949,0.12097,0,0
2520,629.75,63.8554,70.361,150.502,100.048,98.5127,0.009325812,0.285019,20.648,15.0842,0.1402466,0,0
2560,639.75,62.8357,68.4566,154.341,99.9765,99.3621,0.009070907,0.267228,20.6682,14.4136,0.0558928,0,0
2600,649.75,62.3151,67.1246,156.951,99.8652,99.3656,0.009162576,0.246194,20.6891,13.853,0.04547463,0,0
2640,659.75,61.1287,64.3494,154.032,99.7739,98.9439,0.009371964,0.225171,20.7126,13.3225,0.0757456,0,0
2680,669.75,59.9848,63.7805,161.219,99.731,99.6627,0.009665308,0.211837,20.7277,12.8721,0.006212224,0,0
2720,679.75,59.013,62.8241,158.462,99.8414,99.4116,0.0106675,0.198928,20.7398,12.4117,0.0391171,0,0
2760,689.75,58.9133,60.742,158.565,100.135,100.244,0.0101497,0.189206,20.7497,12.0313,-0.009812721,0,0
2800,699.75,57.2777,60.0328,159.658,100.372,100.725,0.010826,0.179261,20.761,11.681,-0.0318215,0,0
2840,709.75,57.0976,58.7927,154.807,100.558,100.669,0.0112335,0.169486,20.7713,11.3507,-0.009996682,0,0
2880,719.75,56.4576,57.874,157.788,100.667,100.773,0.0119321,0.163759,20.7754,11.0704,-0.009572495,0,0
2920,729.75,55.3326,57.1495,161.779,100.651,100.688,0.0127161,0.157669,20.7847,10.8002,-0.003335869,0,0
2960,739.75,54.5483,56.4056,160.554,100.508,100.527,0.0126417,0.151879,20.7889,10.5299,-0.001745354,0,0
3000,749.75,54.4929,55.5517,158.74,100.212,100.4,0.0132087,0.148261,20.7933,10.3297,-0.0169992,0,0
3040,759.75,53.0624,55.1983,163.568,100.13,100.305,0.0131542,0.142258,20.7992,10.0895,-0.0158805,0,0
3080,769.75,53.374,54.5592,160.533,100.306,100.151,0.0144622,0.139014,20.8033,9.92934,0.0139842,0,0
3120,779.75,52.0828,53.9686,166.371,100.493,100.469,0.0146475,0.134509,20.8087,9.71914,0.002114082,0,0
3160,789.75,51.8012,53.8143,157.238,100.626,100.909,0.0146894,0.133283,20.8094,9.55899,-0.025478,0,0
3200,799.75,52.2804,53.1132,157.103,100.698,100.819,0.0143963,0.131791,20.8121,9.40885,-0.010936,0,0
3240,809.75,51.2862,53.8712,159.454,100.764,101.495,0.0138556,0.127233,20.8167,9.2487,-0.0655443,0,0
3280,819.75,50.9911,52.9408,162.722,100.776,100.471,0.01426149,0.124799,20.8192,9.07854,0.0275363,0,0
3320,829.75,50.8469,52.183,161.398,100.767,101.142,0.0140008,0.120285,20.8235,8.93841,-0.03368203,0,0
3360,839.75,50.1824,52.5477,160.526,100.71,100.725,0.0137991,0.119752,20.8227,8.89837,-0.00132966,0,0
3400,849.75,50.0395,51.4175,162.388,100.593,100.795,0.0140724,0.117486,20.8252,8.75824,-0.0182122,0,0
3440,859.75,49.5668,52.0349,161.496,100.397,100.633,0.0139954,0.116612,20.8273,8.6081,-0.02130774,0,0
3480,869.75,49.7251,51.2004,163.109,100.178,100.833,0.0148921,0.113159,20.8304,8.56806,-0.0590776,0,0
3520,879.75,48.7643,51.1585,161.11,99.9277,99.766,0.0151689,0.112091,20.8309,8.45796,0.0146846,0,0
3560,889.75,48.7223,51.0651,157.686,99.6918,99.8351,0.0144558,0.111735,20.8301,8.32783,-0.0130245,0,0
3600,899.75,48.8024,50.7984,165.516,99.4241,99.6023,0.0142069,0.110652,20.8327,8.31782,-0.0162319,0,0
3640,909.75,48.7912,50.0768,160.704,99.1982,99.5367,0.0142763,0.110824,20.8308,8.20772,-0.0308892,0,0
3680,919.75,48.6603,49.8581,162.583,98.991,99.852,0.0139664,0.10997,20.8336,8.15767,-0.0785243,0,0
3720,929.75,48.9206,49.862,160.351,98.8556,98.8501,0.014083,0.109422,20.8343,8.04757,0.000500464,0,0
3760,939.75,48.6657,49.9423,163.299,98.8318,98.8371,0.0138033,0.109827,20.8344,7.96749,-0.000483736,0,0
3800,949.75,47.9999,50.073,160.756,98.8772,99.0364,0.0139654,0.10964,20.8344,7.90744,-0.0145861,0,0
3840,959.75,47.8915,49.7511,163.145,99.0106,98.7098,0.0136415,0.108788,20.8344,7.84738,0.0275891,0,0
3880,969.75,48.0966,49.4208,165.083,99.1699,99.2662,0.0137168,0.108444,20.8345,7.70725,-0.008799377,0,0
3920,979.75,47.3937,49.8999,161.229,99.3312,99.4238,,,,7.70725,-0.008449899,0,0
3947,986.5,47.7287,49.6553,162.921,99.4171,99.0295,,,,7.63718,0.0354214,0,0