File: 01_Data/Polyester_Microfiber_Sheet/Cone/Polyester_Microfiber_Sheet_HRRPUA_50.csv
Time after Ignition,Polyester_Microfiber_Sheet_R1,Polyester_Microfiber_Sheet_R2,Polyester_Microfiber_Sheet_R3,Mean,Std. Dev.
0.0,-2.0,5.6,12.0,5.2,7.0
0.5,-0.4,8.9,15.5,8.0,8.0
1.0,1.0,11.4,21.0,11.1,10.0
1.5,4.7,18.5,28.2,17.1,11.8
2.0,7.6,24.3,33.7,21.9,13.2
2.5,12.7,37.1,43.2,31.0,16.2
3.0,16.1,46.2,49.8,37.4,18.5
3.5,22.2,60.0,55.8,46.0,20.7
4.0,27.4,73.6,66.7,55.9,24.9
4.5,31.0,94.2,75.1,66.8,32.4
5.0,37.7,115.9,90.8,81.5,39.9
5.5,42.6,133.4,102.0,92.6,46.1
6.0,49.1,153.9,126.1,109.7,54.2
6.5,56.5,176.2,141.9,124.9,61.7
7.0,61.6,204.1,173.6,146.4,75.0
7.5,68.7,234.7,202.2,168.5,88.0
8.0,76.8,245.6,227.8,183.4,92.7
8.5,83.3,274.5,254.0,203.9,105.0
9.0,95.4,315.1,283.2,231.3,118.7
9.5,105.5,348.0,302.8,252.1,129.0
10.0,122.9,365.5,315.3,267.9,128.0
10.5,139.5,380.6,343.1,287.7,129.8
11.0,162.1,396.9,350.4,303.1,124.3
11.5,182.3,410.9,356.4,316.5,119.4
12.0,217.4,409.7,376.1,334.4,102.7
12.5,246.5,419.7,378.5,348.3,90.5
13.0,271.5,412.8,408.9,364.4,80.5
13.5,301.4,417.7,397.9,372.3,62.2
14.0,327.4,395.4,410.9,377.9,44.4
14.5,344.2,390.4,411.8,382.1,34.5
15.0,366.6,374.1,416.3,385.7,26.8
15.5,383.1,366.4,419.2,389.5,27.0
16.0,385.4,351.2,416.3,384.3,32.6
16.5,401.9,338.2,418.5,386.2,42.4
17.0,400.5,324.2,414.1,379.6,48.5
17.5,406.5,319.2,405.2,377.0,50.0
18.0,406.6,307.5,392.1,368.7,53.5
18.5,405.8,286.3,388.7,360.2,64.6
19.0,396.2,266.8,375.9,346.3,69.6
19.5,392.7,255.7,362.6,337.0,72.0
20.0,386.9,238.4,347.8,324.4,77.0
20.5,376.9,229.7,333.5,313.4,75.7
21.0,355.6,213.8,316.8,295.4,73.3
21.5,348.5,202.6,301.7,284.3,74.5
22.0,333.5,194.0,292.8,273.5,71.8
22.5,316.1,185.2,271.8,257.7,66.6
23.0,297.6,177.5,256.5,243.9,61.0
23.5,286.6,165.9,241.3,231.3,61.0
24.0,266.6,155.6,226.3,216.2,56.2
24.5,256.9,152.0,218.4,209.1,53.0
25.0,243.7,144.6,204.2,197.5,49.9
25.5,232.2,135.9,190.8,186.3,48.3
26.0,222.9,129.1,178.4,176.8,46.9
26.5,209.0,122.0,168.3,166.4,43.5
27.0,202.8,115.9,154.9,157.9,43.6
27.5,192.4,107.1,150.8,150.1,42.6
28.0,185.0,105.0,139.6,143.2,40.1
28.5,174.3,100.7,131.6,135.5,36.9
29.0,163.0,96.4,122.2,127.2,33.5
29.5,157.0,92.4,115.6,121.7,32.7
30.0,152.0,90.0,108.7,116.9,31.8
30.5,143.4,87.0,104.0,111.5,28.9
31.0,137.7,83.7,99.0,106.8,27.8
31.5,131.5,82.0,95.4,103.0,25.6
32.0,124.9,78.1,91.0,98.0,24.1
32.5,121.5,74.6,86.5,94.2,24.4
33.0,116.5,72.9,82.9,90.8,22.8
33.5,111.4,70.5,79.6,87.2,21.5
34.0,105.1,67.1,76.6,82.9,19.8
34.5,100.3,65.3,72.7,79.4,18.4
35.0,95.6,63.9,69.0,76.2,17.0
35.5,90.6,63.1,67.0,73.5,14.9
36.0,85.5,60.6,64.4,70.2,13.4
36.5,81.6,59.2,61.9,67.5,12.2
37.0,78.4,57.9,59.6,65.3,11.4
37.5,75.7,57.1,57.1,63.3,10.8
38.0,71.4,55.8,55.7,60.9,9.0
38.5,67.2,54.7,53.6,58.5,7.6
39.0,65.5,54.9,51.8,57.4,7.2
39.5,63.7,52.6,51.0,55.8,6.9
40.0,60.7,51.8,48.9,53.8,6.2
40.5,58.5,51.6,48.1,52.7,5.3
41.0,56.7,50.4,46.3,51.1,5.2
41.5,54.1,50.9,45.7,50.2,4.2
42.0,52.0,49.9,43.8,48.6,4.3
42.5,49.9,49.3,42.7,47.3,4.0
43.0,48.8,49.2,41.5,46.5,4.3
43.5,47.2,49.0,40.8,45.7,4.3
44.0,45.5,48.6,39.0,44.4,4.9
44.5,44.2,48.0,38.0,43.4,5.0
45.0,42.9,48.1,37.7,42.9,5.2
45.5,41.7,47.6,35.8,41.7,5.9
46.0,39.8,47.7,36.0,41.2,6.0
46.5,39.8,46.4,35.0,40.4,5.7
47.0,37.6,46.2,33.6,39.1,6.5
47.5,37.0,46.2,33.1,38.8,6.7
48.0,36.0,44.9,31.6,37.5,6.8
48.5,35.1,44.5,31.6,37.1,6.7
49.0,34.6,44.5,30.4,36.5,7.2
49.5,33.7,43.5,29.5,35.6,7.2
50.0,33.5,43.8,28.5,35.3,7.8
50.5,32.6,42.6,28.0,34.4,7.5
51.0,32.5,42.2,27.0,33.9,7.7
51.5,31.4,42.3,27.0,33.6,7.9
52.0,31.5,41.8,26.3,33.2,7.9
52.5,31.3,41.5,25.8,32.9,8.0
53.0,30.4,41.1,25.7,32.4,7.9
53.5,30.5,40.6,25.2,32.1,7.8
54.0,30.0,40.5,24.7,31.7,8.0
54.5,29.8,39.6,24.4,31.2,7.7
55.0,29.1,39.6,24.2,31.0,7.9
55.5,28.9,38.9,23.9,30.6,7.6
56.0,28.7,39.2,23.6,30.5,7.9
56.5,28.3,39.5,23.5,30.4,8.2
57.0,28.1,38.0,23.0,29.7,7.6
57.5,27.5,38.1,22.8,29.5,7.8
58.0,26.5,37.3,22.7,28.8,7.6
58.5,26.3,36.6,22.6,28.5,7.3
59.0,26.4,36.6,22.3,28.4,7.4
59.5,26.1,36.3,22.2,28.2,7.3
60.0,25.7,35.7,21.9,27.8,7.2
60.5,25.4,35.4,21.6,27.5,7.1
61.0,25.3,34.4,21.8,27.2,6.5
61.5,25.0,34.2,21.8,27.0,6.4
62.0,24.7,34.2,21.7,26.8,6.5
62.5,24.7,33.0,22.0,26.5,5.7
63.0,24.6,33.1,21.8,26.5,5.9
63.5,24.4,32.2,22.0,26.2,5.3
64.0,24.0,32.9,22.1,26.3,5.8
64.5,23.4,32.1,21.9,25.8,5.5
65.0,23.0,32.1,22.1,25.7,5.5
65.5,22.7,32.0,21.9,25.5,5.6
66.0,22.6,31.7,22.1,25.5,5.4
66.5,22.3,31.4,22.0,25.2,5.3
67.0,22.0,30.9,22.2,25.0,5.1
67.5,22.0,30.7,21.8,24.9,5.0
68.0,21.9,30.3,22.0,24.7,4.8
68.5,21.3,30.2,22.1,24.5,4.9
69.0,21.7,30.2,21.9,24.6,4.8
69.5,21.2,30.0,22.2,24.5,4.8
70.0,21.0,29.2,22.3,24.1,4.4
70.5,20.6,28.4,22.0,23.7,4.2
71.0,20.7,28.8,22.2,23.9,4.3
71.5,20.8,28.7,21.9,23.8,4.3
72.0,20.5,28.2,21.9,23.6,4.1
72.5,20.4,28.1,22.2,23.5,4.0
73.0,20.0,27.8,22.0,23.3,4.0
73.5,19.7,27.1,22.1,23.0,3.8
74.0,19.7,27.2,22.1,23.0,3.8
74.5,19.4,26.9,22.2,22.8,3.8
75.0,19.0,27.2,22.4,22.8,4.1
75.5,18.7,26.3,22.1,22.4,3.8
76.0,19.2,26.1,22.4,22.5,3.5
76.5,18.7,25.9,22.4,22.3,3.6
77.0,18.4,25.3,22.5,22.1,3.5
77.5,18.3,25.0,22.2,21.8,3.4
78.0,17.9,24.8,21.9,21.5,3.5
78.5,17.8,24.5,21.9,21.4,3.4
79.0,17.2,23.7,22.0,21.0,3.4
79.5,17.2,23.9,21.9,21.0,3.4
80.0,16.6,22.9,21.9,20.5,3.4
80.5,16.6,23.0,21.7,20.4,3.4
81.0,16.3,22.5,21.7,20.2,3.4
81.5,16.0,22.5,,19.2,4.6
82.0,16.1,22.3,,19.2,4.4
82.5,15.5,21.6,,18.6,4.3
83.0,15.1,21.4,,18.2,4.5
83.5,14.7,21.4,,18.0,4.7
84.0,14.3,20.7,,17.5,4.5
84.5,14.1,20.3,,17.2,4.4
85.0,13.8,20.5,,17.2,4.7
85.5,13.7,20.1,,16.9,4.6
86.0,13.7,19.9,,16.8,4.4
86.5,13.6,19.5,,16.5,4.2
87.0,13.6,19.4,,16.5,4.1
87.5,13.5,19.4,,16.4,4.2
88.0,13.4,19.2,,16.3,4.1
88.5,13.2,18.7,,15.9,3.9
89.0,13.1,18.4,,15.8,3.8
89.5,12.8,17.9,,15.3,3.6
90.0,12.5,17.3,,14.9,3.4
90.5,12.3,16.9,,14.6,3.3
91.0,12.4,16.4,,14.4,2.9
91.5,12.2,15.8,,14.0,2.6
92.0,12.4,15.7,,14.0,2.3
92.5,12.2,15.3,,13.8,2.2
93.0,12.3,15.1,,13.7,2.0
93.5,12.2,15.2,,13.7,2.1
94.0,12.0,14.8,,13.4,2.0
94.5,12.0,14.5,,13.3,1.8
95.0,12.0,14.7,,13.4,1.9
95.5,12.0,14.2,,13.1,1.5
96.0,12.0,14.1,,13.0,1.5
96.5,12.0,13.7,,12.8,1.2
97.0,12.2,13.3,,12.8,0.8
97.5,12.1,13.1,,12.6,0.7
98.0,11.9,12.7,,12.3,0.6
98.5,11.9,12.7,,12.3,0.6
99.0,11.8,,,11.8,
99.5,11.9,,,11.9,
100.0,12.0,,,12.0,
100.25,11.8,,,11.8,