File: 01_Data/Polyester_Microfiber_Sheet/Cone/Polyester_Microfiber_Sheet_HRRPUA_75.csv
Time after Ignition,Polyester_Microfiber_Sheet_R1,Polyester_Microfiber_Sheet_R2,Polyester_Microfiber_Sheet_R3,Mean,Std. Dev.
0.0,19.7,13.1,13.5,15.4,3.7
0.5,27.2,18.2,24.2,23.2,4.6
1.0,36.6,26.6,32.2,31.8,5.0
1.5,48.2,36.8,50.3,45.1,7.2
2.0,58.0,46.0,66.9,57.0,10.5
2.5,69.8,51.4,78.3,66.5,13.7
3.0,84.4,66.5,101.8,84.2,17.7
3.5,101.5,79.8,121.3,100.9,20.8
4.0,120.1,101.2,139.1,120.1,19.0
4.5,144.3,115.6,165.7,141.9,25.2
5.0,164.5,145.9,201.5,170.7,28.3
5.5,197.2,175.1,243.5,205.3,34.9
6.0,225.7,220.3,254.0,233.3,18.1
6.5,265.4,246.8,292.1,268.1,22.8
7.0,297.2,317.3,352.4,322.3,27.9
7.5,337.2,351.9,378.2,355.7,20.8
8.0,367.0,383.6,434.0,394.9,34.9
8.5,386.4,428.9,471.2,428.8,42.4
9.0,421.0,448.9,513.7,461.2,47.5
9.5,441.0,489.6,528.1,486.2,43.6
10.0,464.3,514.8,536.9,505.3,37.2
10.5,469.2,527.0,555.1,517.1,43.8
11.0,507.1,545.1,578.5,543.6,35.7
11.5,506.2,561.8,582.6,550.2,39.5
12.0,515.9,550.2,558.7,541.6,22.7
12.5,540.3,546.0,560.3,548.9,10.3
13.0,533.9,529.3,523.5,528.9,5.2
13.5,534.9,496.2,514.2,515.1,19.4
14.0,518.5,472.9,474.3,488.6,25.9
14.5,491.2,457.3,446.2,464.9,23.4
15.0,470.9,429.9,416.6,439.2,28.3
15.5,449.4,401.0,388.9,413.1,32.0
16.0,431.4,381.9,359.5,390.9,36.8
16.5,411.7,360.2,329.1,367.0,41.7
17.0,392.8,336.8,306.2,345.3,43.9
17.5,369.8,306.3,283.3,319.8,44.8
18.0,354.6,288.6,254.6,299.2,50.8
18.5,332.5,261.6,240.5,278.2,48.2
19.0,316.9,241.6,222.9,260.5,49.8
19.5,296.1,217.0,209.6,240.9,48.0
20.0,274.8,204.5,192.4,223.9,44.5
20.5,259.8,188.2,182.6,210.2,43.1
21.0,242.5,176.8,169.1,196.1,40.3
21.5,227.5,163.3,156.3,182.4,39.2
22.0,208.6,150.9,146.0,168.5,34.8
22.5,196.9,140.1,137.9,158.3,33.5
23.0,184.8,135.9,129.3,150.0,30.3
23.5,174.9,127.1,121.6,141.2,29.4
24.0,167.5,119.9,117.1,134.9,28.3
24.5,157.0,111.9,110.5,126.5,26.5
25.0,147.9,105.8,104.9,119.5,24.6
25.5,138.4,102.3,99.8,113.5,21.6
26.0,131.6,97.3,97.1,108.7,19.9
26.5,122.5,92.1,93.8,102.8,17.1
27.0,118.5,90.0,88.3,98.9,17.0
27.5,113.4,86.7,85.6,95.2,15.7
28.0,106.8,83.3,83.3,91.1,13.5
28.5,102.9,81.4,80.4,88.2,12.7
29.0,97.7,79.7,78.5,85.3,10.8
29.5,94.2,77.9,76.5,82.9,9.9
30.0,90.5,75.9,73.6,80.0,9.2
30.5,87.8,74.2,72.1,78.0,8.5
31.0,85.1,72.8,70.7,76.2,7.7
31.5,82.4,71.8,69.3,74.5,7.0
32.0,79.6,69.1,68.8,72.5,6.1
32.5,78.0,68.0,67.5,71.2,5.9
33.0,74.8,65.3,66.8,69.0,5.1
33.5,72.6,64.2,66.4,67.7,4.3
34.0,72.5,63.0,63.4,66.3,5.3
34.5,72.1,61.0,63.1,65.4,5.9
35.0,69.7,58.8,61.9,63.5,5.6
35.5,68.2,58.0,60.4,62.2,5.3
36.0,66.1,57.4,61.2,61.6,4.4
36.5,64.3,56.1,59.4,59.9,4.1
37.0,62.5,55.3,58.0,58.6,3.6
37.5,61.7,54.1,56.7,57.5,3.9
38.0,60.6,53.8,56.3,56.9,3.5
38.5,58.5,52.7,56.3,55.8,2.9
39.0,57.0,51.6,55.8,54.8,2.9
39.5,56.0,50.8,54.3,53.7,2.7
40.0,55.1,50.9,53.2,53.1,2.1
40.5,53.9,49.1,53.1,52.1,2.6
41.0,53.1,49.3,52.5,51.6,2.1
41.5,51.1,48.0,51.7,50.3,1.9
42.0,51.1,48.1,50.5,49.9,1.6
42.5,50.1,46.9,50.7,49.3,2.0
43.0,50.1,46.7,50.9,49.2,2.2
43.5,48.9,46.5,50.0,48.4,1.8
44.0,48.4,46.2,49.4,48.0,1.6
44.5,47.6,45.6,49.5,47.6,1.9
45.0,48.0,44.6,47.9,46.8,2.0
45.5,47.0,45.7,47.7,46.8,1.0
46.0,45.9,44.6,47.5,46.0,1.4
46.5,46.0,43.9,46.5,45.5,1.4
47.0,45.4,43.8,46.3,45.1,1.3
47.5,44.6,43.2,46.1,44.7,1.4
48.0,44.3,43.4,45.5,44.4,1.1
48.5,43.9,43.3,46.0,44.4,1.4
49.0,43.3,43.3,45.0,43.9,1.0
49.5,43.8,43.0,44.3,43.7,0.6
50.0,42.2,43.1,44.7,43.3,1.3
50.5,42.2,42.5,43.6,42.8,0.7
51.0,41.9,41.9,44.6,42.8,1.6
51.5,41.3,41.6,43.1,42.0,1.0
52.0,40.7,41.3,44.0,42.0,1.8
52.5,40.4,40.7,43.4,41.5,1.7
53.0,39.7,41.1,42.9,41.2,1.6
53.5,39.6,40.0,43.3,40.9,2.0
54.0,39.3,40.2,42.3,40.6,1.5
54.5,39.0,40.1,41.8,40.3,1.4
55.0,38.4,39.5,41.8,39.9,1.8
55.5,38.1,39.1,41.7,39.6,1.9
56.0,38.3,39.1,41.2,39.5,1.5
56.5,38.4,39.1,41.1,39.5,1.4
57.0,37.6,38.5,41.1,39.1,1.9
57.5,37.8,38.5,41.2,39.2,1.8
58.0,37.6,37.5,40.6,38.6,1.8
58.5,38.0,37.0,40.2,38.4,1.7
59.0,38.0,36.4,40.2,38.2,1.9
59.5,37.5,36.6,39.8,38.0,1.7
60.0,37.3,36.2,39.2,37.6,1.5
60.5,37.0,35.2,39.3,37.2,2.0
61.0,36.7,35.0,39.1,36.9,2.0
61.5,36.1,34.5,39.2,36.6,2.4
62.0,35.9,34.1,38.7,36.2,2.3
62.5,34.9,33.2,38.9,35.7,2.9
63.0,35.0,32.9,38.9,35.6,3.1
63.5,35.2,33.0,38.3,35.5,2.7
64.0,34.3,32.8,37.8,34.9,2.6
64.5,34.0,32.6,37.7,34.8,2.6
65.0,34.2,32.3,36.9,34.5,2.3
65.5,34.0,31.9,37.4,34.4,2.8
66.0,33.6,31.9,36.4,34.0,2.3
66.5,33.6,31.6,36.2,33.8,2.3
67.0,33.5,31.4,36.3,33.7,2.5
67.5,33.0,31.3,35.7,33.3,2.2
68.0,32.9,30.8,35.3,33.0,2.2
68.5,32.2,31.1,35.1,32.8,2.1
69.0,32.2,30.3,34.8,32.4,2.2
69.5,32.1,30.1,35.0,32.4,2.4
70.0,32.3,29.8,33.9,32.0,2.1
70.5,31.8,29.6,34.3,31.9,2.3
71.0,31.1,28.9,34.0,31.3,2.6
71.5,31.2,29.0,33.7,31.3,2.3
72.0,31.0,28.4,32.6,30.7,2.1
72.5,30.5,28.2,33.4,30.7,2.6
73.0,30.3,28.1,33.0,30.5,2.4
73.5,30.1,27.5,32.6,30.1,2.5
74.0,29.5,27.0,31.9,29.5,2.4
74.5,28.9,26.8,31.6,29.1,2.4
75.0,28.7,27.0,31.3,29.0,2.2
75.5,28.7,27.1,30.8,28.9,1.9
76.0,28.5,26.9,30.2,28.5,1.7
76.5,28.0,26.7,30.3,28.3,1.8
77.0,27.0,26.2,29.9,27.7,2.0
77.5,26.8,26.1,29.7,27.5,1.9
78.0,26.2,25.8,29.0,27.0,1.8
78.5,25.9,25.8,28.9,26.8,1.7
79.0,25.8,25.6,28.3,26.5,1.5
79.5,25.4,25.6,28.0,26.3,1.4
80.0,25.5,25.4,27.1,26.0,0.9
80.5,24.7,25.6,26.5,25.6,0.9
81.0,24.7,25.4,26.5,25.6,0.9
81.5,23.8,25.4,26.5,25.2,1.3
82.0,23.3,25.6,25.6,24.9,1.3
82.5,23.0,25.3,25.5,24.6,1.4
83.0,22.6,25.2,25.4,24.4,1.6
83.5,22.1,25.4,25.1,24.2,1.8
84.0,21.6,25.2,24.7,23.9,2.0
84.5,21.1,25.3,24.3,23.6,2.2
85.0,20.8,25.2,24.0,23.3,2.3
85.5,20.7,25.4,23.6,23.2,2.3
86.0,20.6,25.4,23.3,23.1,2.4
86.5,20.0,24.7,22.7,22.5,2.3
87.0,19.5,24.6,22.4,22.2,2.6
87.5,19.5,23.8,22.4,21.9,2.2
88.0,19.4,24.1,22.0,21.8,2.4
88.5,19.1,23.0,21.6,21.2,1.9
89.0,19.3,22.7,21.6,21.2,1.7
89.5,18.7,22.9,21.3,21.0,2.1
90.0,18.6,23.0,20.4,20.7,2.3
90.5,18.3,22.0,20.2,20.2,1.9
91.0,18.0,21.7,19.9,19.9,1.9
91.5,17.6,21.6,19.3,19.5,2.0
92.0,17.3,21.2,18.9,19.1,2.0
92.5,17.3,20.8,18.6,18.9,1.8
93.0,17.5,20.8,18.3,18.8,1.7
93.5,17.2,20.3,18.1,18.6,1.6
94.0,17.0,20.1,17.7,18.2,1.6
94.5,16.8,19.8,17.4,18.0,1.6
95.0,16.7,19.8,17.1,17.9,1.7
95.5,16.5,19.5,16.8,17.6,1.7
96.0,16.1,18.8,16.5,17.1,1.4
96.5,15.8,18.7,16.2,16.9,1.6
97.0,15.8,18.0,16.1,16.6,1.2
97.5,15.6,18.1,15.7,16.5,1.4
98.0,15.5,17.6,15.2,16.1,1.3
98.5,15.2,17.2,14.6,15.7,1.4
99.0,15.1,17.0,14.6,15.6,1.3
99.5,15.1,16.5,14.1,15.2,1.2
100.0,14.9,16.3,13.9,15.1,1.2
100.5,15.1,16.2,13.5,14.9,1.4
101.0,14.7,16.1,13.4,14.7,1.4
101.5,14.6,15.4,13.2,14.4,1.1
102.0,14.6,15.2,12.8,14.2,1.2
102.5,14.4,14.8,12.8,14.0,1.1
103.0,14.2,14.7,12.7,13.9,1.0
103.5,14.2,14.2,12.8,13.7,0.8