File: 01_Data/Pine_Siding/Cone/Pine_Siding_HRRPUA_50.csv
Time after Ignition,Pine_Siding_R1,Pine_Siding_R2,Pine_Siding_R3,Mean,Std. Dev.
0.0,12.8,9.6,13.6,12.0,2.1
3.0,79.0,107.3,81.3,89.2,15.7
6.0,195.7,220.1,191.5,202.4,15.5
9.0,271.9,282.9,274.6,276.5,5.8
12.0,316.2,298.9,297.7,304.3,10.4
15.0,303.9,296.7,287.2,295.9,8.4
18.0,281.3,265.7,267.7,271.6,8.4
21.0,256.7,248.3,240.5,248.5,8.1
24.0,234.4,229.9,220.9,228.4,6.9
27.0,221.0,213.2,205.0,213.1,8.0
30.0,208.0,200.8,196.0,201.6,6.0
33.0,194.6,189.9,185.1,189.9,4.7
36.0,189.9,181.1,178.9,183.3,5.8
39.0,180.7,176.8,171.4,176.3,4.7
42.0,174.3,168.2,162.1,168.2,6.1
45.0,167.6,164.1,162.6,164.8,2.6
48.0,161.8,162.6,154.7,159.7,4.4
51.0,155.6,159.6,152.6,155.9,3.5
54.0,155.3,154.9,148.5,152.9,3.8
57.0,149.2,151.4,146.0,148.9,2.7
60.0,144.9,144.2,140.0,143.0,2.7
63.0,140.4,140.2,139.1,139.9,0.7
66.0,136.0,135.9,134.0,135.3,1.1
69.0,134.3,136.1,133.7,134.7,1.2
72.0,131.0,130.8,130.7,130.8,0.2
75.0,128.8,127.9,130.9,129.2,1.5
78.0,126.7,126.7,126.4,126.6,0.2
81.0,124.3,125.4,125.1,124.9,0.6
84.0,121.8,122.4,126.3,123.5,2.4
87.0,122.1,118.1,121.3,120.5,2.1
90.0,121.3,116.0,117.8,118.4,2.7
93.0,119.3,116.0,116.4,117.2,1.8
96.0,121.1,113.0,115.5,116.5,4.1
99.0,119.5,110.6,111.4,113.8,4.9
102.0,115.9,108.7,112.8,112.5,3.6
105.0,115.9,109.6,110.8,112.1,3.4
108.0,116.3,108.6,110.3,111.7,4.1
111.0,116.8,109.3,109.7,111.9,4.2
114.0,115.0,109.4,110.4,111.6,3.0
117.0,113.0,106.3,108.5,109.3,3.4
120.0,112.7,106.1,106.8,108.5,3.6
123.0,110.2,106.6,104.3,107.0,3.0
126.0,111.5,106.4,104.6,107.5,3.6
129.0,111.8,103.2,103.8,106.3,4.8
132.0,110.2,104.6,102.8,105.9,3.9
135.0,110.4,104.1,103.3,105.9,3.9
138.0,109.7,104.1,101.3,105.0,4.3
141.0,110.3,103.6,100.6,104.8,5.0
144.0,110.7,103.0,98.9,104.2,6.0
147.0,110.1,103.5,100.1,104.6,5.1
150.0,109.6,101.2,99.6,103.5,5.4
153.0,108.0,101.3,97.3,102.2,5.4
156.0,108.5,102.4,97.7,102.9,5.4
159.0,107.3,101.6,97.3,102.1,5.0
162.0,106.9,100.4,97.3,101.6,4.9
165.0,106.6,100.8,97.7,101.7,4.5
168.0,105.3,98.8,95.7,99.9,4.9
171.0,103.4,101.5,96.6,100.5,3.5
174.0,102.3,98.8,96.3,99.1,3.0
177.0,102.7,98.3,96.6,99.2,3.2
180.0,103.1,97.7,96.6,99.1,3.5
183.0,104.4,98.7,95.6,99.6,4.5
186.0,104.8,99.7,94.2,99.5,5.3
189.0,104.0,98.1,93.9,98.7,5.1
192.0,104.8,100.1,93.0,99.3,5.9
195.0,103.6,97.2,94.0,98.3,4.8
198.0,102.9,98.3,95.2,98.8,3.9
201.0,101.2,97.4,96.1,98.2,2.7
204.0,99.1,97.1,94.8,97.0,2.1
207.0,103.2,98.8,95.2,99.1,4.0
210.0,101.0,97.5,96.1,98.2,2.5
213.0,101.2,97.2,97.2,98.5,2.3
216.0,100.2,96.0,94.0,96.8,3.2
219.0,100.9,96.4,95.0,97.4,3.1
222.0,103.6,95.0,92.6,97.1,5.8
225.0,101.8,96.7,91.3,96.6,5.3
228.0,101.0,96.6,91.7,96.4,4.6
231.0,102.4,96.0,91.0,96.5,5.7
234.0,101.6,96.6,93.4,97.2,4.1
237.0,99.5,96.8,93.2,96.5,3.2
240.0,101.6,97.7,92.8,97.4,4.4
243.0,99.7,98.0,92.7,96.8,3.6
246.0,99.2,97.5,93.1,96.6,3.2
249.0,100.5,96.8,92.0,96.4,4.3
252.0,100.1,97.2,93.4,96.9,3.3
255.0,98.5,98.2,94.8,97.2,2.1
258.0,97.8,96.7,93.7,96.1,2.1
261.0,100.2,98.6,94.6,97.8,2.9
264.0,101.5,97.3,94.1,97.6,3.7
267.0,100.9,99.3,94.5,98.2,3.3
270.0,99.3,99.8,93.6,97.5,3.5
273.0,100.8,98.6,94.7,98.1,3.1
276.0,100.0,97.5,92.8,96.8,3.7
279.0,100.3,97.9,94.4,97.6,3.0
282.0,102.3,96.3,93.7,97.4,4.4
285.0,99.6,97.5,93.6,96.9,3.0
288.0,100.9,97.5,92.8,97.0,4.1
291.0,102.7,97.2,93.9,97.9,4.5
294.0,103.4,98.4,93.3,98.4,5.1
297.0,102.7,97.6,92.9,97.7,4.9
300.0,101.1,95.8,94.0,97.0,3.7
303.0,104.0,96.1,92.9,97.7,5.7
306.0,103.3,97.3,94.6,98.4,4.5
309.0,102.5,98.4,94.3,98.4,4.1
312.0,102.6,96.8,95.2,98.2,3.9
315.0,102.1,97.8,93.7,97.8,4.2
318.0,103.4,98.3,94.1,98.6,4.6
321.0,102.1,96.9,93.6,97.5,4.3
324.0,101.7,96.7,94.6,97.7,3.6
327.0,102.6,98.7,94.6,98.6,4.0
330.0,103.1,99.0,95.5,99.2,3.8
333.0,101.7,99.0,94.2,98.3,3.8
336.0,102.3,99.7,94.7,98.9,3.8
339.0,101.9,98.4,93.5,97.9,4.2
342.0,103.7,98.8,93.6,98.7,5.0
345.0,104.8,98.7,95.4,99.6,4.8
348.0,102.8,98.7,94.2,98.6,4.3
351.0,102.8,97.4,95.8,98.7,3.7
354.0,102.2,99.4,94.7,98.8,3.8
357.0,101.4,98.9,94.4,98.2,3.5
360.0,103.7,98.8,94.2,98.9,4.8
363.0,102.6,100.0,93.7,98.8,4.6
366.0,101.8,99.0,95.0,98.6,3.4
369.0,103.7,99.0,93.7,98.8,5.0
372.0,103.5,101.1,95.6,100.1,4.0
375.0,102.8,100.5,97.6,100.3,2.6
378.0,102.4,100.7,96.7,99.9,2.9
381.0,103.3,101.4,96.6,100.4,3.5
384.0,104.0,100.2,97.4,100.5,3.3
387.0,103.7,101.5,99.1,101.4,2.3
390.0,104.7,100.3,99.9,101.6,2.6
393.0,103.9,100.9,99.0,101.3,2.5
396.0,104.7,100.5,100.5,101.9,2.4
399.0,104.7,102.1,100.7,102.5,2.0
402.0,105.5,102.5,102.1,103.4,1.9
405.0,106.8,103.9,102.8,104.5,2.1
408.0,106.7,106.1,101.7,104.8,2.7
411.0,104.8,104.5,101.5,103.6,1.8
414.0,105.4,104.1,102.4,104.0,1.5
417.0,106.5,104.4,106.1,105.7,1.1
420.0,105.7,105.3,105.9,105.6,0.3
423.0,106.3,107.8,106.5,106.9,0.8
426.0,105.3,107.1,104.7,105.7,1.2
429.0,105.7,107.4,105.9,106.3,0.9
432.0,105.8,109.6,107.0,107.5,2.0
435.0,106.1,110.1,106.9,107.7,2.1
438.0,106.4,111.4,107.6,108.4,2.6
441.0,108.0,111.3,111.5,110.3,2.0
444.0,106.9,112.8,111.1,110.3,3.1
447.0,110.6,113.3,111.0,111.7,1.5
450.0,109.0,111.3,111.5,110.6,1.4
453.0,110.4,113.4,111.4,111.7,1.5
456.0,109.9,115.3,110.6,111.9,2.9
459.0,111.0,114.8,111.7,112.5,2.0
462.0,107.7,115.9,111.9,111.8,4.1
465.0,110.1,116.3,113.4,113.3,3.1
468.0,111.4,117.2,114.6,114.4,2.9
471.0,110.0,116.4,116.2,114.2,3.7
474.0,110.8,115.6,116.1,114.1,2.9
477.0,113.8,118.6,116.0,116.1,2.4
480.0,111.5,120.0,117.7,116.4,4.4
483.0,111.4,120.5,116.6,116.2,4.6
486.0,112.5,120.9,116.9,116.8,4.2
489.0,114.3,118.7,118.3,117.1,2.4
492.0,114.6,122.0,117.2,117.9,3.8
495.0,114.4,120.7,118.8,118.0,3.3
498.0,115.5,121.3,120.1,119.0,3.0
501.0,116.0,124.7,120.0,120.3,4.3
504.0,117.0,125.6,122.5,121.7,4.3
507.0,118.3,126.8,121.6,122.2,4.3
510.0,119.3,127.8,124.0,123.7,4.3
513.0,119.3,127.5,124.0,123.6,4.1
516.0,120.0,132.1,124.4,125.5,6.1
519.0,119.9,130.8,127.4,126.0,5.6
522.0,120.2,133.8,127.7,127.2,6.8
525.0,121.2,134.5,128.7,128.1,6.7
528.0,120.7,133.4,127.5,127.2,6.4
531.0,120.9,135.1,127.7,127.9,7.1
534.0,121.1,134.8,129.7,128.5,7.0
537.0,120.6,135.8,132.3,129.6,8.0
540.0,125.4,135.6,131.6,130.9,5.1
543.0,123.8,136.0,129.2,129.7,6.1
546.0,124.2,141.1,129.1,131.5,8.7
549.0,124.7,138.4,127.4,130.2,7.3
552.0,125.7,137.1,126.9,129.9,6.2
555.0,125.7,140.0,129.6,131.8,7.4
558.0,127.5,139.1,127.9,131.5,6.6
561.0,127.7,141.0,131.7,133.5,6.8
564.0,129.2,140.3,130.7,133.4,6.0
567.0,131.6,140.8,129.0,133.8,6.2
570.0,129.3,141.9,130.4,133.9,7.0
573.0,127.7,140.8,129.6,132.7,7.1
576.0,127.0,140.7,132.0,133.2,6.9
579.0,128.9,142.0,131.0,134.0,7.0
582.0,130.6,141.3,131.7,134.5,5.9
585.0,132.7,144.4,130.6,135.9,7.5
588.0,132.9,140.8,130.0,134.6,5.6
591.0,132.7,142.3,132.1,135.7,5.7
594.0,133.4,140.1,132.7,135.4,4.1
597.0,131.0,141.3,133.8,135.4,5.3
600.0,133.4,139.1,133.1,135.2,3.4
603.0,133.9,138.5,134.0,135.5,2.6
606.0,130.7,139.2,134.2,134.7,4.3
609.0,134.1,138.9,132.7,135.2,3.3
612.0,133.0,139.7,134.5,135.8,3.5
615.0,133.3,136.5,135.2,135.0,1.6
618.0,132.9,138.7,133.2,134.9,3.2
621.0,133.8,137.3,131.4,134.2,3.0
624.0,133.2,137.4,132.8,134.5,2.6
627.0,134.4,138.6,134.6,135.9,2.3
630.0,132.8,134.5,132.1,133.1,1.2
633.0,134.2,133.4,131.0,132.8,1.7
636.0,132.3,130.5,131.7,131.5,0.9
639.0,136.2,130.2,131.4,132.6,3.2
642.0,134.0,130.1,130.7,131.6,2.1
645.0,133.7,131.0,130.4,131.7,1.8
648.0,136.4,129.0,130.9,132.1,3.9
651.0,134.1,126.9,131.7,130.9,3.7
654.0,134.1,126.5,135.9,132.2,5.0
657.0,132.8,126.1,135.1,131.3,4.6
660.0,131.4,124.9,133.2,129.8,4.3
663.0,130.1,124.4,132.6,129.1,4.2
666.0,129.9,125.1,130.5,128.5,3.0
669.0,127.8,122.6,129.4,126.6,3.6
672.0,125.4,120.1,126.3,124.0,3.3
675.0,124.9,120.1,123.1,122.7,2.4
678.0,123.0,117.7,120.5,120.4,2.7
681.0,123.4,115.7,121.8,120.3,4.0
684.0,122.2,114.1,116.3,117.5,4.2
687.0,123.8,112.4,117.9,118.0,5.7
690.0,123.5,110.4,117.8,117.2,6.6
693.0,121.7,108.2,114.8,114.9,6.8
696.0,122.3,105.3,114.5,114.0,8.5
699.0,120.6,103.2,114.3,112.7,8.8
702.0,119.6,102.4,112.8,111.6,8.6
705.0,117.5,100.1,108.8,108.8,8.7
708.0,115.8,95.4,107.0,106.1,10.2
711.0,113.6,90.9,103.7,102.7,11.4
714.0,115.2,90.4,101.9,102.5,12.4
717.0,113.9,91.5,100.1,101.8,11.3
720.0,113.1,88.7,98.2,100.0,12.3
723.0,114.5,84.8,95.2,98.1,15.1
726.0,112.1,82.9,93.6,96.2,14.8
729.0,110.6,79.9,88.0,92.8,15.9
732.0,109.4,77.8,84.1,90.4,16.7
735.0,109.3,77.4,82.7,89.8,17.1
738.0,105.5,73.1,80.8,86.5,16.9
741.0,104.1,69.6,78.1,83.9,18.0
744.0,101.8,65.9,75.1,80.9,18.7
747.0,99.3,63.4,72.4,78.4,18.7
750.0,96.2,60.6,71.3,76.0,18.3
753.0,93.0,59.0,66.3,72.8,17.9
756.0,91.2,57.0,63.9,70.7,18.1
759.0,89.6,56.6,62.0,69.4,17.7
762.0,88.6,55.9,59.4,68.0,17.9
765.0,84.4,54.7,58.9,66.0,16.1
768.0,82.2,55.0,55.4,64.2,15.6
771.0,80.4,54.6,53.2,62.7,15.4
774.0,77.4,53.9,51.3,60.8,14.4
777.0,77.3,53.7,50.0,60.3,14.8
780.0,75.3,53.2,49.1,59.2,14.1
783.0,74.5,53.1,47.9,58.5,14.1
786.0,73.8,53.1,47.2,58.0,14.0
789.0,73.3,,46.9,60.1,18.6
792.0,73.0,,45.8,59.4,19.2
795.0,71.3,,45.4,58.3,18.3
798.0,69.2,,,69.2,
801.0,66.5,,,66.5,
804.0,65.3,,,65.3,
807.0,64.7,,,64.7,
810.0,63.2,,,63.2,
813.0,60.6,,,60.6,
816.0,58.8,,,58.8,
819.0,56.1,,,56.1,
822.0,53.5,,,53.5,
825.0,52.1,,,52.1,
828.0,51.7,,,51.7,
831.0,52.3,,,52.3,
834.0,52.3,,,52.3,
837.0,51.9,,,51.9,
840.0,52.1,,,52.1,
840.25,51.7,,,51.7,