File: 01_Data/Pine_Siding/Cone/Pine_Siding_HRRPUA_25.csv
Time after Ignition,Pine_Siding_R1,Pine_Siding_R2,Pine_Siding_R3,Mean,Std. Dev.
0.0,5.8,-1.0,1.7,2.2,3.4
4.0,95.9,36.6,67.6,66.7,29.6
8.0,209.8,115.2,182.4,169.1,48.7
12.0,262.9,208.3,249.7,240.3,28.5
16.0,262.4,242.3,258.1,254.3,10.6
20.0,230.6,232.7,243.0,235.4,6.6
24.0,197.7,216.7,212.7,209.0,10.0
28.0,169.7,191.2,195.0,185.3,13.7
32.0,150.5,174.8,182.1,169.1,16.6
36.0,138.3,161.4,170.7,156.8,16.7
40.0,129.0,146.5,156.9,144.1,14.1
44.0,122.3,140.4,146.7,136.5,12.7
48.0,114.1,133.4,139.1,128.9,13.1
52.0,107.6,124.7,135.0,122.5,13.9
56.0,103.9,121.1,130.4,118.5,13.5
60.0,100.1,114.2,127.1,113.8,13.5
64.0,95.2,110.1,123.5,109.6,14.2
68.0,89.4,104.0,116.2,103.2,13.4
72.0,87.2,100.9,114.2,100.8,13.5
76.0,83.5,97.9,114.4,98.6,15.5
80.0,80.9,98.2,111.5,96.9,15.3
84.0,80.4,94.9,109.9,95.0,14.7
88.0,77.0,92.3,108.9,92.7,16.0
92.0,76.2,94.2,104.3,91.6,14.3
96.0,74.4,91.6,105.2,90.4,15.4
100.0,74.0,89.0,106.1,89.7,16.1
104.0,73.1,88.2,105.1,88.8,16.0
108.0,73.1,87.3,105.9,88.8,16.4
112.0,71.6,87.0,104.1,87.6,16.3
116.0,70.5,85.3,104.4,86.7,17.0
120.0,71.8,85.1,102.3,86.4,15.3
124.0,73.1,84.1,102.2,86.5,14.7
128.0,70.3,81.9,99.5,83.9,14.7
132.0,70.4,82.3,99.3,84.0,14.6
136.0,71.4,80.5,100.8,84.2,15.0
140.0,69.5,79.5,101.7,83.6,16.5
144.0,70.5,77.9,100.1,82.8,15.4
148.0,70.0,77.9,98.1,82.0,14.5
152.0,70.4,78.8,97.7,82.3,14.0
156.0,70.3,76.5,96.4,81.1,13.6
160.0,70.4,74.9,97.6,81.0,14.6
164.0,69.7,75.0,96.3,80.3,14.1
168.0,70.3,74.6,96.1,80.3,13.8
172.0,70.6,73.4,93.8,79.2,12.7
176.0,71.3,73.1,92.1,78.8,11.5
180.0,71.5,74.1,92.4,79.3,11.4
184.0,72.4,71.3,92.9,78.9,12.2
188.0,72.6,70.1,94.9,79.2,13.7
192.0,72.8,71.6,95.1,79.8,13.3
196.0,72.2,70.8,92.9,78.6,12.4
200.0,72.5,71.0,94.3,79.3,13.0
204.0,73.1,72.5,94.8,80.2,12.7
208.0,74.9,72.6,92.8,80.1,11.1
212.0,74.3,73.7,93.5,80.5,11.3
216.0,72.6,73.8,91.9,79.5,10.8
220.0,71.8,74.4,91.6,79.3,10.8
224.0,71.2,74.4,89.8,78.5,9.9
228.0,72.0,74.5,89.2,78.5,9.3
232.0,72.7,74.7,89.5,79.0,9.2
236.0,72.3,75.4,87.0,78.2,7.8
240.0,71.9,73.3,86.9,77.3,8.3
244.0,72.6,72.2,86.9,77.2,8.3
248.0,72.2,70.7,87.6,76.8,9.3
252.0,72.5,73.4,86.9,77.6,8.1
256.0,73.4,72.9,86.3,77.5,7.6
260.0,72.9,73.3,85.4,77.2,7.1
264.0,71.9,73.9,85.2,77.0,7.1
268.0,70.4,74.6,86.4,77.1,8.3
272.0,71.2,72.8,84.2,76.0,7.1
276.0,69.4,70.6,85.5,75.2,9.0
280.0,69.8,71.0,86.3,75.7,9.2
284.0,69.1,70.4,87.2,75.5,10.1
288.0,68.5,70.4,84.7,74.5,8.9
292.0,67.6,70.9,84.7,74.4,9.1
296.0,68.8,70.2,85.8,74.9,9.4
300.0,71.2,71.5,84.7,75.8,7.7
304.0,71.5,73.9,85.4,77.0,7.5
308.0,72.0,75.6,84.7,77.4,6.6
312.0,71.8,74.3,84.7,76.9,6.9
316.0,72.4,72.6,83.0,76.0,6.1
320.0,72.4,71.6,84.0,76.0,6.9
324.0,71.9,73.4,84.0,76.4,6.6
328.0,71.6,74.2,84.7,76.8,6.9
332.0,71.5,74.4,85.8,77.2,7.6
336.0,72.8,72.9,84.7,76.8,6.8
340.0,73.3,72.9,84.4,76.9,6.5
344.0,73.4,71.7,86.6,77.2,8.2
348.0,72.4,71.0,86.1,76.5,8.3
352.0,73.4,72.8,85.1,77.1,6.9
356.0,73.9,71.1,85.0,76.7,7.3
360.0,73.0,70.3,84.8,76.0,7.7
364.0,72.0,70.8,84.1,75.6,7.4
368.0,71.6,71.1,83.6,75.4,7.1
372.0,73.3,70.3,84.1,75.9,7.3
376.0,73.8,69.1,83.9,75.6,7.6
380.0,72.7,68.0,84.1,74.9,8.3
384.0,72.4,69.4,84.5,75.5,8.0
388.0,72.7,69.5,85.0,75.7,8.2
392.0,71.8,70.4,83.7,75.3,7.3
396.0,72.6,69.3,84.1,75.3,7.8
400.0,74.7,69.7,85.5,76.6,8.1
404.0,72.6,68.8,85.4,75.6,8.7
408.0,73.8,68.4,86.0,76.1,9.1
412.0,74.8,69.7,85.7,76.7,8.2
416.0,71.9,68.4,86.4,75.6,9.5
420.0,71.5,69.5,85.0,75.3,8.4
424.0,73.0,70.5,85.8,76.4,8.2
428.0,73.3,70.4,84.9,76.2,7.7
432.0,73.8,71.2,85.1,76.7,7.4
436.0,73.7,69.4,86.8,76.6,9.1
440.0,71.7,70.4,87.1,76.4,9.3
444.0,72.6,71.3,85.3,76.4,7.7
448.0,74.1,71.5,84.9,76.8,7.1
452.0,72.7,71.7,84.2,76.2,7.0
456.0,72.2,72.3,84.0,76.2,6.8
460.0,70.6,74.4,85.0,76.7,7.4
464.0,71.1,74.6,84.9,76.9,7.2
468.0,70.6,75.3,86.2,77.3,8.0
472.0,68.3,75.6,86.3,76.7,9.1
476.0,69.2,77.0,85.9,77.4,8.3
480.0,72.3,77.5,85.4,78.4,6.6
484.0,73.2,76.9,84.8,78.3,5.9
488.0,73.1,77.1,84.7,78.3,5.9
492.0,74.4,76.7,85.4,78.8,5.8
496.0,74.4,78.2,86.1,79.5,5.9
500.0,74.3,77.8,87.6,79.9,6.9
504.0,74.8,77.1,87.3,79.8,6.7
508.0,75.2,78.5,89.0,80.9,7.2
512.0,75.5,79.3,88.8,81.2,6.8
516.0,77.4,78.1,87.7,81.1,5.8
520.0,77.3,78.1,88.5,81.3,6.2
524.0,78.4,80.2,88.1,82.2,5.2
528.0,79.7,80.4,86.7,82.3,3.8
532.0,79.8,81.3,88.3,83.1,4.5
536.0,81.8,82.4,89.6,84.6,4.3
540.0,82.8,82.8,89.8,85.2,4.1
544.0,80.8,83.2,89.2,84.4,4.3
548.0,80.4,84.1,88.6,84.4,4.1
552.0,82.0,83.1,88.0,84.4,3.2
556.0,82.2,83.5,87.9,84.5,3.0
560.0,82.0,82.4,88.3,84.2,3.6
564.0,83.1,84.5,88.5,85.4,2.8
568.0,85.6,83.8,87.9,85.8,2.1
572.0,82.6,84.6,89.4,85.5,3.5
576.0,82.6,84.1,90.8,85.8,4.3
580.0,83.9,84.3,90.8,86.3,3.9
584.0,83.3,86.1,91.7,87.0,4.3
588.0,84.6,85.6,92.4,87.5,4.3
592.0,84.4,86.9,94.3,88.5,5.2
596.0,85.0,85.1,94.2,88.1,5.3
600.0,84.7,86.5,93.8,88.3,4.9
604.0,85.9,88.7,96.2,90.3,5.3
608.0,86.0,87.3,95.7,89.7,5.3
612.0,89.0,89.2,96.5,91.6,4.3
616.0,91.2,89.9,96.8,92.6,3.6
620.0,89.7,89.2,97.4,92.1,4.6
624.0,89.9,89.4,98.3,92.6,5.0
628.0,90.3,90.6,98.9,93.3,4.9
632.0,90.9,90.4,98.3,93.2,4.4
636.0,92.2,91.0,99.6,94.3,4.7
640.0,92.6,92.9,101.1,95.5,4.8
644.0,96.5,94.2,101.3,97.4,3.6
648.0,94.8,95.4,100.8,97.0,3.3
652.0,97.1,94.0,100.1,97.1,3.1
656.0,96.8,95.1,100.4,97.4,2.7
660.0,98.7,95.1,100.8,98.2,2.9
664.0,98.7,95.5,100.0,98.1,2.3
668.0,98.1,97.5,100.3,98.7,1.4
672.0,100.4,97.8,101.1,99.7,1.7
676.0,99.6,98.4,102.0,100.0,1.8
680.0,99.8,97.1,101.0,99.3,2.0
684.0,102.6,99.6,103.0,101.8,1.9
688.0,102.4,100.0,101.1,101.2,1.2
692.0,102.4,101.5,104.9,102.9,1.8
696.0,102.6,100.5,103.0,102.0,1.4
700.0,103.3,98.7,104.1,102.0,2.9
704.0,103.4,102.0,104.9,103.4,1.4
708.0,106.8,103.7,104.9,105.1,1.6
712.0,105.3,106.7,105.9,106.0,0.7
716.0,106.2,104.8,106.8,105.9,1.0
720.0,108.3,105.2,109.4,107.6,2.1
724.0,110.0,107.6,107.7,108.4,1.4
728.0,112.3,109.5,107.5,109.7,2.4
732.0,111.3,109.2,109.2,109.9,1.2
736.0,111.3,108.4,109.1,109.6,1.5
740.0,114.4,107.6,110.8,110.9,3.4
744.0,115.4,111.4,110.1,112.3,2.8
748.0,118.2,113.6,109.9,113.9,4.2
752.0,115.7,113.1,110.5,113.1,2.6
756.0,118.1,113.5,110.6,114.1,3.8
760.0,116.2,113.6,110.7,113.5,2.8
764.0,117.5,115.3,110.8,114.5,3.4
768.0,117.4,116.8,111.7,115.3,3.1
772.0,118.8,116.7,114.9,116.8,2.0
776.0,117.3,118.0,115.0,116.8,1.6
780.0,120.3,119.0,113.7,117.7,3.5
784.0,122.5,117.3,114.9,118.3,3.9
788.0,121.6,115.3,115.5,117.4,3.6
792.0,118.5,116.5,113.6,116.2,2.5
796.0,122.4,119.0,114.0,118.5,4.2
800.0,122.1,118.7,119.8,120.2,1.7
804.0,122.2,120.2,120.1,120.8,1.2
808.0,121.7,123.1,124.9,123.3,1.6
812.0,121.8,125.6,124.8,124.1,2.0
816.0,124.3,125.6,128.1,126.0,1.9
820.0,120.7,124.0,127.1,123.9,3.2
824.0,120.9,125.6,123.3,123.3,2.3
828.0,120.2,128.8,125.7,124.9,4.4
832.0,118.4,128.9,128.1,125.1,5.9
836.0,117.0,130.2,125.0,124.1,6.7
840.0,116.7,130.5,125.7,124.3,7.0
844.0,115.1,131.0,124.6,123.6,8.0
848.0,115.3,131.9,126.8,124.6,8.5
852.0,115.3,133.9,128.2,125.8,9.5
856.0,114.2,134.0,125.4,124.5,9.9
860.0,113.3,133.2,125.9,124.1,10.1
864.0,113.0,136.0,124.3,124.4,11.5
868.0,112.1,134.0,125.2,123.7,11.0
872.0,109.7,133.2,124.2,122.3,11.8
876.0,111.4,129.8,124.7,122.0,9.5
880.0,109.6,129.3,128.5,122.4,11.2
884.0,109.2,129.3,126.2,121.6,10.8
888.0,107.3,135.1,126.9,123.1,14.3
892.0,107.2,131.9,123.8,121.0,12.6
896.0,106.8,128.7,124.2,119.9,11.5
900.0,103.1,127.4,122.2,117.6,12.8
904.0,100.0,125.8,124.9,116.9,14.7
908.0,98.9,124.8,123.0,115.6,14.4
912.0,97.7,122.8,123.8,114.8,14.8
916.0,93.9,119.7,121.2,111.6,15.3
920.0,94.0,119.7,122.4,112.0,15.7
924.0,91.6,117.0,121.0,109.9,15.9
928.0,90.3,117.7,122.9,110.3,17.5
932.0,90.8,116.0,120.7,109.2,16.1
936.0,87.6,112.2,118.9,106.2,16.5
940.0,87.1,106.9,118.3,104.1,15.8
944.0,85.6,102.7,116.5,101.6,15.4
948.0,80.5,100.1,115.3,98.6,17.4
952.0,76.9,97.1,115.5,96.5,19.3
956.0,76.2,96.4,115.1,95.9,19.4
960.0,74.6,94.9,114.8,94.7,20.1
964.0,72.5,92.0,114.5,93.0,21.0
968.0,69.6,88.5,115.9,91.3,23.3
972.0,67.2,86.4,116.3,90.0,24.7
976.0,66.8,85.0,115.4,89.1,24.5
980.0,64.2,83.7,116.8,88.2,26.6
984.0,61.3,81.5,113.7,85.5,26.4
988.0,60.6,79.4,113.3,84.4,26.7
992.0,60.6,79.0,109.9,83.2,24.9
996.0,59.1,78.3,109.9,82.4,25.7
1000.0,55.5,77.1,110.6,81.0,27.7
1004.0,52.1,74.5,110.0,78.8,29.2
1008.0,51.1,76.7,110.1,79.3,29.6
1012.0,52.4,79.3,108.6,80.1,28.1
1016.0,55.1,81.4,109.0,81.8,27.0
1020.0,55.8,80.5,108.2,81.5,26.2
1024.0,57.5,81.0,107.5,82.0,25.0
1028.0,57.9,78.3,107.9,81.4,25.1
1032.0,57.7,74.8,106.5,79.7,24.7
1036.0,56.4,70.7,105.0,77.4,25.0
1040.0,56.7,68.8,105.5,77.0,25.4
1044.0,54.9,64.2,103.0,74.0,25.5
1048.0,57.1,60.9,101.2,73.1,24.5
1052.0,57.4,59.8,100.0,72.4,23.9
1056.0,56.4,59.3,98.7,71.5,23.6
1060.0,56.0,57.4,98.6,70.7,24.2
1064.0,57.9,52.4,96.3,68.9,23.9
1068.0,57.4,50.5,96.7,68.2,24.9
1072.0,57.5,49.5,97.1,68.0,25.5
1076.0,56.2,48.3,96.1,66.8,25.6
1080.0,55.8,45.0,96.4,65.7,27.1
1084.0,55.4,,93.5,74.5,27.0
1088.0,56.5,,93.5,75.0,26.1
1092.0,57.2,,93.5,75.3,25.7
1096.0,55.9,,94.5,75.2,27.3
1100.0,55.7,,92.9,74.3,26.4
1104.0,55.6,,90.2,72.9,24.5
1108.0,53.8,,89.3,71.5,25.1
1112.0,53.1,,89.6,71.4,25.8
1116.0,52.1,,90.4,71.2,27.1
1120.0,51.5,,90.3,70.9,27.4
1124.0,52.6,,87.0,69.8,24.4
1128.0,52.4,,87.6,70.0,24.8
1132.0,52.8,,89.8,71.3,26.2
1136.0,53.2,,88.2,70.7,24.8
1140.0,54.0,,87.5,70.7,23.7
1144.0,54.0,,87.3,70.7,23.5
1148.0,52.1,,87.1,69.6,24.7
1152.0,51.2,,86.3,68.7,24.8
1156.0,50.6,,86.2,68.4,25.2
1160.0,50.8,,86.0,68.4,24.9
1164.0,51.9,,86.0,68.9,24.1
1168.0,50.0,,86.5,68.3,25.8
1172.0,49.5,,85.4,67.5,25.4
1176.0,48.6,,86.6,67.6,26.9
1180.0,48.1,,86.7,67.4,27.3
1184.0,47.1,,87.7,67.4,28.7
1188.0,48.0,,84.8,66.4,26.1
1189.25,48.3,,84.8,66.5,25.8