File: 01_Data/Eucalyptus_Flooring/Cone/Eucalyptus_Flooring_HRRPUA_25.csv
Time after Ignition,Eucalyptus_Flooring_R1,Eucalyptus_Flooring_R2,Eucalyptus_Flooring_R3,Mean,Std. Dev.
0.0,63.2,7.9,5.3,25.5,32.7
6.25,200.3,100.4,86.9,129.2,61.9
12.5,327.1,196.6,252.1,258.6,65.5
18.75,402.6,292.9,343.9,346.5,54.9
25.0,343.2,334.0,347.6,341.6,6.9
31.25,292.5,336.0,314.2,314.2,21.8
37.5,235.7,285.1,268.2,263.0,25.1
43.75,191.6,229.5,230.8,217.3,22.3
50.0,165.9,187.5,194.7,182.7,15.0
56.25,145.2,157.8,166.2,156.4,10.6
62.5,128.6,137.2,144.9,136.9,8.2
68.75,114.6,128.5,126.8,123.3,7.6
75.0,105.0,117.6,113.8,112.1,6.5
81.25,96.2,108.0,102.8,102.3,5.9
87.5,92.7,98.5,96.0,95.7,2.9
93.75,87.8,90.2,85.9,88.0,2.2
100.0,83.8,85.5,82.5,84.0,1.5
106.25,81.8,77.4,78.7,79.3,2.3
112.5,76.6,74.9,74.5,75.3,1.1
118.75,74.8,70.4,72.7,72.6,2.2
125.0,74.6,67.7,70.6,70.9,3.5
131.25,69.4,65.7,67.3,67.5,1.9
137.5,67.8,63.8,65.4,65.6,2.0
143.75,65.2,62.5,65.9,64.5,1.8
150.0,63.3,60.0,64.8,62.7,2.5
156.25,63.7,58.1,64.3,62.0,3.4
162.5,63.0,56.7,63.2,61.0,3.7
168.75,64.0,57.2,62.8,61.3,3.7
175.0,63.6,57.1,61.0,60.5,3.3
181.25,63.5,56.2,59.3,59.7,3.7
187.5,63.2,56.1,60.1,59.8,3.6
193.75,61.8,55.4,62.9,60.0,4.0
200.0,62.4,56.1,66.2,61.6,5.1
206.25,62.7,55.1,67.7,61.9,6.3
212.5,61.1,55.1,68.5,61.6,6.7
218.75,63.7,55.3,66.5,61.8,5.8
225.0,63.6,54.9,64.5,61.0,5.3
231.25,63.6,55.5,63.8,61.0,4.7
237.5,63.9,57.0,63.9,61.6,4.0
243.75,64.4,57.0,63.3,61.6,4.0
250.0,63.1,58.2,64.7,62.0,3.4
256.25,62.0,58.4,63.3,61.2,2.6
262.5,60.6,58.7,63.8,61.0,2.6
268.75,60.3,58.5,65.3,61.4,3.6
275.0,60.2,60.3,65.5,62.0,3.1
281.25,61.5,60.6,65.7,62.6,2.7
287.5,60.0,60.7,64.9,61.9,2.6
293.75,58.4,61.0,65.2,61.5,3.5
300.0,59.9,61.3,63.6,61.6,1.9
306.25,59.9,62.8,63.7,62.1,2.0
312.5,61.1,63.5,63.4,62.7,1.4
318.75,60.7,65.5,62.3,62.8,2.5
325.0,60.4,65.4,61.7,62.5,2.6
331.25,60.6,64.3,62.3,62.4,1.8
337.5,60.1,65.5,61.8,62.5,2.8
343.75,61.1,67.0,62.0,63.4,3.2
350.0,58.8,65.5,61.1,61.8,3.4
356.25,57.8,66.1,60.7,61.5,4.2
362.5,59.0,65.9,60.6,61.8,3.6
368.75,59.3,65.5,58.8,61.2,3.7
375.0,59.4,65.8,59.1,61.4,3.8
381.25,59.6,65.7,57.3,60.9,4.3
387.5,59.9,66.3,55.8,60.7,5.3
393.75,59.6,67.6,54.2,60.4,6.7
400.0,58.8,66.2,55.7,60.3,5.3
406.25,61.0,66.1,56.2,61.1,5.0
412.5,60.9,65.4,56.2,60.8,4.6
418.75,59.3,66.5,56.0,60.6,5.4
425.0,61.0,64.4,56.4,60.6,4.0
431.25,61.6,65.0,54.6,60.4,5.3
437.5,62.1,64.5,54.8,60.5,5.1
443.75,61.6,65.0,53.7,60.1,5.8
450.0,62.4,63.1,52.6,59.4,5.9
456.25,61.2,62.9,52.5,58.8,5.6
462.5,61.4,61.7,51.9,58.3,5.6
468.75,63.0,61.9,52.4,59.1,5.8
475.0,60.7,61.6,54.3,58.9,4.0
481.25,59.6,66.7,53.4,59.9,6.6
487.5,57.8,68.0,54.9,60.2,6.9
493.75,57.8,66.3,52.9,59.0,6.8
500.0,58.7,67.1,53.7,59.8,6.8
506.25,60.1,65.1,55.2,60.1,5.0
512.5,59.8,63.6,54.7,59.4,4.5
518.75,58.8,64.9,54.6,59.4,5.2
525.0,58.6,64.3,55.2,59.4,4.6
531.25,57.1,63.6,54.2,58.3,4.8
537.5,57.6,63.5,57.0,59.4,3.6
543.75,55.6,63.4,56.8,58.6,4.2
550.0,55.7,62.6,58.1,58.8,3.5
556.25,55.4,62.8,59.3,59.2,3.7
562.5,55.7,62.0,56.5,58.1,3.4
568.75,55.6,60.7,56.4,57.6,2.7
575.0,54.0,60.7,57.4,57.4,3.3
581.25,55.8,61.3,55.8,57.6,3.2
587.5,55.2,62.1,56.1,57.8,3.7
593.75,55.0,62.8,57.8,58.5,3.9
600.0,55.5,61.9,58.1,58.5,3.2
606.25,55.7,61.5,57.7,58.3,2.9
612.5,56.5,61.6,57.9,58.7,2.6
618.75,57.0,64.0,56.0,59.0,4.4
625.0,57.6,62.9,56.8,59.1,3.3
631.25,57.8,61.9,56.4,58.7,2.9
637.5,59.2,61.5,55.7,58.8,2.9
643.75,58.0,61.7,56.9,58.9,2.5
650.0,59.6,61.5,57.6,59.6,1.9
656.25,59.6,61.2,60.2,60.3,0.8
662.5,58.4,61.4,57.8,59.2,1.9
668.75,58.5,62.0,59.3,59.9,1.9
675.0,60.4,59.8,59.6,59.9,0.4
681.25,58.9,60.1,59.4,59.5,0.6
687.5,59.2,58.9,58.7,58.9,0.3
693.75,60.0,59.7,59.7,59.8,0.1
700.0,59.3,59.5,59.3,59.3,0.1
706.25,57.6,58.6,58.7,58.3,0.6
712.5,59.1,59.3,58.8,59.0,0.2
718.75,60.2,58.2,58.9,59.1,1.0
725.0,58.7,58.4,61.5,59.5,1.7
731.25,60.3,58.7,63.3,60.8,2.4
737.5,63.0,59.0,63.2,61.7,2.4
743.75,63.3,57.9,63.6,61.6,3.2
750.0,62.4,57.7,65.2,61.8,3.8
756.25,64.4,58.7,64.2,62.4,3.2
762.5,65.8,58.2,64.6,62.9,4.1
768.75,66.8,58.0,65.1,63.3,4.6
775.0,67.4,58.2,64.9,63.5,4.8
781.25,69.5,58.2,64.9,64.2,5.7
787.5,67.3,58.0,66.1,63.8,5.1
793.75,66.8,57.9,65.7,63.5,4.8
800.0,70.2,57.7,64.9,64.3,6.3
806.25,68.5,58.2,66.4,64.4,5.5
812.5,70.0,58.3,67.2,65.2,6.1
818.75,70.2,59.0,68.0,65.7,5.9
825.0,70.3,59.9,67.0,65.7,5.3
831.25,70.2,60.7,68.7,66.5,5.1
837.5,68.5,61.5,68.7,66.2,4.1
843.75,70.2,63.0,70.7,68.0,4.3
850.0,71.0,63.3,70.5,68.2,4.3
856.25,70.0,64.0,72.7,68.9,4.4
862.5,70.6,63.8,70.9,68.4,4.0
868.75,71.2,63.2,73.8,69.4,5.5
875.0,70.9,63.2,72.0,68.7,4.8
881.25,71.1,65.8,74.2,70.4,4.3
887.5,71.5,66.9,72.6,70.3,3.0
893.75,73.1,67.3,74.6,71.6,3.9
900.0,73.4,71.3,73.4,72.7,1.2
906.25,72.4,72.9,74.6,73.3,1.1
912.5,73.7,70.4,75.6,73.2,2.6
918.75,76.1,70.7,74.4,73.7,2.7
925.0,76.4,74.2,76.8,75.8,1.4
931.25,77.9,74.9,75.2,76.0,1.6
937.5,76.4,76.2,76.7,76.4,0.3
943.75,80.5,75.7,79.2,78.5,2.5
950.0,79.5,76.9,78.8,78.4,1.3
956.25,80.7,77.7,79.3,79.2,1.5
962.5,80.5,77.4,81.2,79.7,2.0
968.75,81.9,78.7,81.1,80.6,1.6
975.0,83.6,79.1,81.0,81.2,2.3
981.25,82.4,79.8,82.8,81.7,1.6
987.5,84.3,81.1,84.2,83.2,1.8
993.75,86.6,82.6,82.2,83.8,2.5
1000.0,87.3,80.9,84.1,84.1,3.2
1006.25,88.5,81.3,85.1,85.0,3.6
1012.5,92.7,82.4,86.4,87.1,5.2
1018.75,92.3,85.0,86.8,88.1,3.8
1025.0,93.4,85.6,88.4,89.1,4.0
1031.25,96.7,86.7,89.1,90.8,5.2
1037.5,98.4,88.5,88.6,91.8,5.7
1043.75,100.0,88.0,90.1,92.7,6.4
1050.0,103.0,89.1,90.7,94.3,7.6
1056.25,105.6,89.1,93.6,96.1,8.5
1062.5,106.1,91.8,95.3,97.7,7.4
1068.75,109.3,92.3,97.4,99.7,8.7
1075.0,111.5,93.4,98.4,101.1,9.3
1081.25,115.7,95.1,101.5,104.1,10.5
1087.5,117.0,95.4,104.4,105.6,10.9
1093.75,121.6,96.5,107.2,108.4,12.6
1100.0,119.5,96.7,109.5,108.6,11.4
1106.25,121.9,98.2,111.8,110.6,11.9
1112.5,123.6,98.7,112.7,111.6,12.5
1118.75,123.6,101.1,114.9,113.2,11.3
1125.0,126.5,103.5,117.8,115.9,11.6
1131.25,130.0,104.2,118.8,117.7,12.9
1137.5,131.2,106.4,121.7,119.8,12.5
1143.75,137.0,107.5,124.0,122.9,14.8
1150.0,136.6,110.7,126.9,124.8,13.1
1156.25,145.0,110.0,130.6,128.5,17.6
1162.5,144.4,111.1,133.5,129.7,17.0
1168.75,151.4,112.8,137.5,133.9,19.5
1175.0,156.0,116.9,138.2,137.0,19.6
1181.25,165.4,117.4,144.8,142.5,24.0
1187.5,166.7,121.1,146.8,144.9,22.9
1193.75,175.4,123.9,153.4,150.9,25.8
1200.0,179.2,128.5,159.4,155.7,25.6
1206.25,184.7,133.6,164.2,160.8,25.7
1212.5,189.0,139.1,176.5,168.2,26.0
1218.75,200.2,140.9,182.1,174.4,30.4
1225.0,197.5,142.7,188.0,176.1,29.3
1231.25,204.5,144.4,197.5,182.1,32.9
1237.5,202.0,148.6,205.5,185.4,31.9
1243.75,205.4,148.7,208.5,187.5,33.7
1250.0,205.2,152.9,220.1,192.7,35.3
1256.25,215.2,152.9,229.0,199.1,40.6
1262.5,212.8,157.7,230.5,200.3,38.0
1268.75,216.3,161.9,234.7,204.3,37.9
1275.0,209.7,164.9,236.6,203.7,36.2
1281.25,207.1,173.9,229.7,203.6,28.1
1287.5,205.4,182.4,229.5,205.8,23.5
1293.75,195.5,194.7,226.4,205.6,18.1
1300.0,188.9,200.8,225.5,205.1,18.7
1306.25,185.3,211.4,231.7,209.4,23.3
1312.5,172.6,214.4,222.9,203.3,26.9
1318.75,167.4,220.1,207.4,198.3,27.5
1325.0,163.5,214.1,194.4,190.7,25.5
1331.25,154.4,208.4,177.9,180.2,27.1
1337.5,148.9,209.8,165.7,174.8,31.5
1343.75,144.6,203.3,153.7,167.2,31.6
1350.0,143.7,197.0,146.1,162.3,30.1
1356.25,136.4,194.9,137.0,156.1,33.6
1362.5,132.1,194.3,129.7,152.0,36.6
1368.75,127.5,187.1,128.5,147.7,34.1
1375.0,121.9,183.8,124.3,143.4,35.1
1381.25,118.2,175.0,117.8,137.0,32.9
1387.5,111.6,164.4,114.5,130.2,29.7
1393.75,108.4,156.3,110.0,124.9,27.2
1400.0,102.4,148.5,103.7,118.2,26.2
1406.25,99.0,140.8,99.9,113.2,23.8
1412.5,99.2,134.5,96.9,110.2,21.1
1418.75,93.1,128.7,88.5,103.5,22.0
1425.0,88.7,120.4,88.4,99.2,18.4
1431.25,83.1,116.2,83.8,94.3,18.9
1437.5,79.0,111.7,77.2,89.3,19.4
1443.75,74.6,105.3,70.7,83.6,19.0
1450.0,66.3,100.8,67.4,78.1,19.6
1456.25,59.9,98.9,60.9,73.2,22.2
1462.5,54.6,92.6,58.6,68.6,20.9
1468.75,52.6,86.4,54.4,64.5,19.0
1475.0,49.3,81.5,50.3,60.4,18.3
1481.25,47.1,76.8,47.5,57.1,17.0
1487.5,45.4,74.1,46.6,55.4,16.2
1493.75,43.0,68.4,43.8,51.7,14.4
1500.0,41.3,63.3,42.3,49.0,12.4
1506.25,41.1,60.6,42.1,48.0,11.0
1512.5,40.1,56.9,42.0,46.3,9.2
1518.75,39.9,54.8,41.0,45.2,8.3
1525.0,38.5,51.8,39.7,43.3,7.4
1531.25,37.8,50.9,37.6,42.1,7.6
1537.5,36.9,49.4,36.1,40.8,7.5
1543.75,36.5,46.3,36.2,39.6,5.8
1550.0,36.4,45.1,35.2,38.9,5.4
1556.25,36.8,42.2,34.7,37.9,3.9
1562.5,35.4,40.3,34.2,36.7,3.2
1568.75,34.4,38.1,34.4,35.7,2.1
1575.0,34.9,39.0,34.2,36.0,2.6
1581.25,33.3,37.3,34.0,34.9,2.1
1587.5,33.4,36.5,33.6,34.5,1.7
1593.75,33.4,35.6,33.6,34.2,1.2
1600.0,33.9,36.1,32.4,34.1,1.8
1606.25,32.0,34.8,32.2,33.0,1.6
1612.5,31.1,33.9,32.4,32.4,1.4
1618.75,32.5,34.3,32.7,33.1,1.0
1625.0,31.2,32.8,32.1,32.0,0.8
1631.25,32.4,32.3,31.2,32.0,0.7
1637.5,32.1,33.0,31.7,32.3,0.7
1643.75,32.8,32.2,32.3,32.4,0.3
1650.0,31.6,31.5,30.7,31.2,0.5
1656.25,31.6,,31.2,31.4,0.3
1662.5,31.3,,32.0,31.7,0.5
1668.75,29.6,,31.6,30.6,1.4
1675.0,30.6,,30.9,30.7,0.2
1681.25,31.2,,29.9,30.5,0.9
1687.5,30.4,,29.5,30.0,0.7
1693.75,30.1,,31.5,30.8,1.0
1700.0,29.6,,,29.6,
1706.25,29.9,,,29.9,
1712.5,30.2,,,30.2,
1718.75,30.0,,,30.0,
1725.0,30.8,,,30.8,
1731.25,29.4,,,29.4,
1737.5,29.5,,,29.5,
1743.75,30.9,,,30.9,
1750.0,31.3,,,31.3,
1756.25,31.2,,,31.2,
1762.5,32.5,,,32.5,
1768.75,31.3,,,31.3,
1775.0,30.2,,,30.2,
1781.25,30.8,,,30.8,
1787.5,30.9,,,30.9,
1793.75,29.0,,,29.0,
1800.0,30.5,,,30.5,
1806.25,32.0,,,32.0,
1812.5,32.6,,,32.6,
1818.75,32.7,,,32.7,
1825.0,32.5,,,32.5,
1831.25,32.9,,,32.9,
1837.5,31.2,,,31.2,
1843.75,30.2,,,30.2,
1850.0,30.0,,,30.0,
1856.25,30.2,,,30.2,
1862.5,28.0,,,28.0,
1863.25,27.8,,,27.8,