File: 01_Data/Eucalyptus_Flooring/Cone/Eucalyptus_Flooring_HRRPUA_50.csv
Time after Ignition,Eucalyptus_Flooring_R1,Eucalyptus_Flooring_R2,Eucalyptus_Flooring_R3,Mean,Std. Dev.
0.0,14.1,7.9,4.7,8.9,4.8
8.25,292.0,226.9,242.6,253.8,34.0
16.5,414.7,460.2,454.3,443.1,24.8
24.75,365.0,368.5,407.9,380.5,23.8
33.0,297.7,265.1,309.8,290.9,23.1
41.25,227.4,207.4,257.4,230.7,25.2
49.5,193.9,173.8,214.0,193.9,20.1
57.75,181.0,164.8,188.1,178.0,11.9
66.0,174.4,157.3,169.5,167.1,8.8
74.25,167.1,148.9,161.3,159.1,9.3
82.5,162.4,142.3,152.0,152.2,10.1
90.75,158.7,133.8,143.0,145.1,12.6
99.0,159.6,126.7,142.9,143.1,16.5
107.25,156.9,125.3,139.0,140.4,15.9
115.5,153.6,117.6,137.8,136.3,18.1
123.75,151.2,114.1,131.6,132.3,18.5
132.0,141.0,113.5,129.0,127.9,13.8
140.25,138.3,113.1,128.1,126.5,12.7
148.5,132.7,113.1,122.2,122.7,9.8
156.75,127.6,113.7,120.8,120.7,7.0
165.0,123.4,109.6,120.1,117.7,7.2
173.25,118.0,112.7,116.2,115.6,2.7
181.5,113.9,109.1,116.3,113.1,3.6
189.75,109.9,108.9,118.1,112.3,5.1
198.0,106.1,105.9,117.7,109.9,6.8
206.25,104.9,105.0,114.1,108.0,5.3
214.5,104.1,105.6,114.3,108.0,5.5
222.75,103.9,103.7,113.8,107.1,5.8
231.0,103.9,106.0,112.7,107.6,4.6
239.25,101.3,103.7,110.5,105.2,4.8
247.5,104.1,102.3,112.2,106.2,5.3
255.75,104.5,103.0,110.2,105.9,3.8
264.0,99.5,102.9,107.2,103.2,3.9
272.25,100.8,102.5,105.9,103.1,2.6
280.5,100.4,100.8,106.2,102.5,3.3
288.75,103.7,101.0,105.8,103.5,2.4
297.0,102.4,101.1,103.5,102.3,1.2
305.25,100.9,100.5,105.9,102.4,3.0
313.5,100.0,97.2,106.3,101.2,4.7
321.75,99.7,97.3,107.0,101.3,5.1
330.0,101.9,97.6,106.4,102.0,4.4
338.25,100.9,95.5,104.9,100.4,4.7
346.5,101.9,94.2,105.1,100.4,5.6
354.75,102.0,95.3,104.6,100.6,4.8
363.0,102.6,93.4,103.1,99.7,5.5
371.25,104.1,90.8,101.6,98.9,7.1
379.5,102.5,91.5,101.1,98.4,6.0
387.75,101.4,91.8,98.9,97.3,5.0
396.0,104.4,92.8,99.5,98.9,5.8
404.25,102.6,93.5,98.3,98.1,4.5
412.5,102.7,92.7,98.5,98.0,5.0
420.75,100.2,94.1,95.6,96.7,3.2
429.0,98.9,94.1,98.4,97.1,2.7
437.25,96.5,94.5,97.6,96.2,1.6
445.5,94.0,95.9,96.8,95.6,1.4
453.75,96.8,97.2,99.3,97.8,1.3
462.0,93.5,100.9,98.6,97.7,3.8
470.25,93.2,101.9,99.2,98.1,4.5
478.5,93.1,100.7,99.8,97.9,4.1
486.75,93.1,102.0,97.1,97.4,4.5
495.0,93.1,100.6,101.4,98.4,4.5
503.25,93.3,100.6,99.6,97.8,4.0
511.5,93.2,103.2,99.1,98.5,5.0
519.75,92.3,102.0,100.2,98.2,5.2
528.0,93.9,103.8,100.4,99.3,5.0
536.25,95.1,102.4,102.1,99.9,4.2
544.5,93.5,100.1,103.7,99.1,5.2
552.75,93.9,102.6,102.8,99.7,5.1
561.0,94.8,105.0,104.0,101.3,5.6
569.25,95.2,105.6,105.3,102.0,5.9
577.5,96.9,107.9,105.5,103.4,5.8
585.75,97.5,111.0,105.4,104.6,6.8
594.0,100.0,110.4,106.2,105.6,5.2
602.25,97.7,111.5,107.1,105.5,7.1
610.5,99.2,115.4,108.5,107.7,8.1
618.75,99.9,117.8,108.3,108.7,9.0
627.0,100.1,120.8,108.9,110.0,10.4
635.25,100.5,119.9,111.0,110.5,9.7
643.5,103.8,124.1,112.9,113.6,10.2
651.75,105.3,125.9,116.0,115.7,10.3
660.0,109.0,131.6,116.5,119.0,11.5
668.25,112.6,133.9,122.3,122.9,10.7
676.5,111.9,140.4,125.0,125.8,14.3
684.75,116.0,140.0,127.5,127.8,12.0
693.0,120.8,149.4,129.4,133.2,14.7
701.25,123.0,147.7,134.3,135.0,12.4
709.5,126.6,153.5,133.3,137.8,14.0
717.75,130.8,156.7,136.8,141.4,13.6
726.0,130.5,160.2,139.3,143.3,15.2
734.25,135.4,162.5,144.9,147.6,13.7
742.5,138.1,166.7,151.1,152.0,14.3
750.75,145.3,165.5,153.4,154.7,10.2
759.0,148.9,167.9,158.1,158.3,9.5
767.25,152.4,170.9,165.0,162.8,9.4
775.5,159.4,174.1,168.3,167.3,7.4
783.75,166.4,177.4,171.5,171.8,5.5
792.0,173.0,183.6,177.9,178.2,5.3
800.25,178.1,182.9,182.6,181.2,2.7
808.5,185.0,188.6,187.2,186.9,1.8
816.75,195.0,187.4,195.9,192.8,4.7
825.0,203.8,188.5,194.8,195.7,7.7
833.25,210.4,185.5,200.5,198.8,12.5
841.5,218.9,185.4,211.2,205.2,17.5
849.75,229.7,187.1,211.3,209.4,21.4
858.0,234.5,182.3,221.2,212.6,27.1
866.25,243.3,185.3,220.6,216.4,29.2
874.5,254.5,184.7,225.8,221.6,35.1
882.75,263.7,183.6,231.7,226.4,40.3
891.0,268.1,185.9,232.3,228.8,41.2
899.25,266.6,188.8,235.1,230.2,39.1
907.5,266.1,184.8,244.3,231.7,42.1
915.75,265.7,174.8,248.4,229.7,48.3
924.0,262.5,159.8,257.1,226.5,57.8
932.25,267.4,131.1,260.3,219.6,76.7
940.5,261.0,104.0,262.0,209.0,91.0
948.75,253.3,85.6,258.5,199.1,98.4
957.0,245.0,80.0,261.7,195.6,100.5
965.25,237.2,73.8,252.2,187.7,99.0
973.5,223.1,67.1,254.5,181.6,100.3
981.75,219.6,67.6,241.9,176.4,94.9
990.0,210.7,63.1,225.2,166.3,89.7
998.25,192.1,60.5,204.8,152.5,79.9
1006.5,166.7,59.9,178.5,135.0,65.3
1014.75,129.0,56.4,147.5,111.0,48.2
1023.0,103.9,56.6,121.6,94.1,33.6
1031.25,88.2,54.0,100.6,81.0,24.1
1039.5,76.5,53.8,84.8,71.7,16.0
1047.75,72.2,51.4,74.3,66.0,12.7
1056.0,64.4,50.9,69.7,61.7,9.7
1064.25,59.7,49.8,65.6,58.4,8.0
1072.5,58.2,49.4,61.5,56.4,6.3
1080.75,54.5,49.6,58.2,54.1,4.3
1089.0,54.1,48.0,56.4,52.8,4.3
1097.25,52.9,49.8,54.7,52.5,2.5
1105.5,51.0,48.2,53.8,51.0,2.8
1113.75,50.0,47.6,52.2,50.0,2.3
1122.0,49.7,46.4,51.2,49.1,2.5
1130.25,48.9,45.2,49.4,47.8,2.3
1138.5,48.3,45.6,48.0,47.3,1.4
1146.75,47.3,44.2,47.9,46.4,2.0
1155.0,46.7,43.7,46.3,45.6,1.6
1163.25,46.1,44.0,47.0,45.7,1.5
1171.5,45.1,43.1,46.2,44.8,1.5
1179.75,46.0,43.4,46.3,45.3,1.6
1188.0,44.6,42.7,46.5,44.6,1.9
1196.25,43.7,42.2,44.3,43.4,1.0
1204.5,43.4,41.7,43.8,43.0,1.1
1212.75,42.6,42.7,43.9,43.1,0.7
1221.0,43.2,42.2,43.3,42.9,0.6
1229.25,42.6,41.8,43.0,42.5,0.6
1237.5,42.8,41.4,42.3,42.2,0.7
1245.75,42.1,41.3,41.7,41.7,0.4
1254.0,42.3,40.2,40.4,41.0,1.2
1262.25,41.0,40.9,41.4,41.1,0.3
1270.5,41.8,40.9,41.0,41.2,0.5
1278.75,41.2,39.1,40.4,40.2,1.0
1287.0,40.5,38.4,40.8,39.9,1.3
1295.25,40.2,39.4,39.0,39.6,0.6
1303.5,38.8,37.8,39.4,38.7,0.8
1311.75,38.7,38.6,39.9,39.1,0.7
1320.0,37.4,38.5,39.5,38.5,1.0
1328.25,38.3,37.0,39.0,38.1,1.0
1336.5,39.1,37.9,38.8,38.6,0.6
1344.75,37.9,37.1,39.1,38.0,1.0
1353.0,37.0,38.2,38.5,37.9,0.8
1361.25,37.4,38.7,38.6,38.2,0.7
1369.5,36.1,38.0,36.8,37.0,1.0
1377.75,36.0,37.1,37.0,36.7,0.6
1386.0,36.7,36.1,38.1,36.9,1.0
1394.25,36.3,36.7,38.3,37.1,1.0
1402.5,36.9,36.1,38.8,37.3,1.4
1410.75,36.4,35.9,37.5,36.6,0.8
1419.0,35.1,36.6,37.3,36.3,1.1
1427.25,33.7,37.8,36.8,36.1,2.1
1435.5,34.9,37.5,37.2,36.5,1.4
1443.75,34.5,33.9,37.9,35.4,2.1
1452.0,34.9,34.8,37.8,35.8,1.7
1460.25,34.5,34.1,38.0,35.5,2.2
1468.5,35.0,34.3,36.3,35.2,1.0
1476.75,34.5,,36.7,35.6,1.5
1485.0,33.2,,35.9,34.6,1.9
1493.25,33.1,,36.8,35.0,2.6
1501.5,32.0,,37.9,34.9,4.2
1509.75,32.1,,36.0,34.0,2.8
1518.0,32.1,,36.0,34.1,2.8
1526.25,32.6,,36.1,34.3,2.5
1534.5,31.4,,35.9,33.6,3.2
1542.75,31.6,,36.0,33.8,3.1
1551.0,31.0,,35.9,33.5,3.5
1559.25,33.3,,36.7,35.0,2.4
1567.5,31.9,,35.9,33.9,2.8
1575.75,31.9,,36.2,34.0,3.0
1584.0,31.4,,34.9,33.1,2.4
1592.25,31.6,,35.0,33.3,2.4
1600.5,31.1,,34.9,33.0,2.7
1608.75,32.6,,36.5,34.5,2.8
1617.0,31.6,,36.0,33.8,3.1
1625.25,31.3,,35.4,33.4,2.9
1633.5,30.4,,34.1,32.2,2.7
1641.75,30.2,,35.0,32.6,3.4
1650.0,30.6,,34.7,32.6,2.9
1658.25,29.6,,33.5,31.6,2.7
1666.5,30.0,,33.9,32.0,2.7
1674.75,31.5,,34.9,33.2,2.4
1683.0,30.8,,34.6,32.7,2.7
1691.25,29.9,,33.1,31.5,2.2
1699.5,29.7,,34.3,32.0,3.2
1707.75,30.6,,34.7,32.7,2.9
1716.0,29.3,,,29.3,
1724.25,29.3,,,29.3,
1732.5,29.6,,,29.6,
1740.75,29.3,,,29.3,
1749.0,28.5,,,28.5,
1757.25,29.1,,,29.1,
1765.5,28.1,,,28.1,
1773.75,27.8,,,27.8,
1782.0,28.6,,,28.6,
1790.25,29.0,,,29.0,
1798.5,28.2,,,28.2,
1806.75,28.5,,,28.5,
1815.0,28.3,,,28.3,
1823.25,29.5,,,29.5,
1831.5,27.3,,,27.3,
1839.75,27.1,,,27.1,
1848.0,26.0,,,26.0,
1856.25,27.1,,,27.1,
1864.5,27.4,,,27.4,
1872.75,27.1,,,27.1,
1881.0,25.9,,,25.9,
1889.25,26.2,,,26.2,
1897.5,27.3,,,27.3,
1905.75,27.0,,,27.0,
1914.0,27.4,,,27.4,
1922.25,26.5,,,26.5,
1930.5,26.1,,,26.1,
1938.75,26.6,,,26.6,
1947.0,25.1,,,25.1,
1955.25,24.9,,,24.9,
1963.5,25.7,,,25.7,
1971.75,26.1,,,26.1,
1980.0,25.8,,,25.8,
1988.25,25.8,,,25.8,
1996.5,24.2,,,24.2,
2004.75,25.7,,,25.7,
2013.0,25.2,,,25.2,
2021.25,26.9,,,26.9,
2029.5,27.0,,,27.0,
2037.75,26.0,,,26.0,
2046.0,26.1,,,26.1,
2054.25,25.7,,,25.7,
2062.5,25.4,,,25.4,
2070.75,25.4,,,25.4,
2079.0,25.9,,,25.9,
2087.25,26.5,,,26.5,
2095.5,25.5,,,25.5,
2103.75,25.3,,,25.3,
2112.0,25.7,,,25.7,
2120.25,25.6,,,25.6,
2128.5,23.8,,,23.8,
2136.75,25.1,,,25.1,
2145.0,23.6,,,23.6,
2153.25,24.7,,,24.7,
2161.5,24.1,,,24.1,
2169.75,24.3,,,24.3,
2178.0,25.1,,,25.1,
2186.25,24.4,,,24.4,
2194.5,23.7,,,23.7,
2202.75,23.8,,,23.8,
2211.0,23.9,,,23.9,
2219.25,24.2,,,24.2,
2227.5,23.6,,,23.6,
2235.75,23.1,,,23.1,
2244.0,23.0,,,23.0,
2252.25,22.8,,,22.8,
2260.5,21.8,,,21.8,
2268.75,23.7,,,23.7,
2277.0,23.2,,,23.2,
2285.25,23.5,,,23.5,
2293.5,23.5,,,23.5,
2301.75,24.1,,,24.1,
2310.0,23.5,,,23.5,
2318.25,22.6,,,22.6,
2326.5,23.0,,,23.0,
2334.75,23.0,,,23.0,
2343.0,22.6,,,22.6,
2351.25,22.9,,,22.9,
2359.5,23.3,,,23.3,
2367.75,22.7,,,22.7,
2376.0,22.9,,,22.9,
2384.25,22.7,,,22.7,
2392.5,21.9,,,21.9,
2400.75,22.4,,,22.4,
2409.0,22.1,,,22.1,
2417.25,22.7,,,22.7,
2425.5,22.8,,,22.8,
2433.75,22.6,,,22.6,
2442.0,22.6,,,22.6,
2450.25,21.8,,,21.8,
2455.25,21.6,,,21.6,