File: 01_Data/Homasote/FTIR/IS/Homasote_IS_S_221031_R6.dpt
7497.03,0.59313
7473.89,0.59483
7450.74,0.57803
7427.6,0.58514
7404.45,0.58154
7381.31,0.58294
7358.16,0.58502
7335.02,0.58031
7311.87,0.58453
7288.73,0.59198
7265.58,0.58295
7242.44,0.58876
7219.29,0.57558
7196.15,0.57745
7173,0.57195
7149.86,0.57720
7126.71,0.57101
7103.57,0.56705
7080.42,0.56768
7057.28,0.56054
7034.13,0.56357
7010.99,0.55834
6987.84,0.55748
6964.7,0.55495
6941.55,0.55899
6918.41,0.54806
6895.26,0.54974
6872.12,0.54019
6848.97,0.54688
6825.83,0.54196
6802.68,0.54849
6779.54,0.54590
6756.39,0.54472
6733.25,0.54343
6710.1,0.53927
6686.96,0.54568
6663.82,0.54628
6640.67,0.54649
6617.53,0.54915
6594.38,0.55125
6571.24,0.54937
6548.09,0.55101
6524.95,0.55451
6501.8,0.54967
6478.66,0.55071
6455.51,0.54896
6432.37,0.55526
6409.22,0.55496
6386.08,0.55354
6362.93,0.55417
6339.79,0.55741
6316.64,0.55789
6293.5,0.55396
6270.35,0.55997
6247.21,0.56341
6224.06,0.56035
6200.92,0.56311
6177.77,0.56433
6154.63,0.56789
6131.48,0.57018
6108.34,0.56944
6085.19,0.57238
6062.05,0.57188
6038.9,0.57620
6015.76,0.57209
5992.61,0.57187
5969.47,0.57356
5946.32,0.57244
5923.18,0.57042
5900.03,0.56783
5876.89,0.56975
5853.74,0.57081
5830.6,0.56838
5807.45,0.56430
5784.31,0.56720
5761.16,0.56762
5738.02,0.56521
5714.87,0.56697
5691.73,0.56753
5668.58,0.56795
5645.44,0.56570
5622.29,0.56699
5599.15,0.56779
5576,0.56519
5552.86,0.56978
5529.71,0.56912
5506.57,0.56766
5483.42,0.56852
5460.28,0.57126
5437.13,0.57180
5413.99,0.57178
5390.84,0.57378
5367.7,0.57425
5344.55,0.57347
5321.41,0.57041
5298.26,0.56486
5275.12,0.55229
5251.97,0.53288
5228.83,0.51296
5205.68,0.50158
5182.54,0.50409
5159.39,0.50834
5136.25,0.51454
5113.1,0.52029
5089.96,0.52765
5066.81,0.53246
5043.67,0.53667
5020.52,0.53963
4997.38,0.54264
4974.23,0.54291
4951.09,0.53944
4927.94,0.53172
4904.8,0.52329
4881.65,0.51109
4858.51,0.49880
4835.36,0.48722
4812.22,0.47731
4789.07,0.47078
4765.93,0.46788
4742.78,0.46466
4719.64,0.46745
4696.49,0.47188
4673.35,0.47839
4650.2,0.48246
4627.06,0.48684
4603.92,0.49364
4580.77,0.49993
4557.63,0.50347
4534.48,0.50526
4511.34,0.51038
4488.19,0.50961
4465.05,0.50198
4441.9,0.48771
4418.76,0.46857
4395.61,0.45515
4372.47,0.45905
4349.32,0.45749
4326.18,0.44527
4303.03,0.44186
4279.89,0.43602
4256.74,0.43596
4233.6,0.44005
4210.45,0.44135
4187.31,0.44342
4164.16,0.44469
4141.02,0.43912
4117.87,0.42826
4094.73,0.40905
4071.58,0.38892
4048.44,0.36878
4025.29,0.35409
4002.15,0.35554
3979,0.36261
3955.86,0.37066
3932.71,0.38067
3909.57,0.39047
3886.42,0.39898
3863.28,0.40706
3840.13,0.41504
3816.99,0.41556
3793.84,0.41267
3770.7,0.40668
3747.55,0.39308
3724.41,0.36052
3701.26,0.23370
3678.12,0.23028
3654.97,0.16347
3631.83,0.12213
3608.68,0.09282
3585.54,0.07954
3562.39,0.06420
3539.25,0.05730
3516.1,0.05165
3492.96,0.04665
3469.81,0.04429
3446.67,0.04301
3423.52,0.04154
3400.38,0.04150
3377.23,0.04186
3354.09,0.04234
3330.94,0.04502
3307.8,0.04717
3284.65,0.04961
3261.51,0.05271
3238.36,0.05773
3215.22,0.06191
3192.07,0.06701
3168.93,0.07259
3145.78,0.07915
3122.64,0.08533
3099.49,0.09296
3076.35,0.09971
3053.2,0.10757
3030.06,0.11364
3006.91,0.11553
2983.77,0.10665
2960.62,0.08611
2937.48,0.07367
2914.33,0.06695
2891.19,0.07410
2868.04,0.08145
2844.9,0.09134
2821.75,0.11816
2798.61,0.13423
2775.46,0.14123
2752.32,0.14476
2729.17,0.14817
2706.03,0.15581
2682.88,0.16510
2659.74,0.17238
2636.59,0.17945
2613.45,0.18658
2590.3,0.19238
2567.16,0.19536
2544.02,0.19566
2520.87,0.19476
2497.73,0.20742
2474.58,0.22337
2451.44,0.23506
2428.29,0.24691
2405.15,0.25841
2382,0.26743
2358.86,0.27546
2335.71,0.28165
2312.57,0.28582
2289.42,0.28549
2266.28,0.28221
2243.13,0.27649
2219.99,0.27462
2196.84,0.27392
2173.7,0.26225
2150.55,0.25019
2127.41,0.24771
2104.26,0.25692
2081.12,0.26215
2057.97,0.26179
2034.83,0.26662
2011.68,0.27904
1988.54,0.28551
1965.39,0.28785
1942.25,0.29148
1919.1,0.29498
1895.96,0.29427
1872.81,0.29037
1849.67,0.28088
1826.52,0.25997
1803.38,0.20610
1780.23,0.14679
1757.09,0.10427
1733.94,0.07969
1710.8,0.07786
1687.65,0.07918
1664.51,0.07181
1641.36,0.06820
1618.22,0.06503
1595.07,0.07007
1571.93,0.08870
1548.78,0.10148
1525.64,0.08886
1502.49,0.07313
1479.35,0.06189
1456.2,0.05206
1433.06,0.05028
1409.91,0.05807
1386.77,0.05620
1363.62,0.05373
1340.48,0.05328
1317.33,0.05228
1294.19,0.05695
1271.04,0.05532
1247.9,0.05612
1224.75,0.05745
1201.61,0.05323
1178.46,0.04792
1155.32,0.05627
1132.17,0.04627
1109.03,0.05035
1085.88,0.04932
1062.74,0.06496
1039.59,0.06764
1016.45,0.07427
993.304,0.08138
970.159,0.10005
947.014,0.11524
923.869,0.11138
900.724,0.10335
877.579,0.10495
854.434,0.11918
831.289,0.11688
808.144,0.10342
784.999,0.09495
761.854,0.08545
738.709,0.07922
715.565,0.06676
692.42,0.06565
669.275,0.06004
646.13,0.06036
622.985,0.05907
599.84,0.06285