File: 01_Data/Homasote/FTIR/IS/Homasote_IS_S_221031_R1.dpt
7497.03,0.58317
7473.89,0.57875
7450.74,0.58321
7427.6,0.58200
7404.45,0.57659
7381.31,0.58212
7358.16,0.57572
7335.02,0.58235
7311.87,0.57836
7288.73,0.57208
7265.58,0.57681
7242.44,0.57687
7219.29,0.58599
7196.15,0.57368
7173,0.58565
7149.86,0.57802
7126.71,0.56844
7103.57,0.57635
7080.42,0.56449
7057.28,0.56449
7034.13,0.56087
7010.99,0.55634
6987.84,0.56006
6964.7,0.55517
6941.55,0.55016
6918.41,0.54241
6895.26,0.54658
6872.12,0.54631
6848.97,0.54612
6825.83,0.54955
6802.68,0.54213
6779.54,0.54588
6756.39,0.54133
6733.25,0.54625
6710.1,0.54018
6686.96,0.54595
6663.82,0.54037
6640.67,0.54228
6617.53,0.54836
6594.38,0.55099
6571.24,0.54799
6548.09,0.55141
6524.95,0.55082
6501.8,0.55264
6478.66,0.54728
6455.51,0.55573
6432.37,0.55579
6409.22,0.55344
6386.08,0.55533
6362.93,0.55307
6339.79,0.55450
6316.64,0.55804
6293.5,0.55555
6270.35,0.55789
6247.21,0.55970
6224.06,0.56432
6200.92,0.56009
6177.77,0.56297
6154.63,0.56790
6131.48,0.57027
6108.34,0.56703
6085.19,0.56923
6062.05,0.56960
6038.9,0.57198
6015.76,0.57162
5992.61,0.57037
5969.47,0.57095
5946.32,0.57132
5923.18,0.57255
5900.03,0.56854
5876.89,0.56739
5853.74,0.56694
5830.6,0.56624
5807.45,0.56682
5784.31,0.56732
5761.16,0.56588
5738.02,0.56451
5714.87,0.56791
5691.73,0.56580
5668.58,0.56406
5645.44,0.56645
5622.29,0.56571
5599.15,0.56828
5576,0.56670
5552.86,0.56667
5529.71,0.56934
5506.57,0.56830
5483.42,0.56828
5460.28,0.56864
5437.13,0.57035
5413.99,0.57189
5390.84,0.57177
5367.7,0.57301
5344.55,0.57222
5321.41,0.56956
5298.26,0.56155
5275.12,0.54883
5251.97,0.52746
5228.83,0.50528
5205.68,0.49214
5182.54,0.49623
5159.39,0.49785
5136.25,0.50534
5113.1,0.51275
5089.96,0.52077
5066.81,0.52556
5043.67,0.53018
5020.52,0.53442
4997.38,0.53808
4974.23,0.53854
4951.09,0.53606
4927.94,0.52943
4904.8,0.52009
4881.65,0.50839
4858.51,0.49693
4835.36,0.48566
4812.22,0.47587
4789.07,0.47066
4765.93,0.46542
4742.78,0.46377
4719.64,0.46573
4696.49,0.47058
4673.35,0.47617
4650.2,0.47985
4627.06,0.48611
4603.92,0.49143
4580.77,0.49689
4557.63,0.50205
4534.48,0.50288
4511.34,0.50787
4488.19,0.50779
4465.05,0.50028
4441.9,0.48619
4418.76,0.46617
4395.61,0.45389
4372.47,0.45792
4349.32,0.45517
4326.18,0.44466
4303.03,0.44004
4279.89,0.43411
4256.74,0.43474
4233.6,0.43827
4210.45,0.43952
4187.31,0.44131
4164.16,0.44214
4141.02,0.43586
4117.87,0.42481
4094.73,0.40737
4071.58,0.38756
4048.44,0.36555
4025.29,0.35092
4002.15,0.35232
3979,0.35960
3955.86,0.36731
3932.71,0.37706
3909.57,0.38646
3886.42,0.39454
3863.28,0.40310
3840.13,0.41083
3816.99,0.41138
3793.84,0.40718
3770.7,0.39986
3747.55,0.38665
3724.41,0.35399
3701.26,0.23009
3678.12,0.22477
3654.97,0.15796
3631.83,0.11628
3608.68,0.08863
3585.54,0.07534
3562.39,0.06269
3539.25,0.05507
3516.1,0.05037
3492.96,0.04655
3469.81,0.04361
3446.67,0.04192
3423.52,0.04160
3400.38,0.04075
3377.23,0.04231
3354.09,0.04337
3330.94,0.04527
3307.8,0.04717
3284.65,0.04912
3261.51,0.05268
3238.36,0.05581
3215.22,0.05966
3192.07,0.06559
3168.93,0.07091
3145.78,0.07658
3122.64,0.08307
3099.49,0.08925
3076.35,0.09653
3053.2,0.10374
3030.06,0.10982
3006.91,0.11293
2983.77,0.10461
2960.62,0.08516
2937.48,0.07352
2914.33,0.06661
2891.19,0.07399
2868.04,0.08095
2844.9,0.09077
2821.75,0.11668
2798.61,0.13234
2775.46,0.13895
2752.32,0.14297
2729.17,0.14638
2706.03,0.15373
2682.88,0.16322
2659.74,0.16988
2636.59,0.17770
2613.45,0.18474
2590.3,0.19017
2567.16,0.19317
2544.02,0.19380
2520.87,0.19281
2497.73,0.20549
2474.58,0.22154
2451.44,0.23260
2428.29,0.24422
2405.15,0.25545
2382,0.26419
2358.86,0.27224
2335.71,0.27752
2312.57,0.28165
2289.42,0.28117
2266.28,0.27751
2243.13,0.27166
2219.99,0.26931
2196.84,0.26823
2173.7,0.25713
2150.55,0.24500
2127.41,0.24201
2104.26,0.25135
2081.12,0.25671
2057.97,0.25655
2034.83,0.26111
2011.68,0.27371
1988.54,0.28018
1965.39,0.28236
1942.25,0.28655
1919.1,0.28967
1895.96,0.28958
1872.81,0.28576
1849.67,0.27666
1826.52,0.25636
1803.38,0.20458
1780.23,0.14628
1757.09,0.10405
1733.94,0.07929
1710.8,0.07685
1687.65,0.07809
1664.51,0.06916
1641.36,0.06661
1618.22,0.06445
1595.07,0.06944
1571.93,0.08764
1548.78,0.10051
1525.64,0.08829
1502.49,0.07268
1479.35,0.06187
1456.2,0.05235
1433.06,0.05011
1409.91,0.05837
1386.77,0.05660
1363.62,0.05361
1340.48,0.05343
1317.33,0.05211
1294.19,0.05674
1271.04,0.05562
1247.9,0.05599
1224.75,0.05749
1201.61,0.05335
1178.46,0.04784
1155.32,0.05595
1132.17,0.04626
1109.03,0.05062
1085.88,0.04922
1062.74,0.06391
1039.59,0.06740
1016.45,0.07444
993.304,0.08063
970.159,0.09935
947.014,0.11459
923.869,0.11002
900.724,0.10212
877.579,0.10223
854.434,0.11668
831.289,0.11352
808.144,0.10059
784.999,0.09116
761.854,0.08256
738.709,0.07673
715.565,0.06505
692.42,0.06459
669.275,0.06087
646.13,0.06035
622.985,0.05644
599.84,0.06112