File: 01_Data/Homasote/FTIR/IS/Homasote_IS_S_221031_R7.dpt
7497.03,0.58052
7473.89,0.58699
7450.74,0.57830
7427.6,0.58245
7404.45,0.57831
7381.31,0.58708
7358.16,0.57417
7335.02,0.56983
7311.87,0.58000
7288.73,0.57708
7265.58,0.57620
7242.44,0.58238
7219.29,0.58117
7196.15,0.57728
7173,0.57750
7149.86,0.57801
7126.71,0.57720
7103.57,0.56959
7080.42,0.56782
7057.28,0.56503
7034.13,0.55942
7010.99,0.56093
6987.84,0.55607
6964.7,0.55194
6941.55,0.55228
6918.41,0.54996
6895.26,0.55040
6872.12,0.54663
6848.97,0.54770
6825.83,0.54476
6802.68,0.53906
6779.54,0.54707
6756.39,0.54323
6733.25,0.54263
6710.1,0.54387
6686.96,0.54004
6663.82,0.54128
6640.67,0.54799
6617.53,0.54596
6594.38,0.55157
6571.24,0.55245
6548.09,0.54807
6524.95,0.54725
6501.8,0.55053
6478.66,0.55563
6455.51,0.55425
6432.37,0.55339
6409.22,0.55438
6386.08,0.55655
6362.93,0.55463
6339.79,0.55613
6316.64,0.55289
6293.5,0.55557
6270.35,0.55644
6247.21,0.56213
6224.06,0.56460
6200.92,0.56359
6177.77,0.56432
6154.63,0.56684
6131.48,0.56880
6108.34,0.56885
6085.19,0.57038
6062.05,0.57430
6038.9,0.57059
6015.76,0.57183
5992.61,0.57029
5969.47,0.57387
5946.32,0.57167
5923.18,0.57062
5900.03,0.57151
5876.89,0.56786
5853.74,0.57094
5830.6,0.56934
5807.45,0.56753
5784.31,0.56458
5761.16,0.56502
5738.02,0.56649
5714.87,0.57065
5691.73,0.56829
5668.58,0.56591
5645.44,0.56457
5622.29,0.56645
5599.15,0.56731
5576,0.56777
5552.86,0.56923
5529.71,0.56844
5506.57,0.56768
5483.42,0.56965
5460.28,0.56910
5437.13,0.57144
5413.99,0.57327
5390.84,0.57292
5367.7,0.57501
5344.55,0.57328
5321.41,0.57025
5298.26,0.56467
5275.12,0.55215
5251.97,0.53286
5228.83,0.51449
5205.68,0.50284
5182.54,0.50513
5159.39,0.50905
5136.25,0.51318
5113.1,0.52253
5089.96,0.52748
5066.81,0.53127
5043.67,0.53657
5020.52,0.54126
4997.38,0.54337
4974.23,0.54170
4951.09,0.53991
4927.94,0.53261
4904.8,0.52174
4881.65,0.51143
4858.51,0.49840
4835.36,0.48749
4812.22,0.47838
4789.07,0.47036
4765.93,0.46743
4742.78,0.46414
4719.64,0.46750
4696.49,0.47260
4673.35,0.47639
4650.2,0.48083
4627.06,0.48697
4603.92,0.49399
4580.77,0.49916
4557.63,0.50349
4534.48,0.50480
4511.34,0.51012
4488.19,0.50926
4465.05,0.50226
4441.9,0.48767
4418.76,0.46878
4395.61,0.45535
4372.47,0.45894
4349.32,0.45709
4326.18,0.44642
4303.03,0.44110
4279.89,0.43532
4256.74,0.43611
4233.6,0.43959
4210.45,0.44142
4187.31,0.44314
4164.16,0.44395
4141.02,0.43789
4117.87,0.42795
4094.73,0.40961
4071.58,0.39007
4048.44,0.36846
4025.29,0.35352
4002.15,0.35540
3979,0.36273
3955.86,0.37037
3932.71,0.38033
3909.57,0.39127
3886.42,0.39898
3863.28,0.40723
3840.13,0.41464
3816.99,0.41560
3793.84,0.41311
3770.7,0.40661
3747.55,0.39282
3724.41,0.36096
3701.26,0.23451
3678.12,0.23093
3654.97,0.16395
3631.83,0.12213
3608.68,0.09341
3585.54,0.07962
3562.39,0.06468
3539.25,0.05732
3516.1,0.05132
3492.96,0.04736
3469.81,0.04420
3446.67,0.04217
3423.52,0.04145
3400.38,0.04149
3377.23,0.04149
3354.09,0.04310
3330.94,0.04499
3307.8,0.04727
3284.65,0.04966
3261.51,0.05359
3238.36,0.05768
3215.22,0.06182
3192.07,0.06692
3168.93,0.07290
3145.78,0.07876
3122.64,0.08616
3099.49,0.09262
3076.35,0.09998
3053.2,0.10748
3030.06,0.11368
3006.91,0.11576
2983.77,0.10667
2960.62,0.08654
2937.48,0.07376
2914.33,0.06687
2891.19,0.07458
2868.04,0.08176
2844.9,0.09146
2821.75,0.11836
2798.61,0.13385
2775.46,0.14127
2752.32,0.14471
2729.17,0.14834
2706.03,0.15556
2682.88,0.16545
2659.74,0.17217
2636.59,0.17968
2613.45,0.18654
2590.3,0.19220
2567.16,0.19605
2544.02,0.19592
2520.87,0.19451
2497.73,0.20753
2474.58,0.22375
2451.44,0.23482
2428.29,0.24670
2405.15,0.25861
2382,0.26780
2358.86,0.27573
2335.71,0.28156
2312.57,0.28646
2289.42,0.28562
2266.28,0.28242
2243.13,0.27639
2219.99,0.27500
2196.84,0.27417
2173.7,0.26279
2150.55,0.25029
2127.41,0.24788
2104.26,0.25706
2081.12,0.26252
2057.97,0.26224
2034.83,0.26700
2011.68,0.27936
1988.54,0.28594
1965.39,0.28774
1942.25,0.29205
1919.1,0.29503
1895.96,0.29451
1872.81,0.29050
1849.67,0.28095
1826.52,0.25988
1803.38,0.20649
1780.23,0.14654
1757.09,0.10425
1733.94,0.07981
1710.8,0.07806
1687.65,0.07929
1664.51,0.07196
1641.36,0.06879
1618.22,0.06505
1595.07,0.07021
1571.93,0.08844
1548.78,0.10177
1525.64,0.08864
1502.49,0.07273
1479.35,0.06222
1456.2,0.05211
1433.06,0.05061
1409.91,0.05797
1386.77,0.05660
1363.62,0.05356
1340.48,0.05375
1317.33,0.05248
1294.19,0.05666
1271.04,0.05516
1247.9,0.05571
1224.75,0.05771
1201.61,0.05363
1178.46,0.04808
1155.32,0.05601
1132.17,0.04641
1109.03,0.05048
1085.88,0.05025
1062.74,0.06427
1039.59,0.06740
1016.45,0.07433
993.304,0.08119
970.159,0.10001
947.014,0.11563
923.869,0.11089
900.724,0.10311
877.579,0.10471
854.434,0.11919
831.289,0.11660
808.144,0.10436
784.999,0.09417
761.854,0.08600
738.709,0.07876
715.565,0.06699
692.42,0.06566
669.275,0.06120
646.13,0.06170
622.985,0.05665
599.84,0.06441