File: 01_Data/Homasote/FTIR/IS/Homasote_IS_S_221031_R5.dpt
7497.03,0.58211
7473.89,0.57090
7450.74,0.59002
7427.6,0.58864
7404.45,0.56647
7381.31,0.58284
7358.16,0.58038
7335.02,0.57095
7311.87,0.57829
7288.73,0.57850
7265.58,0.57256
7242.44,0.57908
7219.29,0.56952
7196.15,0.58175
7173,0.57467
7149.86,0.57167
7126.71,0.58034
7103.57,0.57363
7080.42,0.56481
7057.28,0.55697
7034.13,0.56066
7010.99,0.55770
6987.84,0.55788
6964.7,0.55618
6941.55,0.55078
6918.41,0.55316
6895.26,0.54657
6872.12,0.54476
6848.97,0.55362
6825.83,0.54060
6802.68,0.54386
6779.54,0.54880
6756.39,0.55024
6733.25,0.54738
6710.1,0.54126
6686.96,0.54249
6663.82,0.55057
6640.67,0.54990
6617.53,0.55436
6594.38,0.55455
6571.24,0.54503
6548.09,0.55324
6524.95,0.55144
6501.8,0.54922
6478.66,0.55307
6455.51,0.55018
6432.37,0.55158
6409.22,0.55275
6386.08,0.55408
6362.93,0.55748
6339.79,0.55772
6316.64,0.55560
6293.5,0.55642
6270.35,0.55486
6247.21,0.55800
6224.06,0.56179
6200.92,0.56334
6177.77,0.56820
6154.63,0.56832
6131.48,0.56844
6108.34,0.57212
6085.19,0.57012
6062.05,0.57093
6038.9,0.56871
6015.76,0.57390
5992.61,0.57494
5969.47,0.57213
5946.32,0.57240
5923.18,0.57110
5900.03,0.56873
5876.89,0.56910
5853.74,0.56941
5830.6,0.56861
5807.45,0.56621
5784.31,0.56537
5761.16,0.56798
5738.02,0.56743
5714.87,0.56825
5691.73,0.56775
5668.58,0.56765
5645.44,0.56556
5622.29,0.56674
5599.15,0.56651
5576,0.56889
5552.86,0.56740
5529.71,0.56874
5506.57,0.56947
5483.42,0.56880
5460.28,0.56996
5437.13,0.57231
5413.99,0.57349
5390.84,0.57426
5367.7,0.57419
5344.55,0.57384
5321.41,0.57014
5298.26,0.56362
5275.12,0.55114
5251.97,0.53138
5228.83,0.51387
5205.68,0.50159
5182.54,0.50569
5159.39,0.50683
5136.25,0.51391
5113.1,0.52048
5089.96,0.52602
5066.81,0.53154
5043.67,0.53507
5020.52,0.54085
4997.38,0.54310
4974.23,0.54270
4951.09,0.53995
4927.94,0.53169
4904.8,0.52191
4881.65,0.50998
4858.51,0.49837
4835.36,0.48695
4812.22,0.47788
4789.07,0.47088
4765.93,0.46795
4742.78,0.46536
4719.64,0.46667
4696.49,0.47208
4673.35,0.47721
4650.2,0.48214
4627.06,0.48670
4603.92,0.49245
4580.77,0.49901
4557.63,0.50361
4534.48,0.50586
4511.34,0.50996
4488.19,0.50950
4465.05,0.50167
4441.9,0.48747
4418.76,0.46918
4395.61,0.45497
4372.47,0.45966
4349.32,0.45698
4326.18,0.44702
4303.03,0.44204
4279.89,0.43556
4256.74,0.43622
4233.6,0.44006
4210.45,0.44098
4187.31,0.44223
4164.16,0.44410
4141.02,0.43864
4117.87,0.42754
4094.73,0.40936
4071.58,0.39018
4048.44,0.36823
4025.29,0.35373
4002.15,0.35475
3979,0.36308
3955.86,0.37036
3932.71,0.38044
3909.57,0.39059
3886.42,0.39880
3863.28,0.40681
3840.13,0.41526
3816.99,0.41444
3793.84,0.41164
3770.7,0.40568
3747.55,0.39217
3724.41,0.36008
3701.26,0.23382
3678.12,0.23032
3654.97,0.16312
3631.83,0.12197
3608.68,0.09295
3585.54,0.07982
3562.39,0.06448
3539.25,0.05749
3516.1,0.05144
3492.96,0.04736
3469.81,0.04374
3446.67,0.04183
3423.52,0.04158
3400.38,0.04134
3377.23,0.04166
3354.09,0.04276
3330.94,0.04559
3307.8,0.04682
3284.65,0.04984
3261.51,0.05296
3238.36,0.05735
3215.22,0.06131
3192.07,0.06725
3168.93,0.07198
3145.78,0.07854
3122.64,0.08523
3099.49,0.09220
3076.35,0.09944
3053.2,0.10668
3030.06,0.11331
3006.91,0.11498
2983.77,0.10670
2960.62,0.08601
2937.48,0.07397
2914.33,0.06654
2891.19,0.07419
2868.04,0.08150
2844.9,0.09137
2821.75,0.11801
2798.61,0.13389
2775.46,0.14046
2752.32,0.14503
2729.17,0.14754
2706.03,0.15548
2682.88,0.16497
2659.74,0.17177
2636.59,0.17969
2613.45,0.18662
2590.3,0.19199
2567.16,0.19524
2544.02,0.19553
2520.87,0.19424
2497.73,0.20763
2474.58,0.22362
2451.44,0.23446
2428.29,0.24663
2405.15,0.25822
2382,0.26733
2358.86,0.27545
2335.71,0.28105
2312.57,0.28524
2289.42,0.28489
2266.28,0.28187
2243.13,0.27587
2219.99,0.27404
2196.84,0.27338
2173.7,0.26186
2150.55,0.24939
2127.41,0.24745
2104.26,0.25625
2081.12,0.26175
2057.97,0.26125
2034.83,0.26620
2011.68,0.27843
1988.54,0.28519
1965.39,0.28755
1942.25,0.29087
1919.1,0.29435
1895.96,0.29381
1872.81,0.28993
1849.67,0.28048
1826.52,0.25964
1803.38,0.20609
1780.23,0.14654
1757.09,0.10447
1733.94,0.07948
1710.8,0.07773
1687.65,0.07931
1664.51,0.07186
1641.36,0.06843
1618.22,0.06521
1595.07,0.07043
1571.93,0.08880
1548.78,0.10169
1525.64,0.08889
1502.49,0.07335
1479.35,0.06215
1456.2,0.05267
1433.06,0.05017
1409.91,0.05853
1386.77,0.05605
1363.62,0.05356
1340.48,0.05376
1317.33,0.05232
1294.19,0.05657
1271.04,0.05545
1247.9,0.05597
1224.75,0.05733
1201.61,0.05330
1178.46,0.04825
1155.32,0.05556
1132.17,0.04591
1109.03,0.04981
1085.88,0.04929
1062.74,0.06428
1039.59,0.06812
1016.45,0.07447
993.304,0.08130
970.159,0.09981
947.014,0.11537
923.869,0.11080
900.724,0.10264
877.579,0.10424
854.434,0.11934
831.289,0.11681
808.144,0.10353
784.999,0.09443
761.854,0.08494
738.709,0.07982
715.565,0.06652
692.42,0.06475
669.275,0.06046
646.13,0.06144
622.985,0.05799
599.84,0.06414