File: 01_Data/Homasote/FTIR/IS/Homasote_IS_S_221031_R3.dpt
7497.03,0.58799
7473.89,0.59325
7450.74,0.58027
7427.6,0.58787
7404.45,0.57954
7381.31,0.58711
7358.16,0.58281
7335.02,0.57822
7311.87,0.58696
7288.73,0.57853
7265.58,0.56862
7242.44,0.57455
7219.29,0.57710
7196.15,0.57985
7173,0.57597
7149.86,0.57400
7126.71,0.56934
7103.57,0.57706
7080.42,0.56442
7057.28,0.56005
7034.13,0.55420
7010.99,0.55338
6987.84,0.55634
6964.7,0.55570
6941.55,0.54937
6918.41,0.54673
6895.26,0.54976
6872.12,0.54835
6848.97,0.54494
6825.83,0.54479
6802.68,0.54722
6779.54,0.54661
6756.39,0.53639
6733.25,0.54240
6710.1,0.54896
6686.96,0.54271
6663.82,0.54203
6640.67,0.54610
6617.53,0.55191
6594.38,0.55007
6571.24,0.54800
6548.09,0.54821
6524.95,0.55636
6501.8,0.55461
6478.66,0.54695
6455.51,0.54977
6432.37,0.55485
6409.22,0.54953
6386.08,0.55659
6362.93,0.55333
6339.79,0.55424
6316.64,0.55651
6293.5,0.55949
6270.35,0.55855
6247.21,0.55803
6224.06,0.56228
6200.92,0.56489
6177.77,0.56839
6154.63,0.56886
6131.48,0.56869
6108.34,0.56890
6085.19,0.57369
6062.05,0.56947
6038.9,0.56886
6015.76,0.57145
5992.61,0.57118
5969.47,0.57030
5946.32,0.57141
5923.18,0.56964
5900.03,0.56877
5876.89,0.56840
5853.74,0.56753
5830.6,0.56986
5807.45,0.56663
5784.31,0.56598
5761.16,0.56309
5738.02,0.56826
5714.87,0.56808
5691.73,0.56580
5668.58,0.56421
5645.44,0.56669
5622.29,0.56477
5599.15,0.56694
5576,0.56637
5552.86,0.56449
5529.71,0.56943
5506.57,0.56789
5483.42,0.56810
5460.28,0.56943
5437.13,0.57116
5413.99,0.57210
5390.84,0.57413
5367.7,0.57409
5344.55,0.57133
5321.41,0.57056
5298.26,0.56330
5275.12,0.55063
5251.97,0.53032
5228.83,0.50905
5205.68,0.49815
5182.54,0.50140
5159.39,0.50329
5136.25,0.51045
5113.1,0.51791
5089.96,0.52317
5066.81,0.52754
5043.67,0.53380
5020.52,0.53671
4997.38,0.53932
4974.23,0.54023
4951.09,0.53741
4927.94,0.53102
4904.8,0.52125
4881.65,0.50926
4858.51,0.49691
4835.36,0.48506
4812.22,0.47668
4789.07,0.47108
4765.93,0.46587
4742.78,0.46407
4719.64,0.46679
4696.49,0.47064
4673.35,0.47664
4650.2,0.48126
4627.06,0.48563
4603.92,0.49165
4580.77,0.49785
4557.63,0.50165
4534.48,0.50397
4511.34,0.50888
4488.19,0.50819
4465.05,0.50025
4441.9,0.48664
4418.76,0.46743
4395.61,0.45397
4372.47,0.45792
4349.32,0.45659
4326.18,0.44480
4303.03,0.44069
4279.89,0.43540
4256.74,0.43429
4233.6,0.43912
4210.45,0.43954
4187.31,0.44172
4164.16,0.44209
4141.02,0.43696
4117.87,0.42642
4094.73,0.40846
4071.58,0.38848
4048.44,0.36708
4025.29,0.35228
4002.15,0.35345
3979,0.36097
3955.86,0.36885
3932.71,0.37902
3909.57,0.38944
3886.42,0.39759
3863.28,0.40481
3840.13,0.41258
3816.99,0.41345
3793.84,0.40986
3770.7,0.40407
3747.55,0.39040
3724.41,0.35722
3701.26,0.23249
3678.12,0.22831
3654.97,0.16102
3631.83,0.11953
3608.68,0.09093
3585.54,0.07767
3562.39,0.06386
3539.25,0.05633
3516.1,0.05048
3492.96,0.04696
3469.81,0.04348
3446.67,0.04154
3423.52,0.04145
3400.38,0.04103
3377.23,0.04142
3354.09,0.04282
3330.94,0.04493
3307.8,0.04761
3284.65,0.04961
3261.51,0.05364
3238.36,0.05769
3215.22,0.06164
3192.07,0.06633
3168.93,0.07172
3145.78,0.07760
3122.64,0.08405
3099.49,0.09145
3076.35,0.09861
3053.2,0.10596
3030.06,0.11217
3006.91,0.11461
2983.77,0.10535
2960.62,0.08592
2937.48,0.07387
2914.33,0.06652
2891.19,0.07380
2868.04,0.08116
2844.9,0.09096
2821.75,0.11762
2798.61,0.13320
2775.46,0.14009
2752.32,0.14398
2729.17,0.14703
2706.03,0.15463
2682.88,0.16398
2659.74,0.17105
2636.59,0.17842
2613.45,0.18592
2590.3,0.19153
2567.16,0.19454
2544.02,0.19443
2520.87,0.19379
2497.73,0.20597
2474.58,0.22281
2451.44,0.23338
2428.29,0.24560
2405.15,0.25682
2382,0.26624
2358.86,0.27423
2335.71,0.27989
2312.57,0.28391
2289.42,0.28366
2266.28,0.28024
2243.13,0.27435
2219.99,0.27207
2196.84,0.27116
2173.7,0.26002
2150.55,0.24774
2127.41,0.24457
2104.26,0.25450
2081.12,0.25950
2057.97,0.25957
2034.83,0.26417
2011.68,0.27674
1988.54,0.28309
1965.39,0.28574
1942.25,0.28924
1919.1,0.29249
1895.96,0.29228
1872.81,0.28858
1849.67,0.27922
1826.52,0.25809
1803.38,0.20555
1780.23,0.14618
1757.09,0.10412
1733.94,0.07904
1710.8,0.07749
1687.65,0.07865
1664.51,0.07146
1641.36,0.06799
1618.22,0.06476
1595.07,0.06945
1571.93,0.08827
1548.78,0.10101
1525.64,0.08859
1502.49,0.07303
1479.35,0.06213
1456.2,0.05235
1433.06,0.05001
1409.91,0.05845
1386.77,0.05651
1363.62,0.05362
1340.48,0.05338
1317.33,0.05246
1294.19,0.05674
1271.04,0.05519
1247.9,0.05552
1224.75,0.05772
1201.61,0.05344
1178.46,0.04828
1155.32,0.05605
1132.17,0.04622
1109.03,0.04966
1085.88,0.04936
1062.74,0.06432
1039.59,0.06780
1016.45,0.07398
993.304,0.08142
970.159,0.09997
947.014,0.11528
923.869,0.11057
900.724,0.10288
877.579,0.10321
854.434,0.11875
831.289,0.11549
808.144,0.10252
784.999,0.09369
761.854,0.08437
738.709,0.07850
715.565,0.06541
692.42,0.06355
669.275,0.06125
646.13,0.06115
622.985,0.05955
599.84,0.06296