File: 01_Data/Homasote/FTIR/IS/Homasote_IS_S_221031_R4.dpt
7497.03,0.58441
7473.89,0.58301
7450.74,0.58623
7427.6,0.58412
7404.45,0.57489
7381.31,0.58600
7358.16,0.56997
7335.02,0.57960
7311.87,0.57835
7288.73,0.57643
7265.58,0.58595
7242.44,0.57583
7219.29,0.57741
7196.15,0.58248
7173,0.57819
7149.86,0.57528
7126.71,0.57776
7103.57,0.57217
7080.42,0.56401
7057.28,0.56768
7034.13,0.56122
7010.99,0.55939
6987.84,0.56051
6964.7,0.55229
6941.55,0.55418
6918.41,0.55500
6895.26,0.54656
6872.12,0.54795
6848.97,0.54637
6825.83,0.54250
6802.68,0.54283
6779.54,0.54308
6756.39,0.54398
6733.25,0.54533
6710.1,0.54056
6686.96,0.54266
6663.82,0.54510
6640.67,0.55026
6617.53,0.54343
6594.38,0.54670
6571.24,0.54859
6548.09,0.54754
6524.95,0.54837
6501.8,0.55436
6478.66,0.55579
6455.51,0.55203
6432.37,0.55425
6409.22,0.55272
6386.08,0.55206
6362.93,0.55343
6339.79,0.55522
6316.64,0.55732
6293.5,0.55659
6270.35,0.55902
6247.21,0.55947
6224.06,0.55821
6200.92,0.56016
6177.77,0.56490
6154.63,0.56746
6131.48,0.56917
6108.34,0.56809
6085.19,0.57309
6062.05,0.56997
6038.9,0.57044
6015.76,0.56931
5992.61,0.57075
5969.47,0.57182
5946.32,0.57199
5923.18,0.57120
5900.03,0.57081
5876.89,0.56890
5853.74,0.56528
5830.6,0.56942
5807.45,0.56638
5784.31,0.56526
5761.16,0.56610
5738.02,0.56725
5714.87,0.56396
5691.73,0.56712
5668.58,0.56790
5645.44,0.56490
5622.29,0.56597
5599.15,0.56580
5576,0.56716
5552.86,0.56699
5529.71,0.56726
5506.57,0.56511
5483.42,0.56863
5460.28,0.57019
5437.13,0.57011
5413.99,0.57192
5390.84,0.57381
5367.7,0.57275
5344.55,0.57305
5321.41,0.56866
5298.26,0.56342
5275.12,0.54905
5251.97,0.53062
5228.83,0.51019
5205.68,0.49948
5182.54,0.50186
5159.39,0.50587
5136.25,0.50952
5113.1,0.52084
5089.96,0.52383
5066.81,0.52951
5043.67,0.53295
5020.52,0.53852
4997.38,0.54035
4974.23,0.54089
4951.09,0.53639
4927.94,0.53085
4904.8,0.52104
4881.65,0.50823
4858.51,0.49688
4835.36,0.48633
4812.22,0.47588
4789.07,0.46981
4765.93,0.46715
4742.78,0.46447
4719.64,0.46684
4696.49,0.46941
4673.35,0.47611
4650.2,0.48070
4627.06,0.48666
4603.92,0.49212
4580.77,0.49864
4557.63,0.50136
4534.48,0.50299
4511.34,0.50901
4488.19,0.50865
4465.05,0.50010
4441.9,0.48534
4418.76,0.46756
4395.61,0.45447
4372.47,0.45856
4349.32,0.45660
4326.18,0.44501
4303.03,0.44055
4279.89,0.43435
4256.74,0.43512
4233.6,0.43894
4210.45,0.43996
4187.31,0.44218
4164.16,0.44324
4141.02,0.43687
4117.87,0.42654
4094.73,0.40783
4071.58,0.38909
4048.44,0.36745
4025.29,0.35274
4002.15,0.35422
3979,0.36135
3955.86,0.36950
3932.71,0.37921
3909.57,0.38848
3886.42,0.39737
3863.28,0.40565
3840.13,0.41297
3816.99,0.41350
3793.84,0.40972
3770.7,0.40426
3747.55,0.39047
3724.41,0.35881
3701.26,0.23257
3678.12,0.22906
3654.97,0.16136
3631.83,0.12064
3608.68,0.09164
3585.54,0.07817
3562.39,0.06414
3539.25,0.05658
3516.1,0.05107
3492.96,0.04687
3469.81,0.04438
3446.67,0.04197
3423.52,0.04044
3400.38,0.04094
3377.23,0.04077
3354.09,0.04276
3330.94,0.04586
3307.8,0.04660
3284.65,0.04962
3261.51,0.05337
3238.36,0.05666
3215.22,0.06163
3192.07,0.06630
3168.93,0.07197
3145.78,0.07807
3122.64,0.08469
3099.49,0.09122
3076.35,0.09880
3053.2,0.10665
3030.06,0.11257
3006.91,0.11447
2983.77,0.10599
2960.62,0.08580
2937.48,0.07314
2914.33,0.06644
2891.19,0.07361
2868.04,0.08136
2844.9,0.09112
2821.75,0.11775
2798.61,0.13332
2775.46,0.14027
2752.32,0.14440
2729.17,0.14740
2706.03,0.15516
2682.88,0.16440
2659.74,0.17089
2636.59,0.17843
2613.45,0.18575
2590.3,0.19155
2567.16,0.19488
2544.02,0.19484
2520.87,0.19377
2497.73,0.20663
2474.58,0.22278
2451.44,0.23376
2428.29,0.24580
2405.15,0.25731
2382,0.26624
2358.86,0.27445
2335.71,0.28009
2312.57,0.28427
2289.42,0.28361
2266.28,0.28085
2243.13,0.27495
2219.99,0.27265
2196.84,0.27170
2173.7,0.26048
2150.55,0.24859
2127.41,0.24559
2104.26,0.25525
2081.12,0.25997
2057.97,0.26017
2034.83,0.26474
2011.68,0.27704
1988.54,0.28377
1965.39,0.28605
1942.25,0.28977
1919.1,0.29283
1895.96,0.29252
1872.81,0.28895
1849.67,0.27933
1826.52,0.25823
1803.38,0.20540
1780.23,0.14604
1757.09,0.10399
1733.94,0.07905
1710.8,0.07725
1687.65,0.07891
1664.51,0.07129
1641.36,0.06797
1618.22,0.06501
1595.07,0.06981
1571.93,0.08807
1548.78,0.10108
1525.64,0.08865
1502.49,0.07274
1479.35,0.06192
1456.2,0.05226
1433.06,0.05021
1409.91,0.05830
1386.77,0.05613
1363.62,0.05370
1340.48,0.05334
1317.33,0.05234
1294.19,0.05667
1271.04,0.05536
1247.9,0.05573
1224.75,0.05732
1201.61,0.05352
1178.46,0.04825
1155.32,0.05595
1132.17,0.04602
1109.03,0.04984
1085.88,0.04966
1062.74,0.06434
1039.59,0.06782
1016.45,0.07458
993.304,0.08091
970.159,0.10010
947.014,0.11483
923.869,0.11061
900.724,0.10293
877.579,0.10347
854.434,0.11894
831.289,0.11521
808.144,0.10300
784.999,0.09379
761.854,0.08554
738.709,0.07855
715.565,0.06651
692.42,0.06488
669.275,0.06108
646.13,0.06278
622.985,0.05769
599.84,0.06256