File: 01_Data/Homasote/FTIR/IS/Homasote_IS_S_221031_R8.dpt
7497.03,0.58578
7473.89,0.57967
7450.74,0.58389
7427.6,0.57158
7404.45,0.58092
7381.31,0.58608
7358.16,0.58522
7335.02,0.57605
7311.87,0.57481
7288.73,0.57637
7265.58,0.57498
7242.44,0.58111
7219.29,0.58348
7196.15,0.56865
7173,0.57753
7149.86,0.57700
7126.71,0.57421
7103.57,0.56129
7080.42,0.56384
7057.28,0.56377
7034.13,0.56025
7010.99,0.56325
6987.84,0.55432
6964.7,0.55407
6941.55,0.55408
6918.41,0.55437
6895.26,0.54907
6872.12,0.54612
6848.97,0.54696
6825.83,0.54179
6802.68,0.54682
6779.54,0.54606
6756.39,0.54223
6733.25,0.55040
6710.1,0.54796
6686.96,0.54291
6663.82,0.54417
6640.67,0.54845
6617.53,0.55132
6594.38,0.54889
6571.24,0.55216
6548.09,0.55383
6524.95,0.55184
6501.8,0.55035
6478.66,0.55270
6455.51,0.56002
6432.37,0.55394
6409.22,0.55220
6386.08,0.55514
6362.93,0.55366
6339.79,0.55543
6316.64,0.55634
6293.5,0.56170
6270.35,0.55794
6247.21,0.56225
6224.06,0.56314
6200.92,0.56334
6177.77,0.56583
6154.63,0.56692
6131.48,0.56624
6108.34,0.56977
6085.19,0.57293
6062.05,0.57160
6038.9,0.57288
6015.76,0.57320
5992.61,0.57238
5969.47,0.57115
5946.32,0.57224
5923.18,0.57295
5900.03,0.57160
5876.89,0.56872
5853.74,0.57122
5830.6,0.56786
5807.45,0.56656
5784.31,0.56765
5761.16,0.56757
5738.02,0.56597
5714.87,0.56606
5691.73,0.56512
5668.58,0.56875
5645.44,0.56665
5622.29,0.56805
5599.15,0.56698
5576,0.56889
5552.86,0.57028
5529.71,0.57007
5506.57,0.57061
5483.42,0.57194
5460.28,0.57126
5437.13,0.57197
5413.99,0.57323
5390.84,0.57510
5367.7,0.57497
5344.55,0.57361
5321.41,0.57207
5298.26,0.56522
5275.12,0.55291
5251.97,0.53434
5228.83,0.51528
5205.68,0.50515
5182.54,0.50682
5159.39,0.51154
5136.25,0.51612
5113.1,0.52194
5089.96,0.52846
5066.81,0.53384
5043.67,0.53754
5020.52,0.54261
4997.38,0.54514
4974.23,0.54518
4951.09,0.54078
4927.94,0.53298
4904.8,0.52325
4881.65,0.51137
4858.51,0.49939
4835.36,0.48741
4812.22,0.47844
4789.07,0.47289
4765.93,0.46855
4742.78,0.46575
4719.64,0.46826
4696.49,0.47323
4673.35,0.47753
4650.2,0.48277
4627.06,0.48830
4603.92,0.49359
4580.77,0.50080
4557.63,0.50370
4534.48,0.50675
4511.34,0.51089
4488.19,0.51072
4465.05,0.50225
4441.9,0.48881
4418.76,0.47002
4395.61,0.45596
4372.47,0.45933
4349.32,0.45771
4326.18,0.44694
4303.03,0.44244
4279.89,0.43610
4256.74,0.43648
4233.6,0.44175
4210.45,0.44194
4187.31,0.44334
4164.16,0.44533
4141.02,0.43866
4117.87,0.42881
4094.73,0.41049
4071.58,0.39094
4048.44,0.36876
4025.29,0.35400
4002.15,0.35614
3979,0.36299
3955.86,0.37123
3932.71,0.38165
3909.57,0.39137
3886.42,0.39935
3863.28,0.40772
3840.13,0.41489
3816.99,0.41601
3793.84,0.41384
3770.7,0.40688
3747.55,0.39321
3724.41,0.36134
3701.26,0.23490
3678.12,0.23097
3654.97,0.16533
3631.83,0.12308
3608.68,0.09360
3585.54,0.08011
3562.39,0.06484
3539.25,0.05730
3516.1,0.05153
3492.96,0.04707
3469.81,0.04388
3446.67,0.04183
3423.52,0.04149
3400.38,0.04088
3377.23,0.04162
3354.09,0.04371
3330.94,0.04605
3307.8,0.04751
3284.65,0.04968
3261.51,0.05267
3238.36,0.05706
3215.22,0.06221
3192.07,0.06728
3168.93,0.07286
3145.78,0.07862
3122.64,0.08569
3099.49,0.09270
3076.35,0.10041
3053.2,0.10793
3030.06,0.11477
3006.91,0.11602
2983.77,0.10741
2960.62,0.08632
2937.48,0.07448
2914.33,0.06650
2891.19,0.07374
2868.04,0.08199
2844.9,0.09167
2821.75,0.11852
2798.61,0.13404
2775.46,0.14148
2752.32,0.14557
2729.17,0.14823
2706.03,0.15581
2682.88,0.16561
2659.74,0.17238
2636.59,0.17971
2613.45,0.18680
2590.3,0.19262
2567.16,0.19547
2544.02,0.19606
2520.87,0.19493
2497.73,0.20744
2474.58,0.22404
2451.44,0.23546
2428.29,0.24727
2405.15,0.25891
2382,0.26797
2358.86,0.27543
2335.71,0.28135
2312.57,0.28640
2289.42,0.28617
2266.28,0.28295
2243.13,0.27761
2219.99,0.27546
2196.84,0.27465
2173.7,0.26341
2150.55,0.25095
2127.41,0.24844
2104.26,0.25759
2081.12,0.26309
2057.97,0.26313
2034.83,0.26758
2011.68,0.28001
1988.54,0.28671
1965.39,0.28923
1942.25,0.29234
1919.1,0.29574
1895.96,0.29534
1872.81,0.29079
1849.67,0.28163
1826.52,0.26048
1803.38,0.20656
1780.23,0.14681
1757.09,0.10407
1733.94,0.07965
1710.8,0.07800
1687.65,0.07958
1664.51,0.07218
1641.36,0.06871
1618.22,0.06545
1595.07,0.07032
1571.93,0.08900
1548.78,0.10177
1525.64,0.08865
1502.49,0.07327
1479.35,0.06222
1456.2,0.05222
1433.06,0.05064
1409.91,0.05850
1386.77,0.05630
1363.62,0.05376
1340.48,0.05374
1317.33,0.05242
1294.19,0.05656
1271.04,0.05533
1247.9,0.05594
1224.75,0.05724
1201.61,0.05337
1178.46,0.04795
1155.32,0.05548
1132.17,0.04628
1109.03,0.05006
1085.88,0.04910
1062.74,0.06448
1039.59,0.06844
1016.45,0.07475
993.304,0.08130
970.159,0.10006
947.014,0.11598
923.869,0.11144
900.724,0.10393
877.579,0.10392
854.434,0.11991
831.289,0.11733
808.144,0.10449
784.999,0.09571
761.854,0.08605
738.709,0.07968
715.565,0.06695
692.42,0.06595
669.275,0.06067
646.13,0.06145
622.985,0.05688
599.84,0.06292