File: 01_Data/Homasote/FTIR/IS/Homasote_IS_S_221031_R2.dpt
7497.03,0.58678
7473.89,0.58395
7450.74,0.59002
7427.6,0.58090
7404.45,0.58432
7381.31,0.58147
7358.16,0.57597
7335.02,0.57472
7311.87,0.57924
7288.73,0.57438
7265.58,0.58047
7242.44,0.58041
7219.29,0.58125
7196.15,0.57812
7173,0.57377
7149.86,0.57790
7126.71,0.57028
7103.57,0.57222
7080.42,0.57134
7057.28,0.55317
7034.13,0.56020
7010.99,0.55363
6987.84,0.55813
6964.7,0.55257
6941.55,0.54844
6918.41,0.54828
6895.26,0.54290
6872.12,0.54126
6848.97,0.54447
6825.83,0.54781
6802.68,0.54363
6779.54,0.54597
6756.39,0.53958
6733.25,0.53859
6710.1,0.54404
6686.96,0.54074
6663.82,0.54452
6640.67,0.54331
6617.53,0.54514
6594.38,0.54734
6571.24,0.55422
6548.09,0.54915
6524.95,0.54984
6501.8,0.54829
6478.66,0.55240
6455.51,0.55232
6432.37,0.55582
6409.22,0.55177
6386.08,0.55333
6362.93,0.55459
6339.79,0.55325
6316.64,0.55835
6293.5,0.55482
6270.35,0.55687
6247.21,0.55915
6224.06,0.56080
6200.92,0.56493
6177.77,0.56425
6154.63,0.56596
6131.48,0.56667
6108.34,0.56508
6085.19,0.56801
6062.05,0.57101
6038.9,0.56885
6015.76,0.56932
5992.61,0.57200
5969.47,0.56907
5946.32,0.56743
5923.18,0.57043
5900.03,0.56917
5876.89,0.57132
5853.74,0.56657
5830.6,0.56715
5807.45,0.56890
5784.31,0.56539
5761.16,0.56622
5738.02,0.56465
5714.87,0.56688
5691.73,0.56660
5668.58,0.56574
5645.44,0.56486
5622.29,0.56610
5599.15,0.56516
5576,0.56515
5552.86,0.56766
5529.71,0.56728
5506.57,0.56679
5483.42,0.56699
5460.28,0.57048
5437.13,0.57046
5413.99,0.57106
5390.84,0.57188
5367.7,0.57180
5344.55,0.57121
5321.41,0.56891
5298.26,0.56039
5275.12,0.54841
5251.97,0.52753
5228.83,0.50844
5205.68,0.49446
5182.54,0.49762
5159.39,0.50327
5136.25,0.50707
5113.1,0.51393
5089.96,0.52051
5066.81,0.52696
5043.67,0.53233
5020.52,0.53684
4997.38,0.53817
4974.23,0.53916
4951.09,0.53658
4927.94,0.52976
4904.8,0.52090
4881.65,0.50830
4858.51,0.49690
4835.36,0.48529
4812.22,0.47567
4789.07,0.47054
4765.93,0.46602
4742.78,0.46445
4719.64,0.46667
4696.49,0.46989
4673.35,0.47446
4650.2,0.48099
4627.06,0.48648
4603.92,0.49148
4580.77,0.49655
4557.63,0.50185
4534.48,0.50386
4511.34,0.50748
4488.19,0.50788
4465.05,0.50030
4441.9,0.48631
4418.76,0.46793
4395.61,0.45344
4372.47,0.45755
4349.32,0.45519
4326.18,0.44463
4303.03,0.44120
4279.89,0.43484
4256.74,0.43395
4233.6,0.43826
4210.45,0.43989
4187.31,0.44117
4164.16,0.44283
4141.02,0.43644
4117.87,0.42532
4094.73,0.40729
4071.58,0.38814
4048.44,0.36711
4025.29,0.35194
4002.15,0.35277
3979,0.36038
3955.86,0.36911
3932.71,0.37834
3909.57,0.38760
3886.42,0.39641
3863.28,0.40389
3840.13,0.41092
3816.99,0.41237
3793.84,0.40878
3770.7,0.40264
3747.55,0.38827
3724.41,0.35619
3701.26,0.23076
3678.12,0.22711
3654.97,0.15953
3631.83,0.11731
3608.68,0.09001
3585.54,0.07666
3562.39,0.06308
3539.25,0.05579
3516.1,0.05079
3492.96,0.04664
3469.81,0.04391
3446.67,0.04220
3423.52,0.04178
3400.38,0.04099
3377.23,0.04130
3354.09,0.04264
3330.94,0.04513
3307.8,0.04769
3284.65,0.04839
3261.51,0.05288
3238.36,0.05694
3215.22,0.06102
3192.07,0.06534
3168.93,0.07092
3145.78,0.07763
3122.64,0.08326
3099.49,0.09044
3076.35,0.09741
3053.2,0.10518
3030.06,0.11186
3006.91,0.11349
2983.77,0.10566
2960.62,0.08566
2937.48,0.07357
2914.33,0.06645
2891.19,0.07365
2868.04,0.08118
2844.9,0.09095
2821.75,0.11709
2798.61,0.13261
2775.46,0.13901
2752.32,0.14404
2729.17,0.14675
2706.03,0.15420
2682.88,0.16361
2659.74,0.17067
2636.59,0.17829
2613.45,0.18484
2590.3,0.19072
2567.16,0.19359
2544.02,0.19426
2520.87,0.19303
2497.73,0.20594
2474.58,0.22204
2451.44,0.23312
2428.29,0.24479
2405.15,0.25622
2382,0.26562
2358.86,0.27347
2335.71,0.27919
2312.57,0.28275
2289.42,0.28229
2266.28,0.27897
2243.13,0.27297
2219.99,0.27134
2196.84,0.27037
2173.7,0.25878
2150.55,0.24669
2127.41,0.24421
2104.26,0.25312
2081.12,0.25843
2057.97,0.25809
2034.83,0.26292
2011.68,0.27555
1988.54,0.28176
1965.39,0.28438
1942.25,0.28811
1919.1,0.29134
1895.96,0.29149
1872.81,0.28738
1849.67,0.27783
1826.52,0.25749
1803.38,0.20511
1780.23,0.14614
1757.09,0.10381
1733.94,0.07871
1710.8,0.07745
1687.65,0.07800
1664.51,0.07035
1641.36,0.06767
1618.22,0.06492
1595.07,0.06978
1571.93,0.08762
1548.78,0.10076
1525.64,0.08832
1502.49,0.07309
1479.35,0.06193
1456.2,0.05247
1433.06,0.05020
1409.91,0.05848
1386.77,0.05627
1363.62,0.05388
1340.48,0.05314
1317.33,0.05194
1294.19,0.05652
1271.04,0.05552
1247.9,0.05573
1224.75,0.05733
1201.61,0.05356
1178.46,0.04810
1155.32,0.05620
1132.17,0.04661
1109.03,0.04966
1085.88,0.05023
1062.74,0.06448
1039.59,0.06762
1016.45,0.07453
993.304,0.08138
970.159,0.09990
947.014,0.11498
923.869,0.11032
900.724,0.10230
877.579,0.10279
854.434,0.11834
831.289,0.11518
808.144,0.10210
784.999,0.09237
761.854,0.08435
738.709,0.07822
715.565,0.06632
692.42,0.06548
669.275,0.06105
646.13,0.06078
622.985,0.05746
599.84,0.06487