File: 01_Data/PET/Cone/PET_HRRPUA_50.csv
Time after Ignition,PET_R1,PET_R2,PET_R3,Mean,Std. Dev.
0.0,20.5,7.2,23.3,17.0,8.6
1.25,44.8,25.3,45.9,38.7,11.6
2.5,75.4,44.1,70.5,63.3,16.9
3.75,114.6,70.6,94.5,93.2,22.0
5.0,149.8,101.8,122.6,124.7,24.1
6.25,179.8,140.7,158.0,159.5,19.6
7.5,213.5,174.9,191.1,193.2,19.4
8.75,236.4,212.8,228.5,225.9,12.0
10.0,264.3,231.2,266.6,254.0,19.8
11.25,290.4,263.8,303.9,286.0,20.4
12.5,306.1,295.7,324.9,308.9,14.8
13.75,327.9,319.5,363.0,336.8,23.1
15.0,350.0,332.1,395.3,359.2,32.6
16.25,374.0,351.6,431.0,385.5,41.0
17.5,380.1,391.2,462.1,411.2,44.5
18.75,388.9,405.1,486.3,426.8,52.2
20.0,414.0,428.9,512.1,451.7,52.9
21.25,440.5,444.3,530.6,471.8,50.9
22.5,486.2,466.8,569.4,507.5,54.5
23.75,498.8,475.1,580.0,518.0,55.0
25.0,529.1,501.3,585.4,538.6,42.9
26.25,528.6,539.3,585.1,551.0,30.0
27.5,541.7,542.4,593.8,559.3,29.9
28.75,569.3,529.5,593.9,564.2,32.5
30.0,571.1,553.1,601.6,575.3,24.5
31.25,594.9,569.2,586.2,583.4,13.1
32.5,589.3,560.3,571.3,573.6,14.7
33.75,600.1,588.1,545.5,577.9,28.7
35.0,623.7,579.6,561.2,588.2,32.1
36.25,590.3,588.1,539.9,572.8,28.5
37.5,593.0,556.4,541.7,563.7,26.4
38.75,608.9,563.5,539.1,570.5,35.4
40.0,621.7,556.8,538.6,572.4,43.7
41.25,615.5,564.4,532.0,570.6,42.1
42.5,594.5,566.3,523.9,561.5,35.5
43.75,602.0,570.2,524.8,565.6,38.8
45.0,583.6,580.4,510.0,558.0,41.6
46.25,585.8,550.3,515.8,550.6,35.0
47.5,564.8,575.3,537.3,559.1,19.7
48.75,567.7,554.5,531.8,551.4,18.2
50.0,571.8,566.6,544.7,561.0,14.4
51.25,553.7,561.8,549.4,555.0,6.3
52.5,565.2,576.4,542.1,561.2,17.5
53.75,557.4,550.5,571.3,559.7,10.6
55.0,546.9,554.3,556.8,552.7,5.1
56.25,545.3,554.4,591.6,563.8,24.5
57.5,535.2,544.4,585.3,555.0,26.7
58.75,523.5,531.8,589.3,548.2,35.8
60.0,531.0,536.8,600.7,556.2,38.7
61.25,518.4,537.8,599.2,551.8,42.2
62.5,529.7,530.2,615.8,558.6,49.6
63.75,519.8,517.9,599.4,545.7,46.5
65.0,512.7,516.9,617.5,549.0,59.3
66.25,523.5,524.3,615.2,554.4,52.7
67.5,527.4,510.8,619.5,552.6,58.5
68.75,540.0,501.8,657.0,566.3,80.9
70.0,529.4,515.5,663.1,569.3,81.5
71.25,532.1,510.9,669.0,570.7,85.8
72.5,570.3,504.5,688.5,587.8,93.2
73.75,581.8,520.7,661.9,588.1,70.8
75.0,590.8,511.1,684.1,595.3,86.6
76.25,587.9,519.1,696.9,601.3,89.7
77.5,611.3,528.3,687.0,608.9,79.4
78.75,592.0,524.7,688.5,601.8,82.3
80.0,608.2,554.7,679.5,614.1,62.6
81.25,602.3,578.1,661.5,613.9,42.9
82.5,615.3,592.2,660.0,622.5,34.5
83.75,600.3,620.4,645.5,622.1,22.6
85.0,622.4,634.7,638.5,631.8,8.4
86.25,612.7,642.7,635.6,630.3,15.7
87.5,586.4,678.1,655.5,640.0,47.8
88.75,589.2,669.7,642.5,633.8,40.9
90.0,598.3,673.0,645.7,639.0,37.8
91.25,597.6,691.6,649.5,646.2,47.1
92.5,595.9,682.9,656.4,645.1,44.6
93.75,580.2,694.1,637.4,637.2,56.9
95.0,582.7,685.7,631.4,633.3,51.5
96.25,600.6,697.4,619.1,639.0,51.4
97.5,607.8,687.0,613.9,636.3,44.1
98.75,594.4,690.4,614.8,633.2,50.6
100.0,592.8,693.6,609.5,631.9,54.0
101.25,598.5,667.2,585.1,616.9,44.0
102.5,595.8,658.9,601.5,618.7,34.9
103.75,611.7,686.5,608.0,635.4,44.3
105.0,604.9,670.4,612.2,629.2,35.9
106.25,613.6,664.3,598.6,625.5,34.4
107.5,632.9,655.9,582.8,623.9,37.3
108.75,618.3,671.8,590.4,626.8,41.3
110.0,626.2,627.1,583.7,612.3,24.8
111.25,610.5,648.1,601.2,619.9,24.8
112.5,620.7,633.9,577.2,610.6,29.7
113.75,600.3,630.3,600.4,610.3,17.3
115.0,584.8,649.3,598.2,610.8,34.0
116.25,573.7,651.2,592.5,605.8,40.4
117.5,575.4,635.4,587.4,599.4,31.7
118.75,567.3,624.2,563.6,585.0,34.0
120.0,547.6,601.2,582.0,576.9,27.2
121.25,547.0,616.3,550.7,571.3,39.0
122.5,530.6,637.1,562.4,576.7,54.7
123.75,514.5,628.2,553.9,565.5,57.7
125.0,508.5,617.9,550.5,559.0,55.2
126.25,502.0,614.6,563.8,560.1,56.4
127.5,496.3,602.5,542.4,547.1,53.2
128.75,486.6,606.1,537.2,543.3,60.0
130.0,483.2,610.4,535.0,542.9,64.0
131.25,486.6,593.0,535.4,538.4,53.3
132.5,480.5,593.4,534.3,536.0,56.5
133.75,488.7,603.0,536.6,542.7,57.4
135.0,469.0,584.4,524.6,526.0,57.7
136.25,479.3,593.8,533.2,535.4,57.3
137.5,471.2,597.4,532.3,533.6,63.1
138.75,459.9,586.7,535.9,527.5,63.8
140.0,464.8,578.3,540.6,527.9,57.8
141.25,461.9,580.0,526.0,522.6,59.1
142.5,477.9,582.4,551.8,537.4,53.7
143.75,470.2,594.7,546.6,537.2,62.8
145.0,462.9,567.8,533.4,521.4,53.4
146.25,471.1,566.8,527.9,522.0,48.1
147.5,468.3,564.2,533.5,522.0,49.0
148.75,482.3,595.9,542.5,540.2,56.8
150.0,472.1,568.7,560.3,533.7,53.5
151.25,465.1,587.9,549.1,534.0,62.8
152.5,477.6,582.9,546.5,535.7,53.5
153.75,467.8,580.4,544.0,530.7,57.5
155.0,468.4,583.7,538.6,530.2,58.1
156.25,471.1,564.9,546.9,527.7,49.8
157.5,480.6,572.7,535.1,529.4,46.3
158.75,480.9,582.0,528.6,530.5,50.6
160.0,463.8,585.6,561.7,537.1,64.5
161.25,478.5,579.4,556.6,538.2,52.9
162.5,484.7,581.3,525.8,530.6,48.5
163.75,493.3,575.7,562.0,543.7,44.1
165.0,507.9,570.0,557.6,545.2,32.9
166.25,492.4,567.7,542.5,534.2,38.3
167.5,481.5,570.3,565.3,539.0,49.9
168.75,498.4,572.7,573.4,548.2,43.1
170.0,500.0,588.8,564.5,551.1,45.9
171.25,500.8,591.4,583.5,558.5,50.2
172.5,498.4,595.5,593.4,562.4,55.5
173.75,503.9,612.2,580.5,565.5,55.6
175.0,506.0,622.5,571.9,566.8,58.4
176.25,496.4,617.4,586.8,566.9,62.9
177.5,497.4,599.5,572.8,556.6,52.9
178.75,489.0,598.9,591.3,559.7,61.4
180.0,503.6,601.2,565.1,556.6,49.4
181.25,510.0,603.4,607.0,573.5,55.0
182.5,514.2,597.6,596.5,569.5,47.8
183.75,506.8,589.1,612.0,569.3,55.3
185.0,520.1,587.9,599.1,569.0,42.7
186.25,521.8,598.1,640.8,586.9,60.3
187.5,527.5,600.3,646.1,591.3,59.8
188.75,529.8,594.6,659.4,594.6,64.8
190.0,536.1,593.3,692.9,607.5,79.3
191.25,516.8,633.5,703.5,617.9,94.4
192.5,530.4,630.3,721.5,627.4,95.6
193.75,522.6,661.2,764.9,649.6,121.6
195.0,536.3,666.7,765.5,656.1,115.0
196.25,554.5,641.7,786.7,660.9,117.3
197.5,561.4,653.9,780.3,665.2,109.9
198.75,576.7,680.8,836.6,698.0,130.8
200.0,605.2,696.1,826.2,709.2,111.1
201.25,618.8,704.2,837.7,720.2,110.3
202.5,634.8,716.3,820.5,723.9,93.1
203.75,649.0,719.6,834.8,734.5,93.8
205.0,651.5,724.7,880.0,752.1,116.7
206.25,652.9,746.0,858.0,752.3,102.7
207.5,669.2,774.6,847.5,763.8,89.6
208.75,673.6,763.6,849.8,762.3,88.1
210.0,714.2,776.3,839.7,776.7,62.7
211.25,705.4,827.9,803.0,778.7,64.7
212.5,718.7,838.2,829.5,795.5,66.6
213.75,763.3,790.7,782.1,778.7,14.0
215.0,790.2,841.9,787.0,806.4,30.8
216.25,806.3,840.6,764.8,803.9,38.0
217.5,857.0,858.8,739.1,818.3,68.6
218.75,836.9,847.3,710.4,798.2,76.2
220.0,855.0,906.2,677.4,812.9,120.0
221.25,828.7,885.6,669.7,794.7,111.9
222.5,839.5,882.0,661.2,794.2,117.1
223.75,878.1,844.2,622.5,781.6,138.8
225.0,875.5,822.2,592.1,763.3,150.6
226.25,873.5,828.0,594.7,765.4,149.6
227.5,880.6,810.4,571.2,754.1,162.2
228.75,838.1,801.4,546.7,728.7,158.7
230.0,833.8,784.4,533.6,717.3,161.0
231.25,794.5,797.8,518.7,703.7,160.2
232.5,814.2,726.8,517.5,686.2,152.5
233.75,783.6,716.5,498.6,666.3,149.0
235.0,771.1,722.0,473.3,655.5,159.6
236.25,737.2,685.9,462.0,628.4,146.3
237.5,707.1,682.0,464.3,617.8,133.5
238.75,688.6,662.9,450.9,600.8,130.5
240.0,687.2,636.4,443.2,589.0,128.7
241.25,683.7,608.3,441.9,578.0,123.7
242.5,669.5,584.8,424.2,559.5,124.6
243.75,647.2,564.6,419.2,543.6,115.4
245.0,654.6,543.6,410.2,536.1,122.4
246.25,661.5,526.0,408.9,532.1,126.4
247.5,640.6,513.8,399.6,518.0,120.6
248.75,633.4,489.1,396.7,506.4,119.3
250.0,625.8,479.7,385.0,496.8,121.3
251.25,608.4,475.2,379.5,487.7,115.0
252.5,585.6,460.8,368.9,471.8,108.8
253.75,575.1,443.7,359.8,459.5,108.5
255.0,551.7,426.5,345.9,441.4,103.7
256.25,533.5,423.3,346.2,434.3,94.1
257.5,516.3,405.6,327.1,416.3,95.1
258.75,484.5,390.3,319.3,398.0,82.9
260.0,464.1,374.3,317.0,385.1,74.2
261.25,434.0,372.4,306.3,370.9,63.9
262.5,429.0,364.3,293.9,362.4,67.6
263.75,418.8,346.4,284.0,349.7,67.4
265.0,401.7,337.9,272.8,337.4,64.5
266.25,381.0,333.1,262.8,325.6,59.5
267.5,362.1,319.8,253.8,311.9,54.6
268.75,356.3,306.6,245.3,302.7,55.6
270.0,350.6,300.7,237.9,296.4,56.5
271.25,342.3,299.2,232.7,291.4,55.2
272.5,326.0,291.9,226.4,281.4,50.6
273.75,318.4,278.3,220.7,272.5,49.1
275.0,312.2,273.8,214.1,266.7,49.4
276.25,297.4,266.7,206.9,257.0,46.0
277.5,284.8,259.5,203.1,249.1,41.8
278.75,277.4,250.3,193.5,240.4,42.8
280.0,269.0,242.9,185.9,232.6,42.5
281.25,265.1,230.3,182.0,225.8,41.7
282.5,251.2,220.0,177.8,216.3,36.8
283.75,245.0,214.2,166.3,208.5,39.6
285.0,241.5,209.0,160.1,203.5,41.0
286.25,233.4,199.4,147.2,193.4,43.4
287.5,227.7,191.7,138.4,186.0,44.9
288.75,223.5,179.7,127.9,177.0,47.8
290.0,214.1,168.1,117.0,166.4,48.6
291.25,207.0,156.9,107.0,156.9,50.0
292.5,201.3,141.8,96.2,146.5,52.7
293.75,194.5,134.7,87.9,139.0,53.5
295.0,187.5,121.6,79.5,129.6,54.4
296.25,184.7,114.2,72.6,123.9,56.7
297.5,175.3,105.6,68.2,116.4,54.3
298.75,169.4,97.0,63.5,110.0,54.1
300.0,158.3,91.4,60.1,103.3,50.2
301.25,144.9,84.6,57.1,95.5,44.9
302.5,133.0,79.8,54.1,89.0,40.3
303.75,125.5,74.7,52.9,84.4,37.3
305.0,118.2,71.4,51.7,80.4,34.1
306.25,108.9,66.1,50.4,75.1,30.3
307.5,100.4,63.8,49.8,71.3,26.1
308.75,94.3,60.3,,77.3,24.0
310.0,88.8,59.9,,74.4,20.4
311.25,81.9,58.4,,70.1,16.7
312.5,78.0,56.8,,67.4,15.0
313.75,72.9,,,72.9,
315.0,68.1,,,68.1,
316.25,64.0,,,64.0,
317.5,61.0,,,61.0,
318.75,58.5,,,58.5,
320.0,57.2,,,57.2,
321.25,54.2,,,54.2,
322.5,53.1,,,53.1,
323.5,51.3,,,51.3,