File: 01_Data/PET/Cone/PET_HRRPUA_25.csv
Time after Ignition,PET_R1,PET_R2,PET_R3,PET_R4,PET_R5,Mean,Std. Dev.
0.0,34.9,40.6,10.6,16.1,17.2,23.9,13.1
2.75,50.0,51.6,36.5,50.4,35.5,44.8,8.1
5.5,70.2,72.5,72.7,102.2,82.2,80.0,13.3
8.25,95.4,90.3,120.0,181.1,161.1,129.6,40.2
11.0,116.3,111.0,177.2,248.6,223.1,175.3,61.8
13.75,149.6,130.1,220.0,306.1,297.3,220.6,81.3
16.5,189.2,140.6,263.0,363.7,365.3,264.3,101.3
19.25,231.0,167.3,298.6,400.5,417.4,303.0,107.5
22.0,258.9,180.8,327.9,440.0,481.9,337.9,124.7
24.75,277.3,196.7,369.6,483.6,546.8,374.8,143.8
27.5,302.2,212.7,378.1,544.1,691.8,425.8,192.1
30.25,315.6,231.9,405.2,667.1,799.1,483.8,240.3
33.0,331.4,255.3,457.9,717.5,823.4,517.1,245.2
35.75,330.9,271.3,489.8,762.7,827.2,536.4,250.2
38.5,349.3,286.5,554.3,762.8,813.4,553.3,236.8
41.25,352.5,297.5,588.6,746.3,791.7,555.3,224.2
44.0,358.0,319.1,613.2,728.2,730.2,549.8,199.0
46.75,365.5,350.1,590.7,693.6,692.0,538.4,170.1
49.5,388.2,373.9,597.5,697.2,655.0,542.4,151.5
52.25,420.6,416.8,560.6,645.8,631.0,535.0,110.9
55.0,438.8,461.7,570.0,625.3,584.7,536.1,81.4
57.75,468.9,488.1,542.6,593.2,542.2,527.0,49.4
60.5,513.8,501.1,533.0,583.5,506.1,527.5,33.6
63.25,576.3,495.4,530.9,573.4,482.3,531.7,43.3
66.0,585.5,473.7,516.2,547.4,455.5,515.7,53.1
68.75,587.4,468.2,495.0,513.0,416.7,496.0,62.7
71.5,592.2,460.5,467.0,506.1,395.3,484.2,72.3
74.25,560.3,437.3,451.4,485.0,384.0,463.6,65.2
77.0,560.9,441.2,451.2,465.4,364.4,456.6,70.2
79.75,549.3,458.4,457.3,455.9,349.7,454.1,70.7
82.5,535.3,441.3,440.2,438.0,344.5,439.9,67.5
85.25,512.2,440.0,432.9,426.0,340.1,430.2,61.2
88.0,493.0,430.1,411.2,413.3,331.4,415.8,57.7
90.75,456.1,420.7,402.1,410.0,340.5,405.9,42.0
93.5,458.9,425.1,392.5,390.5,337.1,400.8,45.3
96.25,443.1,425.3,394.6,383.5,339.5,397.2,40.1
99.0,447.6,431.6,382.9,374.8,342.8,396.0,43.0
101.75,434.6,448.6,384.0,367.8,336.6,394.3,46.6
104.5,430.0,464.1,398.2,365.0,347.5,401.0,47.4
107.25,392.7,460.3,376.1,362.3,350.9,388.4,43.1
110.0,376.5,477.2,382.6,360.3,350.7,389.4,50.7
112.75,354.1,446.1,379.6,363.5,357.7,380.2,38.1
115.5,338.8,450.7,389.3,355.2,364.0,379.6,43.8
118.25,329.8,434.5,379.6,352.0,358.1,370.8,39.8
121.0,307.4,434.6,366.4,353.4,361.1,364.6,45.6
123.75,303.0,427.0,358.4,349.7,355.6,358.7,44.3
126.5,296.8,422.8,342.1,348.0,345.3,351.0,45.3
129.25,300.1,418.5,332.1,349.4,353.6,350.7,43.3
132.0,300.8,421.5,324.4,342.8,346.7,347.2,45.3
134.75,312.4,397.3,317.8,344.9,335.0,341.5,33.8
137.5,315.6,398.3,307.1,348.0,329.1,339.6,36.3
140.25,316.3,394.5,291.9,347.0,318.5,333.6,39.2
143.0,323.8,378.9,281.4,346.6,305.0,327.1,37.6
145.75,324.3,369.1,283.0,341.0,303.5,324.2,33.3
148.5,319.2,356.3,269.1,337.6,292.6,314.9,34.8
151.25,322.7,349.5,270.7,331.2,280.0,310.8,33.9
154.0,327.6,338.6,263.0,323.1,263.6,303.2,36.8
156.75,323.6,327.3,260.7,315.5,257.7,297.0,34.8
159.5,315.8,321.4,262.1,308.2,241.8,289.9,35.6
162.25,308.2,310.3,261.7,298.5,235.6,282.8,32.9
165.0,305.6,308.0,255.0,300.7,234.1,280.7,33.9
167.75,305.9,299.9,251.2,299.6,225.0,276.3,36.2
170.5,303.1,299.9,247.6,297.8,221.4,273.9,37.2
173.25,305.8,298.7,250.6,302.0,220.8,275.6,38.0
176.0,308.1,285.4,252.0,307.9,218.5,274.4,38.7
178.75,317.3,289.6,248.9,312.8,219.0,277.5,42.5
181.5,324.9,279.2,249.5,316.6,217.2,277.5,45.3
184.25,320.1,275.4,254.5,315.3,218.4,276.7,42.6
187.0,318.4,274.1,263.2,315.6,216.1,277.5,42.2
189.75,311.9,269.3,269.9,326.0,215.6,278.5,43.3
192.5,313.3,270.3,264.0,325.3,219.6,278.5,42.3
195.25,316.3,268.4,269.6,337.9,225.0,283.4,44.4
198.0,305.3,270.0,267.4,342.1,227.7,282.5,43.2
200.75,302.8,270.1,269.2,351.6,231.0,284.9,45.1
203.5,301.8,271.2,275.9,344.8,231.8,285.1,41.7
206.25,314.9,274.5,270.9,349.3,231.0,288.1,45.3
209.0,349.9,279.0,268.5,359.4,233.6,298.1,54.4
211.75,385.1,278.9,264.4,367.4,235.4,306.2,66.1
214.5,441.9,289.2,259.9,374.8,232.1,319.6,86.8
217.25,476.1,289.6,256.4,371.8,233.5,325.5,99.2
220.0,496.7,294.4,249.9,360.6,225.0,325.3,108.8
222.75,500.9,314.4,255.4,361.3,220.2,330.4,109.6
225.5,501.6,312.7,250.6,355.2,210.4,326.1,112.8
228.25,473.3,329.6,249.0,359.8,199.6,322.3,105.7
231.0,453.2,338.2,240.5,343.4,189.1,312.9,102.3
233.75,414.1,333.5,233.6,334.5,180.4,299.2,92.3
236.5,393.6,357.8,237.9,318.0,177.5,297.0,88.4
239.25,392.3,362.0,238.2,316.7,171.2,296.1,90.8
242.0,400.3,365.0,239.1,317.1,173.6,299.0,92.5
244.75,409.8,369.8,242.3,314.0,174.4,302.1,95.2
247.5,439.0,364.5,242.8,287.0,173.0,301.3,103.7
250.25,450.9,367.3,245.8,268.4,170.0,300.5,109.7
253.0,492.0,379.4,264.3,262.7,163.5,312.4,126.2
255.75,541.0,395.3,284.6,254.3,155.4,326.1,147.5
258.5,587.9,431.9,307.2,245.0,144.9,343.4,171.7
261.25,661.0,486.3,335.3,243.5,136.3,372.5,206.1
264.0,688.3,527.5,355.4,236.9,128.5,387.3,224.1
266.75,695.7,540.8,360.9,234.7,123.6,391.1,230.3
269.5,685.4,542.6,363.2,230.0,120.5,388.4,228.8
272.25,660.4,518.5,370.0,221.1,118.5,377.7,218.8
275.0,620.9,476.4,358.6,210.7,116.4,356.6,202.0
277.75,591.8,460.7,360.6,202.2,116.7,346.4,191.7
280.5,588.9,428.3,363.4,199.0,114.2,338.8,187.9
283.25,580.6,390.7,356.5,197.3,114.0,327.8,181.2
286.0,560.7,367.9,340.4,190.5,112.7,314.4,173.4
288.75,525.5,345.0,325.6,187.2,111.3,298.9,159.6
291.5,473.1,325.7,314.9,187.5,109.6,282.2,139.8
294.25,409.0,304.7,298.3,179.8,106.3,259.6,118.0
297.0,371.4,291.4,292.7,179.3,105.8,248.1,105.0
299.75,337.5,276.3,280.5,182.3,104.7,236.3,92.2
302.5,306.0,267.1,259.1,181.0,101.9,223.0,81.5
305.25,287.4,262.2,251.9,178.7,100.3,216.1,76.3
308.0,264.7,257.8,241.2,176.1,99.2,207.8,70.1
310.75,249.0,248.5,228.9,178.0,96.5,200.2,64.8
313.5,229.5,242.7,227.5,181.5,93.7,195.0,61.2
316.25,217.9,232.0,216.3,183.5,91.0,188.1,57.1
319.0,203.8,229.1,211.6,181.2,88.1,182.8,55.6
321.75,192.5,224.0,193.3,182.3,87.3,175.9,51.9
324.5,190.5,214.5,189.2,177.2,87.7,171.8,48.9
327.25,182.6,208.9,183.5,180.5,85.5,168.2,47.7
330.0,172.8,207.8,182.1,179.2,84.9,165.4,46.9
332.75,169.3,199.8,178.0,179.6,84.8,162.3,44.7
335.5,165.6,196.8,174.8,181.5,83.4,160.4,44.5
338.25,160.8,192.0,173.4,180.5,84.8,158.3,42.6
341.0,155.0,186.5,174.1,182.6,82.9,156.2,42.8
343.75,153.0,180.4,177.2,182.3,81.0,154.8,42.9
346.5,147.0,169.6,175.3,181.8,80.2,150.8,41.6
349.25,145.8,159.6,170.3,181.1,79.6,147.3,40.0
352.0,139.6,154.1,168.2,182.7,77.5,144.4,40.7
354.75,139.3,147.7,166.7,179.8,75.8,141.8,40.2
357.5,133.7,139.0,166.3,171.4,74.7,137.0,38.5
360.25,128.2,134.0,161.4,164.6,74.0,132.5,36.4
363.0,127.6,124.0,162.3,156.1,74.0,128.8,35.0
365.75,125.8,114.5,161.5,154.3,72.3,125.7,35.6
368.5,124.4,110.3,159.2,150.3,69.8,122.8,35.5
371.25,122.7,104.8,160.1,144.8,68.8,120.3,35.6
374.0,118.9,97.8,153.8,143.2,67.4,116.2,34.9
376.75,119.7,95.1,153.1,140.1,67.1,115.0,34.6
379.5,119.4,87.9,155.1,133.4,65.5,112.2,35.7
382.25,118.5,85.0,151.5,130.0,65.4,110.1,34.7
385.0,117.4,81.9,151.3,126.8,64.9,108.5,34.8
387.75,116.9,78.1,150.5,121.9,64.3,106.3,34.9
390.5,113.9,73.9,149.0,116.7,62.5,103.2,35.0
393.25,114.1,71.0,146.5,112.8,60.7,101.0,35.0
396.0,112.1,69.1,142.8,108.7,58.5,98.2,34.4
398.75,112.0,65.5,144.3,105.8,56.0,96.7,36.1
401.5,110.2,62.9,140.4,101.3,55.9,94.2,34.9
404.25,110.1,62.2,139.6,99.5,53.6,93.0,35.4
407.0,108.0,59.5,135.7,98.4,52.6,90.8,34.7
409.75,106.8,54.7,131.3,95.0,50.6,87.7,34.6
412.5,101.0,51.9,129.8,94.0,49.0,85.1,34.4
415.25,99.5,49.7,123.7,91.6,49.2,82.7,32.6
418.0,98.1,47.0,123.5,88.3,49.2,81.2,32.9
420.75,95.0,44.0,122.5,85.5,51.0,79.6,32.4
423.5,90.1,43.3,119.6,83.1,51.8,77.6,30.8
426.25,86.6,41.2,117.8,80.7,51.9,75.7,30.3
429.0,85.7,41.3,116.7,78.8,51.7,74.8,29.8
431.75,86.1,39.9,114.2,77.4,50.6,73.6,29.5
434.5,86.8,37.9,115.0,74.7,50.3,72.9,30.4
437.25,87.0,37.4,111.1,71.0,49.2,71.2,29.4
440.0,85.0,35.2,110.3,69.9,49.0,69.9,29.6
442.75,81.9,35.1,110.0,67.6,47.0,68.3,29.5
445.5,80.7,33.2,109.0,66.6,44.1,66.7,30.1
448.25,82.3,33.9,108.4,66.0,42.9,66.7,30.1
451.0,81.8,33.5,105.9,66.2,41.5,65.8,29.6
453.75,82.3,32.6,106.0,64.7,40.5,65.2,30.1
456.5,81.3,30.5,103.3,63.8,39.8,63.7,29.8
459.25,80.7,29.4,102.1,63.6,39.1,63.0,29.8
462.0,76.3,28.3,98.9,62.9,38.2,60.9,28.6
464.75,73.3,26.6,99.8,62.4,37.4,59.9,29.1
467.5,71.7,25.8,96.6,61.4,37.8,58.7,28.0
470.25,71.1,24.4,94.3,61.1,37.6,57.7,27.6
473.0,70.5,24.0,94.2,60.9,36.8,57.3,27.7
475.75,69.4,21.6,94.3,59.5,36.6,56.3,28.4
478.5,67.1,20.5,93.2,57.5,36.0,54.9,28.1
481.25,65.7,18.8,92.4,55.9,35.0,53.6,28.3
484.0,63.9,17.5,92.3,54.7,34.2,52.5,28.6
486.75,60.4,17.1,93.0,54.9,33.8,51.8,28.8
489.5,56.8,,91.7,56.1,33.2,59.4,24.2
492.25,52.8,,91.1,56.3,32.4,58.2,24.4
495.0,47.2,,90.0,55.9,31.7,56.2,24.7
497.75,39.4,,89.2,54.6,30.7,53.5,25.8
500.5,34.6,,90.2,52.2,29.6,51.6,27.5
503.25,29.1,,88.7,51.1,29.3,49.5,28.1
506.0,25.9,,90.5,50.6,29.7,49.2,29.6
508.75,22.8,,88.3,50.0,29.8,47.7,29.4
511.5,18.6,,86.4,47.9,29.4,45.6,29.8
514.25,15.2,,86.6,48.2,28.5,44.6,31.1
517.0,12.3,,85.6,47.1,27.5,43.1,31.7
519.75,10.0,,87.6,47.3,26.4,42.8,33.5
522.5,9.2,,87.7,46.2,25.6,42.1,33.9
525.25,8.6,,87.2,45.2,25.6,41.7,33.9
528.0,8.9,,87.7,44.8,25.7,41.8,34.0
530.75,9.7,,87.4,44.6,25.5,41.8,33.6
533.5,10.7,,86.1,45.0,24.5,41.6,32.9
536.25,11.2,,85.5,43.7,26.0,41.6,32.1
539.0,10.8,,82.7,42.3,26.3,40.5,30.9
541.75,9.7,,84.0,41.5,26.9,40.5,31.8
544.5,8.6,,81.5,41.2,26.6,39.5,31.0
547.25,8.4,,81.0,39.7,26.7,39.0,30.9
550.0,8.2,,80.1,38.9,25.7,38.3,30.6
552.75,7.1,,79.8,37.7,25.4,37.5,30.9
555.5,6.2,,81.3,37.2,25.4,37.5,31.8
558.25,6.0,,81.4,36.8,25.1,37.3,32.0
561.0,5.7,,81.8,37.7,24.5,37.4,32.4
563.75,5.9,,82.1,37.1,23.8,37.2,32.5
566.5,5.5,,79.3,37.4,23.5,36.4,31.4
568.5,5.1,,79.3,37.5,23.5,36.3,31.6