File: 01_Data/Wood_Stud/HFM/Wood_Stud_Density_Dry_R2.csv
,Wood_Stud_WET_2
Sample Mass [g],266.6
Sample Volume [cm3],770.7
Sample Density [kg/m3],346