File: 01_Data/Wood_Stud/HFM/Wood_Stud_Density_Dry_R1.csv
,Wood_Stud_WET_1
Sample Mass [g],275.3
Sample Volume [cm3],820.2
Sample Density [kg/m3],336