File: 01_Data/Wood_Stud/HFM/Wood_Stud_Density_Dry_R3.csv
,Wood_Stud_WET_3
Sample Mass [g],312.9
Sample Volume [cm3],816.3
Sample Density [kg/m3],383