File: 01_Data/Red_Accent_Chair/Furniture_Calorimeter/Red_Accent_Chair_R2.csv
Time (s),Convective HRR,TCPlume1,TCPlume2,TCPlume3,DPPlume1,DPPlume2,DPPlume3,HF1,HF2,HF3,HF4,HF5,HF6,RAD2,RAD1,Load Cell,Heat Release Rate,Total Heat Released
-150,0.0,-7.49498,-7.48431,8.8257,0.0635696,0.0461828,-0.0188104,0.516959,-2.04468,0.710467,-0.0462949,-0.666862,0.0569484,0.281084,1.92317,19.945,0.0,0.0
-125,0.0,-7.59064,-7.54082,8.34971,-0.0351748,-0.0525546,0.00397619,-0.285404,-0.247292,-0.103837,-0.908538,-0.291909,0.0569484,1.11132,2.88169,19.945,0.0,0.0
-100,0.0,-7.28904,-7.6307,8.79745,0.025591,0.00820688,0.0875272,1.31932,-0.247292,-0.103837,0.815948,0.0830431,-0.0844734,0.779224,3.8402,19.945,0.0,0.0
-75,0.0,-8.12887,-7.64807,8.43622,0.0711653,-0.067745,-0.026406,-0.285404,-1.14599,-0.103837,-0.0462949,-0.291909,-0.0844734,0.779224,2.88169,19.8204,0.0,0.0
-50,0.0,-8.09547,-7.8497,8.66009,0.00280379,-0.0069835,0.0419539,-0.285404,-0.247292,-0.103837,-0.908538,-0.666862,0.19837,0.779224,2.88169,19.9657,0.0,0.0
-25,0.0,-8.49911,-7.97882,8.64878,-0.0199834,0.0385876,0.00397619,-0.285404,-1.14599,-0.103837,-0.908538,0.0830431,-0.0844734,0.945271,1.92317,19.945,0.0,0.0
0,0.0,-8.19703,-7.52037,8.48446,0.0103995,-0.0753402,0.0343584,-1.89013,0.651403,-0.103837,-0.908538,-0.291909,-0.0844734,0.447131,2.88169,19.7996,0.0,0.0
25,0.0,-7.88932,-7.56532,8.36404,-0.0351748,-0.0145787,-0.0415971,0.516959,-1.14599,-0.103837,-0.908538,0.0830431,0.19837,0.613177,2.88169,19.8204,0.0,0.0
50,0.0,-7.74421,-7.89024,8.73527,-0.0123877,-0.0145787,0.0343584,-0.285404,0.651403,-0.103837,-0.0462949,-0.666862,0.0569484,0.613177,1.92317,19.8204,0.0,0.0
75,0.67786,-7.98506,-7.38693,8.95912,0.147123,0.312014,0.0115717,-0.285404,1.5501,0.710467,1.67819,-0.291909,-0.0844734,0.447131,3.8402,19.945,8.17203,0.0198273
100,9.24988,-7.24684,-7.39272,8.87697,0.154718,0.0158021,-0.0188104,2.12169,-0.247292,-0.918142,-0.0462949,0.832948,0.0569484,0.945271,3.8402,19.9657,43.1769,0.677977
125,16.3461,-3.83217,-5.61244,9.43367,0.0331867,0.0765636,0.0419539,0.516959,1.5501,0.710467,-0.0462949,-0.291909,0.0569484,0.613177,4.79872,19.7788,103.238,2.06116
150,82.5359,-2.76293,-4.53869,10.2196,0.0331867,0.927225,0.520473,0.516959,-0.247292,-0.103837,-0.0462949,0.457996,0.0569484,0.779224,4.79872,19.6335,260.558,7.19094
175,169.016,5.55109,-0.667827,11.3919,3.20564,2.0978,-0.0218881,3.05443,3.11599,1.56322,0.177249,0.48248,0.653267,1.11741,4.60529,19.5334,415.53,15.8065
200,227.045,26.2204,19.8716,21.52,2.53978,4.30708,1.88008,5.33114,2.44879,3.15338,1.67819,1.95781,0.905479,1.44341,8.63279,19.322,652.757,27.5091
225,410.812,32.2748,36.6313,41.3165,0.268654,0.691774,0.452113,9.34296,4.24618,3.96768,3.40268,2.33276,1.47117,2.27365,12.4669,18.6367,897.998,46.8326
250,546.554,68.0286,70.9751,63.9218,0.997844,5.34003,2.49532,14.9595,6.94227,8.03921,5.12716,4.20752,3.30965,3.60202,17.2594,17.8061,1231.73,73.2995
275,726.872,90.4999,100.937,98.9086,7.78082,3.88935,1.10533,24.5879,11.4357,10.4821,8.57613,6.83219,4.86529,5.09644,24.9276,16.477,1443.27,105.478
300,731.735,120.069,138.687,157.484,6.96808,6.6464,4.0524,33.4139,13.2331,13.7393,11.1629,7.95704,5.71382,6.09272,32.5957,14.8157,1015.69,134.87
325,650.493,173.249,219.892,286.264,3.70192,8.57558,4.36382,38.228,13.2331,15.3679,12.0251,7.95704,5.5724,5.76063,37.3883,13.2998,766.473,157.919
350,528.698,171.576,228.389,357.909,9.05691,6.1831,7.06783,39.0304,14.1318,13.7393,11.1629,7.58209,5.14813,5.42853,36.4298,12.1577,502.883,175.033
375,454.953,125.936,168.504,300.618,4.01335,4.02606,4.78157,33.4139,8.73966,10.4821,11.1629,6.08228,3.87534,4.43225,29.7202,11.1817,300.319,185.507
400,276.484,92.6013,127.717,254.685,3.80826,1.89941,11.7847,16.5642,4.24618,7.2249,6.85165,3.08266,2.17827,2.27365,15.3424,10.3303,202.672,191.883
425,198.743,63.2774,89.1899,203.835,3.5576,6.25905,4.44737,11.75,3.34749,3.15338,4.26492,1.95781,1.0469,1.60946,13.4254,9.83187,190.39,196.722
450,179.502,42.6963,64.2661,165.842,2.28912,1.35256,4.96387,8.54059,3.34749,3.15338,2.54043,1.58285,1.18832,1.27736,8.63279,9.47885,171.383,201.711
475,174.455,32.682,47.1936,137.623,0.671227,3.05388,1.53828,6.93587,1.5501,2.33908,1.67819,1.58285,0.622635,1.27736,8.63279,9.14659,201.39,206.048
500,128.741,29.3432,40.3259,117.316,0.967461,0.577846,1.65221,6.93587,0.651403,1.52477,2.54043,0.832948,0.481214,1.11132,6.71575,8.8351,167.522,210.117
525,148.945,23.537,33.3047,101.077,0.0635696,0.995582,1.50789,5.33114,1.5501,1.52477,1.67819,1.2079,0.764057,1.27736,7.67427,8.6482,141.882,214.383
550,138.812,20.8906,28.7257,88.8905,3.7399,1.29939,1.84969,5.33114,1.5501,1.52477,2.54043,0.457996,0.622635,0.945271,7.67427,8.33671,133.026,217.857
575,145.708,24.3047,30.8381,80.6357,0.716802,2.42348,1.72057,4.52878,2.44879,2.33908,0.815948,0.832948,0.622635,1.11132,5.75724,7.98369,165.861,221.695
600,123.754,22.3857,27.6121,73.3118,1.10418,0.14492,0.839486,4.52878,0.651403,1.52477,2.54043,0.457996,0.764057,0.945271,6.71575,7.85909,139.994,225.305
625,120.341,23.9643,28.3923,68.0554,1.12697,0.053778,1.69019,3.72641,1.5501,3.15338,1.67819,0.832948,0.622635,1.11132,6.71575,7.50607,115.358,228.518
650,105.385,17.1522,21.8342,61.8653,0.245867,2.226,0.125505,5.33114,1.5501,2.33908,0.815948,0.457996,0.481214,1.27736,6.71575,7.3607,96.5986,231.24
675,101.497,15.7001,20.2357,56.1922,0.420569,0.858868,1.94844,5.33114,0.651403,3.15338,-0.0462949,0.832948,0.481214,0.945271,5.75724,7.17381,129.091,233.593
700,104.052,15.7932,19.6072,51.3745,0.633249,1.31458,1.01418,3.72641,0.651403,1.52477,0.815948,0.832948,0.339792,0.945271,5.75724,7.02845,85.0732,236.083
725,91.2864,16.4841,19.6508,49.3461,1.24091,0.517085,0.961015,5.33114,0.651403,0.710467,0.815948,0.832948,0.622635,1.11132,7.67427,6.67542,89.8876,238.653
750,84.4971,8.6173,12.5635,42.9978,1.66627,0.638608,1.31801,2.12169,1.5501,1.52477,0.815948,0.0830431,0.481214,1.11132,4.79872,6.15627,119.128,241.323
775,111.03,10.605,13.7081,41.2861,1.23331,0.691774,0.877464,2.92405,0.651403,-0.103837,-0.0462949,0.457996,0.339792,0.945271,4.79872,6.03167,99.7804,244.299
800,81.077,10.8398,14.0951,40.8074,0.230675,0.866463,0.292607,3.72641,1.5501,-0.103837,-0.0462949,-0.291909,0.339792,1.11132,4.79872,5.0349,75.8082,246.319
825,84.0975,14.5034,18.2071,44.3783,0.473739,0.927225,0.801508,2.92405,1.5501,0.710467,-0.0462949,0.457996,0.339792,1.11132,6.71575,4.88954,93.3681,248.319
850,85.1586,15.6902,20.9087,46.0542,0.64844,1.19306,1.69778,2.92405,0.651403,1.52477,0.815948,0.457996,0.339792,0.945271,3.8402,5.32563,99.6139,250.89
875,79.619,14.204,19.9601,45.0893,0.147123,0.433537,0.885059,2.12169,1.5501,1.52477,1.67819,0.0830431,0.339792,0.945271,4.79872,5.32563,104.335,253.309
900,72.3582,7.51939,11.964,39.2845,0.245867,0.858868,0.831891,1.31932,-1.14599,-0.103837,0.815948,1.2079,0.0569484,0.945271,3.8402,5.18026,87.5659,255.704
925,70.0173,8.55212,12.4985,38.2769,1.81059,0.965201,0.307798,2.92405,-1.14599,-0.103837,-0.0462949,0.0830431,0.481214,0.779224,4.79872,5.05567,89.7457,258.083
950,69.8522,8.29007,11.0149,37.5728,0.633249,1.48927,0.20146,2.92405,1.5501,-0.103837,0.815948,0.0830431,0.0569484,0.779224,3.8402,4.70264,65.1493,259.998
975,68.8126,7.91324,9.60669,36.1951,0.147123,0.152515,0.285011,2.12169,0.651403,0.710467,1.67819,0.0830431,0.339792,0.945271,4.79872,4.70264,84.1613,261.791
1000,54.3676,3.05236,6.0875,32.3353,-0.0351748,0.00820688,0.117909,0.516959,0.651403,0.710467,0.815948,0.0830431,0.0569484,1.27736,2.88169,4.47422,81.3178,263.911
1025,51.4156,3.2438,6.27886,31.0957,0.0407824,0.236063,0.505282,2.12169,0.651403,-0.103837,-0.0462949,-0.291909,0.19837,0.779224,3.8402,4.49498,60.8355,265.768
1050,44.5288,3.51181,6.39367,30.8701,0.38259,0.555061,0.368562,2.12169,0.651403,0.710467,-0.0462949,0.0830431,0.19837,0.779224,4.79872,4.32885,36.0053,267.01
1075,42.14,3.23814,4.7038,29.1338,0.0483781,-0.0221739,0.0647406,2.12169,0.651403,-0.103837,-0.908538,0.457996,0.19837,0.447131,4.79872,4.34962,39.9422,267.878
1100,37.9673,1.36209,2.71287,26.8343,0.0939525,0.053778,0.0799316,2.12169,0.651403,-0.103837,0.815948,0.457996,0.19837,0.779224,3.8402,4.16272,44.689,269.031
1125,31.0301,0.673008,1.79395,25.1726,0.268654,0.798107,0.376158,2.12169,1.5501,-0.103837,1.67819,0.832948,0.19837,0.613177,4.79872,4.18349,61.4,270.525
1150,34.255,0.0166318,1.214,23.919,-0.0959406,0.106944,0.057145,1.31932,0.651403,0.710467,0.815948,0.0830431,-0.0844734,0.779224,2.88169,4.18349,34.4026,271.685
1175,36.317,0.443333,1.48766,24.1516,0.678823,0.623417,1.37117,2.12169,-0.247292,-0.103837,-0.908538,0.457996,0.0569484,0.779224,2.88169,4.18349,28.392,272.349
1200,31.4474,0.673008,2.48313,24.492,0.0407824,0.12973,0.193865,0.516959,-1.14599,-0.103837,-0.0462949,0.0830431,0.339792,0.945271,2.88169,4.18349,31.4305,273.074
1225,26.0674,-0.43323,1.07218,22.7565,0.109144,0.236063,0.231843,1.31932,-0.247292,-0.103837,1.67819,0.0830431,0.0569484,0.779224,3.8402,4.01736,47.6723,274.025
1250,24.3828,-1.48519,-0.28005,21.305,0.154718,0.517085,0.171078,1.31932,0.651403,1.52477,-0.0462949,0.0830431,0.19837,0.779224,4.79872,3.9966,45.078,275.314
1275,23.9741,-1.60103,-0.780361,20.3944,0.177505,0.053778,0.0343584,-0.285404,-0.247292,0.710467,0.815948,0.0830431,0.19837,0.945271,4.79872,3.9966,31.347,276.284
1300,20.8122,-1.68399,-0.439588,20.0091,0.207888,0.547465,0.0723361,1.31932,0.651403,0.710467,-0.0462949,0.0830431,-0.0844734,0.945271,4.79872,3.83047,19.0848,276.981
1325,22.4284,-2.18653,-1.05581,19.4015,0.078761,0.714559,0.930633,1.31932,-1.14599,-0.918142,0.815948,0.0830431,0.0569484,0.945271,3.8402,4.03813,37.2722,277.553
1350,25.2988,-1.84996,-1.3758,18.4782,-0.0351748,-0.0449594,0.0723361,0.516959,-0.247292,1.52477,-0.0462949,0.0830431,0.0569484,0.945271,3.8402,3.83047,31.024,278.501
1375,18.5423,-4.94315,-0.478064,19.5154,-0.0123877,-0.0829354,0.0799316,2.12169,-1.14599,0.710467,1.67819,0.457996,0.19837,0.945271,3.8402,3.872,30.0261,279.178
1400,18.8279,-2.86199,-2.03826,17.788,-0.0503663,-0.0753402,0.0495495,1.31932,0.651403,-0.918142,0.815948,0.0830431,0.19837,0.779224,4.79872,3.872,4.29415,279.758
1425,23.8201,-2.59651,-1.65749,17.44,0.0103995,0.0233973,0.778722,1.31932,-0.247292,0.710467,-0.0462949,0.457996,0.0569484,0.779224,3.8402,3.85123,8.53386,279.869
1450,15.0901,-3.53294,-1.23858,17.5485,0.0179952,0.11454,0.125505,0.516959,0.651403,-0.103837,0.815948,0.0830431,-0.0844734,0.613177,3.8402,3.6851,0.0,280.016
1454,18.1136,-2.63524,-1.81204,16.755,-0.0503663,0.091754,0.360967,-0.285404,0.651403,-0.918142,-0.0462949,0.832948,0.19837,0.945271,3.8402,3.6851,0.0,280.016