File: 01_Data/Red_Accent_Chair/Furniture_Calorimeter/Red_Accent_Chair_R1.csv
Time (s),Convective HRR,TCPlume1,TCPlume2,TCPlume3,DPPlume1,DPPlume2,DPPlume3,HF1,HF2,HF3,HF4,HF5,HF6,RAD2,RAD1,Load Cell,Heat Release Rate,Total Heat Released
-120,0.0,-9.24685,-8.21615,9.25829,0.0365105,0.0781858,-0.0421266,1.35525,0.792967,-0.0752718,0.0797031,-0.642776,-0.028522,0.613177,3.8402,20.1111,0.0,0.0
-95,2.12838,-8.37889,-8.40748,8.95693,-0.0242553,0.00223388,-0.0573176,0.552889,0.792967,-0.0752718,0.0797031,0.482082,-0.028522,0.613177,2.88169,20.1111,0.0,0.0
-70,0.0,-8.35693,-8.42474,8.9401,-0.00146808,0.0705906,-0.0117444,0.552889,0.792967,1.55334,0.941946,-0.267823,-0.311366,0.945271,3.8402,20.0903,0.0,0.0
-45,0.0,-8.6822,-8.35782,8.62288,-0.0090638,-0.111694,0.0338289,-0.249474,-0.105729,0.739033,0.0797031,-0.267823,0.1129,0.447131,2.88169,20.2565,0.0,0.0
-20,0.0,-7.96029,-8.2632,8.56218,-0.0622339,0.0174243,-0.0876998,0.552889,-1.00442,-0.889576,-0.78254,0.107129,0.1129,0.613177,3.8402,20.1111,0.0,0.0
5,0.14185,-8.84597,-7.93347,8.65449,0.0365105,0.00982907,-0.0876998,-0.249474,0.792967,0.739033,0.0797031,-0.267823,-0.169944,0.613177,2.88169,20.298,0.0,0.0
30,0.0,-7.72056,-8.10172,8.56676,0.0365105,0.0250194,0.0414244,-1.05184,-1.00442,-0.889576,-0.78254,-0.267823,0.254322,0.281084,3.8402,20.3188,0.0,0.0
55,0.0,-9.31236,-7.96798,9.34751,0.0213191,-0.0813132,-0.0269355,-0.249474,-0.105729,-0.0752718,-0.78254,0.482082,-0.169944,0.779224,2.88169,20.0903,0.0,0.0
80,0.0,-7.99011,-7.54861,9.14507,0.0972763,0.100971,0.0262334,0.552889,0.792967,0.739033,0.0797031,0.107129,-0.028522,0.779224,3.8402,19.9657,4.12484,0.0171226
105,9.65562,-7.0677,-7.48755,9.05174,-0.0166595,-0.0585276,-0.0193399,1.35525,0.792967,-0.0752718,0.0797031,0.482082,0.1129,0.945271,3.8402,20.0903,9.13012,0.12901
130,21.8339,-1.6457,-4.50453,9.90879,0.674551,0.222494,-0.0269355,2.15762,0.792967,-0.0752718,1.80419,0.857034,0.254322,0.779224,4.79872,20.1734,87.412,1.35985
155,47.8265,-1.70701,-3.24501,11.4532,0.104872,0.427564,0.155358,2.15762,-0.105729,-0.889576,0.0797031,0.107129,0.254322,1.11132,3.8402,19.9657,229.358,4.75117
180,139.953,15.4602,9.70859,22.5163,0.355531,-0.0661228,0.550326,5.36707,2.59036,3.18195,2.66643,1.23199,1.24427,1.60946,8.63279,19.405,366.683,12.8709
205,200.341,27.1093,25.2331,38.2104,2.23927,0.951633,4.40127,8.57652,4.38775,3.99625,2.66643,2.35684,1.3857,2.1076,11.5083,18.969,458.15,23.0677
230,257.138,51.0876,56.8907,60.8549,4.86739,4.04287,1.97829,12.5883,5.28644,4.81055,4.39092,3.4817,2.37565,2.60574,15.3424,18.3044,739.888,37.7897
255,433.563,90.9985,97.0846,92.4083,3.88754,3.23778,4.07466,22.2167,9.77992,8.88208,6.97765,5.73142,4.21413,4.26621,23.9691,17.4738,1224.35,61.6664
280,657.057,124.257,151.283,174.977,8.08798,4.52897,10.2878,35.0545,14.2734,14.5822,12.1511,9.10599,6.19404,6.09272,32.5957,15.9579,1223.92,92.727
305,691.329,151.121,191.758,253.041,3.05201,2.70612,14.8224,36.6592,12.476,13.7679,11.2889,8.73103,5.76977,5.59458,35.4713,14.3381,1242.31,122.658
330,704.86,169.08,238.949,352.578,1.51008,9.72408,8.36614,42.2758,15.1721,13.7679,12.1511,8.73103,6.05261,6.09272,39.3053,12.9676,925.657,148.588
355,560.764,141.937,203.214,340.808,6.0903,2.93398,5.35071,38.264,9.77992,12.9536,12.1511,6.10637,4.35555,4.5983,33.5542,11.5139,673.637,168.425
380,446.053,110.194,153.954,290.354,4.18378,6.51131,5.22159,21.4143,4.38775,6.43916,8.70213,3.4817,2.51707,2.43969,20.135,10.974,337.105,181.254
405,335.04,71.364,101.431,225.411,2.35321,1.40734,4.10504,10.9836,3.48905,3.18195,4.39092,1.98189,1.24427,1.60946,8.63279,10.4756,189.069,187.933
430,211.325,45.4318,67.8868,177.654,0.841657,4.52137,3.42144,7.77416,3.48905,2.36764,2.66643,1.23199,0.96143,1.11132,7.67427,10.1434,106.759,191.617
455,167.829,33.1301,51.0766,146.421,1.88227,2.7441,2.11501,6.9718,2.59036,3.18195,1.80419,0.857034,0.678587,1.27736,6.71575,9.8734,121.511,194.496
480,148.958,27.635,42.0627,121.742,1.6544,0.928847,2.73025,5.36707,2.59036,2.36764,0.941946,1.23199,0.820009,1.27736,6.71575,9.64498,133.02,197.887
505,145.043,19.961,31.8657,102.356,1.73036,0.154138,0.740215,5.36707,-0.105729,1.55334,0.941946,0.857034,0.537165,1.27736,5.75724,9.31272,153.446,201.535
530,136.418,19.234,29.0026,90.5206,1.13789,2.46308,1.55294,5.36707,1.69166,0.739033,2.66643,0.857034,0.678587,0.945271,7.67427,9.04276,130.246,204.857
555,127.566,19.4563,27.4523,80.2341,0.340339,2.03015,1.87955,5.36707,1.69166,1.55334,1.80419,0.857034,0.678587,0.945271,5.75724,8.8351,121.941,207.907
580,149.285,20.8605,29.1853,76.7132,3.11278,6.04041,3.91515,5.36707,0.792967,2.36764,2.66643,0.857034,0.395743,1.11132,7.67427,8.50284,113.504,210.977
605,136.263,19.5702,25.4143,69.7451,0.158042,0.936442,2.2973,5.36707,0.792967,1.55334,0.941946,1.23199,0.678587,0.945271,5.75724,8.33671,137.706,214.026
630,131.873,19.8304,24.8419,64.7113,1.96582,1.0048,1.05923,3.76234,1.69166,0.739033,1.80419,0.857034,0.678587,1.11132,5.75724,8.00445,136.814,217.397
655,127.173,14.733,18.7021,57.3936,2.28484,2.82764,0.368033,6.16943,0.792967,1.55334,1.80419,0.482082,0.820009,1.11132,5.75724,7.69296,140.749,220.713
680,118.416,12.7555,16.9965,52.2727,0.910019,0.807324,0.147762,4.56471,2.59036,2.36764,0.0797031,0.857034,0.537165,0.945271,6.71575,7.65143,123.869,223.896
705,113.381,12.6949,16.7839,49.6634,0.530233,2.15927,0.345246,3.76234,0.792967,2.36764,1.80419,0.482082,0.537165,0.945271,4.79872,7.31917,121.144,227.038
730,116.266,12.6736,16.2678,47.9028,2.05697,2.12889,2.76823,2.95998,-0.105729,0.739033,1.80419,0.857034,0.678587,1.27736,6.71575,7.23611,111.902,230.107
755,105.777,12.2099,13.8616,44.7078,0.188425,1.36177,0.299673,3.76234,-0.105729,0.739033,0.941946,0.482082,0.395743,0.779224,5.75724,7.17381,72.3711,232.37
780,89.754,8.91296,12.2861,41.462,1.59363,0.43516,0.732619,3.76234,2.59036,2.36764,0.941946,-0.267823,0.395743,0.945271,4.79872,7.04921,96.4977,234.468
805,103.558,11.0644,12.679,39.4234,1.91265,1.33899,2.8062,2.95998,1.69166,1.55334,1.80419,0.482082,0.395743,0.779224,5.75724,6.67542,85.5293,236.897
830,85.0385,12.989,17.6097,42.5675,3.37863,0.989608,1.64408,3.76234,0.792967,-0.0752718,2.66643,0.857034,0.537165,0.779224,3.8402,6.50929,133.326,240.022
855,117.858,13.5612,15.6305,41.5627,0.644168,0.0250194,0.155358,4.56471,-0.105729,-0.0752718,0.0797031,0.857034,0.537165,1.27736,5.75724,6.36393,164.719,244.058
880,120.258,13.7575,16.7402,39.2577,1.57085,0.951633,0.102189,5.36707,1.69166,0.739033,1.80419,0.482082,0.678587,1.11132,8.63279,6.01091,155.067,248.419
905,113.181,8.51371,9.51873,35.0608,0.127659,-0.0585276,0.0718066,2.15762,0.792967,1.55334,0.941946,0.482082,0.537165,1.27736,7.67427,5.82401,154.616,252.206
930,98.4834,8.39898,9.93919,35.5849,0.104872,0.237685,1.72004,2.95998,2.59036,1.55334,0.941946,0.857034,0.678587,1.11132,5.75724,5.72018,143.723,255.625
955,93.4547,10.4902,12.945,35.761,0.309957,0.625039,0.39082,2.95998,1.69166,0.739033,0.941946,0.857034,0.395743,1.11132,5.75724,5.67865,127.558,258.881
980,105.187,6.96108,9.99316,34.0647,0.180829,-0.0129565,0.276886,2.95998,0.792967,1.55334,-0.78254,0.857034,0.395743,0.945271,5.75724,5.36716,123.236,261.829
1005,88.0238,6.80803,9.99316,34.1022,0.788487,0.146542,3.39866,2.15762,0.792967,1.55334,0.0797031,0.482082,0.395743,0.779224,3.8402,5.34639,109.333,264.717
1030,75.1578,8.33262,11.6685,35.4826,0.385914,0.161733,0.823766,2.15762,0.792967,-0.0752718,1.80419,0.857034,0.254322,0.779224,5.75724,5.01413,114.216,267.568
1055,73.9272,5.96048,8.61122,32.5589,0.583403,1.52127,0.216122,2.95998,0.792967,0.739033,1.80419,0.482082,0.254322,0.945271,5.75724,5.01413,127.204,270.344
1080,70.6564,5.18369,7.72025,32.4353,0.158042,2.00736,1.67447,1.35525,-0.105729,1.55334,0.941946,0.107129,0.395743,0.779224,3.8402,4.86877,107.786,272.913
1105,66.727,3.64109,5.4512,30.4704,0.104872,0.0933762,0.231313,1.35525,0.792967,1.55334,-0.78254,0.482082,0.254322,1.11132,5.75724,4.84801,122.686,275.624
1130,67.4586,3.18165,4.03472,28.2869,-0.00146808,-0.0205517,-0.0497221,1.35525,0.792967,0.739033,1.80419,0.482082,0.254322,0.613177,3.8402,4.72341,98.3302,278.289
1155,59.4348,3.46543,6.07938,29.9216,1.25183,0.913657,0.436393,2.15762,-0.105729,-0.0752718,-0.78254,0.482082,0.1129,0.779224,4.79872,4.70264,89.8375,280.696
1180,54.1118,1.27745,2.55162,26.5996,0.0668934,-0.00536131,0.0945933,2.15762,-0.105729,0.739033,0.0797031,0.107129,0.254322,0.945271,4.79872,4.55728,83.1839,282.699
1205,53.2634,0.550103,2.16873,25.8067,0.203616,0.0250194,0.292077,1.35525,0.792967,0.739033,0.941946,-0.267823,0.395743,0.779224,3.8402,4.51575,79.2862,284.819
1230,46.0415,-1.08593,2.52909,25.9356,0.0365105,-0.0433373,0.519944,-0.249474,0.792967,0.739033,0.941946,0.107129,0.254322,0.779224,2.88169,4.51575,68.8696,286.798
1255,36.3218,0.412748,1.45704,24.8397,0.241595,0.0174243,0.11738,1.35525,0.792967,0.739033,0.941946,0.107129,-0.028522,0.779224,3.8402,4.49498,77.6769,288.523
1280,39.9043,-0.310139,0.92669,23.4833,0.515041,0.306041,0.223718,2.15762,-0.105729,-0.0752718,-1.64478,0.107129,0.395743,0.613177,4.79872,4.32885,80.4739,290.423
1305,36.8841,-1.35594,0.00234967,22.9856,0.173234,0.154138,0.398415,1.35525,0.792967,0.739033,-0.78254,0.482082,0.1129,0.945271,3.8402,4.16272,70.1431,292.206
1330,34.9242,-1.95804,1.58766,23.0011,0.287169,1.0048,0.276886,2.15762,0.792967,-0.0752718,1.80419,0.857034,0.1129,0.613177,3.8402,4.20426,72.3671,294.034
1355,35.8736,-0.421009,0.471809,21.7831,0.218808,0.65542,0.246504,0.552889,-0.105729,0.739033,0.0797031,0.857034,-0.028522,0.779224,4.79872,4.20426,66.2378,295.876
1380,33.1658,-2.1514,-0.943729,20.8025,-0.00146808,0.0326146,-0.034531,0.552889,0.792967,-0.0752718,0.0797031,0.107129,0.537165,0.613177,4.79872,4.20426,62.314,297.484
1405,32.8061,-2.71046,-1.57802,19.229,-0.0090638,-0.111694,0.990868,2.15762,0.792967,1.55334,0.0797031,-0.267823,0.1129,0.447131,3.8402,4.18349,69.4896,299.11
1430,30.9644,-2.7549,-2.31824,18.9574,-0.0774253,0.00982907,0.147762,1.35525,1.69166,-0.0752718,0.0797031,-0.267823,0.254322,0.779224,2.88169,4.16272,79.3637,300.837
1455,34.6465,-3.10949,-2.40135,18.6098,0.0592977,0.0933762,0.178144,0.552889,0.792967,-0.0752718,0.941946,0.482082,0.254322,0.613177,4.79872,4.03813,73.2853,302.52
1480,31.3254,-3.31488,-2.60635,18.1804,0.0896806,-0.0281469,0.0110423,0.552889,-0.105729,-0.0752718,1.80419,0.482082,0.537165,0.613177,4.79872,4.01736,0.0,303.554
1486,29.6154,-3.3925,-2.60635,18.0663,0.0896806,0.26047,0.140167,2.95998,0.792967,0.739033,0.0797031,0.482082,0.395743,0.613177,4.79872,4.03813,0.0,303.554