File: 01_Data/Vinyl_Siding/FTIR/IS/Vinyl_Siding_IS_S_220914_R7.dpt
7497.03,0.75657
7473.89,0.76000
7450.74,0.75691
7427.6,0.74588
7404.45,0.74265
7381.31,0.73439
7358.16,0.72913
7335.02,0.71263
7311.87,0.69526
7288.73,0.67216
7265.58,0.65070
7242.44,0.62620
7219.29,0.61214
7196.15,0.61248
7173,0.60495
7149.86,0.60370
7126.71,0.59263
7103.57,0.59378
7080.42,0.58307
7057.28,0.58800
7034.13,0.57981
7010.99,0.58182
6987.84,0.58237
6964.7,0.59998
6941.55,0.61200
6918.41,0.61961
6895.26,0.62031
6872.12,0.62924
6848.97,0.63604
6825.83,0.63743
6802.68,0.63795
6779.54,0.64434
6756.39,0.64720
6733.25,0.64195
6710.1,0.64957
6686.96,0.65120
6663.82,0.65298
6640.67,0.66177
6617.53,0.65815
6594.38,0.66433
6571.24,0.66154
6548.09,0.66237
6524.95,0.66442
6501.8,0.66544
6478.66,0.66179
6455.51,0.66841
6432.37,0.66993
6409.22,0.67093
6386.08,0.66877
6362.93,0.67428
6339.79,0.66635
6316.64,0.67065
6293.5,0.66725
6270.35,0.66425
6247.21,0.66480
6224.06,0.66478
6200.92,0.66465
6177.77,0.65820
6154.63,0.64840
6131.48,0.63247
6108.34,0.62627
6085.19,0.61981
6062.05,0.62056
6038.9,0.59720
6015.76,0.53938
5992.61,0.47875
5969.47,0.43060
5946.32,0.41270
5923.18,0.38448
5900.03,0.33999
5876.89,0.31418
5853.74,0.29382
5830.6,0.28408
5807.45,0.29208
5784.31,0.31092
5761.16,0.31903
5738.02,0.30533
5714.87,0.29905
5691.73,0.30851
5668.58,0.32819
5645.44,0.33933
5622.29,0.34649
5599.15,0.35497
5576,0.36425
5552.86,0.37177
5529.71,0.37528
5506.57,0.37905
5483.42,0.37699
5460.28,0.37395
5437.13,0.38092
5413.99,0.38602
5390.84,0.38837
5367.7,0.39412
5344.55,0.40558
5321.41,0.41375
5298.26,0.41604
5275.12,0.40621
5251.97,0.38694
5228.83,0.39970
5205.68,0.39839
5182.54,0.39502
5159.39,0.39046
5136.25,0.38546
5113.1,0.39825
5089.96,0.40383
5066.81,0.40916
5043.67,0.41157
5020.52,0.41506
4997.38,0.41552
4974.23,0.41313
4951.09,0.41419
4927.94,0.41284
4904.8,0.40786
4881.65,0.40029
4858.51,0.39536
4835.36,0.39890
4812.22,0.39967
4789.07,0.39888
4765.93,0.39386
4742.78,0.39014
4719.64,0.37610
4696.49,0.35674
4673.35,0.28959
4650.2,0.30764
4627.06,0.28680
4603.92,0.29086
4580.77,0.31317
4557.63,0.33136
4534.48,0.33380
4511.34,0.32300
4488.19,0.30642
4465.05,0.27444
4441.9,0.22824
4418.76,0.18746
4395.61,0.15417
4372.47,0.13350
4349.32,0.12596
4326.18,0.13132
4303.03,0.13381
4279.89,0.12766
4256.74,0.12291
4233.6,0.12395
4210.45,0.12404
4187.31,0.12659
4164.16,0.12845
4141.02,0.12964
4117.87,0.12837
4094.73,0.12422
4071.58,0.11368
4048.44,0.10950
4025.29,0.11606
4002.15,0.12818
3979,0.13517
3955.86,0.13885
3932.71,0.13865
3909.57,0.14048
3886.42,0.14174
3863.28,0.14121
3840.13,0.14004
3816.99,0.14064
3793.84,0.14550
3770.7,0.14864
3747.55,0.15108
3724.41,0.15190
3701.26,0.13810
3678.12,0.11631
3654.97,0.10597
3631.83,0.10524
3608.68,0.10400
3585.54,0.10292
3562.39,0.09898
3539.25,0.09486
3516.1,0.09402
3492.96,0.09319
3469.81,0.09009
3446.67,0.08405
3423.52,0.08682
3400.38,0.08628
3377.23,0.08384
3354.09,0.07771
3330.94,0.06853
3307.8,0.06002
3284.65,0.06666
3261.51,0.07313
3238.36,0.07779
3215.22,0.07845
3192.07,0.07881
3168.93,0.07961
3145.78,0.08040
3122.64,0.07770
3099.49,0.06636
3076.35,0.06018
3053.2,0.05851
3030.06,0.05476
3006.91,0.05988
2983.77,0.05650
2960.62,0.05184
2937.48,0.05434
2914.33,0.05986
2891.19,0.05842
2868.04,0.05722
2844.9,0.06261
2821.75,0.06781
2798.61,0.07059
2775.46,0.07281
2752.32,0.07352
2729.17,0.07312
2706.03,0.07452
2682.88,0.07429
2659.74,0.07482
2636.59,0.07384
2613.45,0.07396
2590.3,0.07339
2567.16,0.07355
2544.02,0.07330
2520.87,0.07238
2497.73,0.07258
2474.58,0.07371
2451.44,0.07462
2428.29,0.07473
2405.15,0.07422
2382,0.07529
2358.86,0.07444
2335.71,0.07248
2312.57,0.07430
2289.42,0.07498
2266.28,0.07319
2243.13,0.05698
2219.99,0.07696
2196.84,0.08122
2173.7,0.08267
2150.55,0.08234
2127.41,0.08408
2104.26,0.08877
2081.12,0.08944
2057.97,0.08655
2034.83,0.08318
2011.68,0.08310
1988.54,0.07787
1965.39,0.07101
1942.25,0.07266
1919.1,0.08143
1895.96,0.07362
1872.81,0.07292
1849.67,0.08259
1826.52,0.07050
1803.38,0.06027
1780.23,0.06006
1757.09,0.05213
1733.94,0.05372
1710.8,0.05812
1687.65,0.05864
1664.51,0.05888
1641.36,0.05857
1618.22,0.06024
1595.07,0.05760
1571.93,0.05785
1548.78,0.05462
1525.64,0.05867
1502.49,0.05402
1479.35,0.05329
1456.2,0.05029
1433.06,0.05657
1409.91,0.05638
1386.77,0.05363
1363.62,0.05368
1340.48,0.05348
1317.33,0.05336
1294.19,0.05285
1271.04,0.05153
1247.9,0.05331
1224.75,0.05383
1201.61,0.05274
1178.46,0.05166
1155.32,0.06051
1132.17,0.05812
1109.03,0.05691
1085.88,0.05550
1062.74,0.05595
1039.59,0.05542
1016.45,0.05600
993.304,0.05652
970.159,0.05468
947.014,0.05425
923.869,0.05444
900.724,0.05427
877.579,0.05433
854.434,0.05269
831.289,0.05277
808.144,0.05223
784.999,0.04810
761.854,0.05016
738.709,0.05310
715.565,0.04390
692.42,0.06762
669.275,0.05666
646.13,0.05471
622.985,0.05239
599.84,0.05215