File: 01_Data/Vinyl_Siding/FTIR/IS/Vinyl_Siding_IS_S_220914_R6.dpt
7497.03,0.75621
7473.89,0.74921
7450.74,0.74003
7427.6,0.74374
7404.45,0.74348
7381.31,0.72744
7358.16,0.72395
7335.02,0.72019
7311.87,0.69486
7288.73,0.67052
7265.58,0.65288
7242.44,0.63798
7219.29,0.61177
7196.15,0.61573
7173,0.60416
7149.86,0.59941
7126.71,0.59328
7103.57,0.59420
7080.42,0.58160
7057.28,0.58344
7034.13,0.57593
7010.99,0.57935
6987.84,0.58263
6964.7,0.59822
6941.55,0.60464
6918.41,0.61292
6895.26,0.62262
6872.12,0.62756
6848.97,0.63258
6825.83,0.63105
6802.68,0.63617
6779.54,0.63203
6756.39,0.64494
6733.25,0.64563
6710.1,0.64571
6686.96,0.64458
6663.82,0.65234
6640.67,0.65858
6617.53,0.65388
6594.38,0.65885
6571.24,0.65887
6548.09,0.65432
6524.95,0.66112
6501.8,0.65646
6478.66,0.66399
6455.51,0.66703
6432.37,0.66505
6409.22,0.67088
6386.08,0.66715
6362.93,0.66555
6339.79,0.66738
6316.64,0.66580
6293.5,0.66222
6270.35,0.65921
6247.21,0.66234
6224.06,0.66145
6200.92,0.65849
6177.77,0.65420
6154.63,0.64276
6131.48,0.63135
6108.34,0.62139
6085.19,0.61214
6062.05,0.61485
6038.9,0.59327
6015.76,0.53488
5992.61,0.47460
5969.47,0.42514
5946.32,0.41046
5923.18,0.38239
5900.03,0.33663
5876.89,0.31017
5853.74,0.29271
5830.6,0.28189
5807.45,0.28965
5784.31,0.30838
5761.16,0.31829
5738.02,0.30456
5714.87,0.29899
5691.73,0.30449
5668.58,0.32646
5645.44,0.33867
5622.29,0.34511
5599.15,0.35246
5576,0.36257
5552.86,0.37045
5529.71,0.37355
5506.57,0.37635
5483.42,0.37318
5460.28,0.37207
5437.13,0.37880
5413.99,0.38360
5390.84,0.38643
5367.7,0.39160
5344.55,0.40334
5321.41,0.41015
5298.26,0.41365
5275.12,0.40358
5251.97,0.38554
5228.83,0.39635
5205.68,0.39701
5182.54,0.39176
5159.39,0.38576
5136.25,0.38441
5113.1,0.39575
5089.96,0.40169
5066.81,0.40619
5043.67,0.41052
5020.52,0.41331
4997.38,0.41360
4974.23,0.41096
4951.09,0.41111
4927.94,0.41041
4904.8,0.40524
4881.65,0.39760
4858.51,0.39255
4835.36,0.39628
4812.22,0.39873
4789.07,0.39785
4765.93,0.38963
4742.78,0.38696
4719.64,0.37462
4696.49,0.35299
4673.35,0.28699
4650.2,0.30594
4627.06,0.28496
4603.92,0.28962
4580.77,0.31069
4557.63,0.32882
4534.48,0.33220
4511.34,0.32058
4488.19,0.30515
4465.05,0.27319
4441.9,0.22725
4418.76,0.18553
4395.61,0.15255
4372.47,0.13230
4349.32,0.12591
4326.18,0.13035
4303.03,0.13267
4279.89,0.12724
4256.74,0.12204
4233.6,0.12305
4210.45,0.12323
4187.31,0.12654
4164.16,0.12767
4141.02,0.12873
4117.87,0.12700
4094.73,0.12339
4071.58,0.11278
4048.44,0.10909
4025.29,0.11541
4002.15,0.12779
3979,0.13448
3955.86,0.13780
3932.71,0.13854
3909.57,0.13959
3886.42,0.14034
3863.28,0.14084
3840.13,0.13974
3816.99,0.14022
3793.84,0.14458
3770.7,0.14805
3747.55,0.15095
3724.41,0.15073
3701.26,0.13725
3678.12,0.11509
3654.97,0.10402
3631.83,0.10344
3608.68,0.10293
3585.54,0.10148
3562.39,0.09768
3539.25,0.09410
3516.1,0.09334
3492.96,0.09258
3469.81,0.08979
3446.67,0.08168
3423.52,0.08619
3400.38,0.08640
3377.23,0.08237
3354.09,0.07693
3330.94,0.06842
3307.8,0.05970
3284.65,0.06598
3261.51,0.07219
3238.36,0.07776
3215.22,0.07850
3192.07,0.07906
3168.93,0.07980
3145.78,0.08054
3122.64,0.07753
3099.49,0.06588
3076.35,0.05985
3053.2,0.05899
3030.06,0.05465
3006.91,0.05941
2983.77,0.05631
2960.62,0.05191
2937.48,0.05430
2914.33,0.05995
2891.19,0.05835
2868.04,0.05658
2844.9,0.06253
2821.75,0.06753
2798.61,0.07044
2775.46,0.07260
2752.32,0.07356
2729.17,0.07275
2706.03,0.07431
2682.88,0.07381
2659.74,0.07459
2636.59,0.07348
2613.45,0.07314
2590.3,0.07310
2567.16,0.07299
2544.02,0.07308
2520.87,0.07213
2497.73,0.07191
2474.58,0.07341
2451.44,0.07396
2428.29,0.07415
2405.15,0.07446
2382,0.07481
2358.86,0.07408
2335.71,0.07233
2312.57,0.07437
2289.42,0.07435
2266.28,0.07298
2243.13,0.05661
2219.99,0.07659
2196.84,0.08128
2173.7,0.08207
2150.55,0.08205
2127.41,0.08353
2104.26,0.08865
2081.12,0.08864
2057.97,0.08587
2034.83,0.08309
2011.68,0.08254
1988.54,0.07771
1965.39,0.07112
1942.25,0.07209
1919.1,0.08084
1895.96,0.07295
1872.81,0.07233
1849.67,0.08175
1826.52,0.07009
1803.38,0.06056
1780.23,0.05971
1757.09,0.05223
1733.94,0.05333
1710.8,0.05860
1687.65,0.05885
1664.51,0.05843
1641.36,0.05814
1618.22,0.06005
1595.07,0.05747
1571.93,0.05725
1548.78,0.05451
1525.64,0.05848
1502.49,0.05424
1479.35,0.05370
1456.2,0.05058
1433.06,0.05643
1409.91,0.05579
1386.77,0.05310
1363.62,0.05356
1340.48,0.05328
1317.33,0.05284
1294.19,0.05209
1271.04,0.05147
1247.9,0.05286
1224.75,0.05352
1201.61,0.05229
1178.46,0.05159
1155.32,0.06009
1132.17,0.05737
1109.03,0.05674
1085.88,0.05490
1062.74,0.05528
1039.59,0.05494
1016.45,0.05693
993.304,0.05576
970.159,0.05469
947.014,0.05461
923.869,0.05459
900.724,0.05446
877.579,0.05364
854.434,0.05227
831.289,0.05290
808.144,0.05134
784.999,0.04844
761.854,0.05077
738.709,0.05321
715.565,0.04363
692.42,0.06717
669.275,0.05698
646.13,0.05579
622.985,0.05572
599.84,0.05379