File: 01_Data/Vinyl_Siding/FTIR/IS/Vinyl_Siding_IS_S_220914_R8.dpt
7497.03,0.74786
7473.89,0.75413
7450.74,0.74040
7427.6,0.74638
7404.45,0.74981
7381.31,0.74215
7358.16,0.72628
7335.02,0.71665
7311.87,0.69706
7288.73,0.67668
7265.58,0.65423
7242.44,0.62921
7219.29,0.61300
7196.15,0.61028
7173,0.60771
7149.86,0.59390
7126.71,0.58732
7103.57,0.58860
7080.42,0.58233
7057.28,0.57866
7034.13,0.58546
7010.99,0.58282
6987.84,0.58223
6964.7,0.60229
6941.55,0.60599
6918.41,0.60825
6895.26,0.61997
6872.12,0.63292
6848.97,0.63435
6825.83,0.63262
6802.68,0.63374
6779.54,0.64381
6756.39,0.63980
6733.25,0.64616
6710.1,0.64784
6686.96,0.65145
6663.82,0.65407
6640.67,0.65609
6617.53,0.65885
6594.38,0.65528
6571.24,0.65596
6548.09,0.65799
6524.95,0.65868
6501.8,0.66301
6478.66,0.65883
6455.51,0.66234
6432.37,0.67030
6409.22,0.66980
6386.08,0.66719
6362.93,0.66699
6339.79,0.66696
6316.64,0.66600
6293.5,0.66282
6270.35,0.66174
6247.21,0.66720
6224.06,0.66343
6200.92,0.66245
6177.77,0.65649
6154.63,0.64294
6131.48,0.62522
6108.34,0.62100
6085.19,0.61784
6062.05,0.62037
6038.9,0.59419
6015.76,0.53518
5992.61,0.47336
5969.47,0.42786
5946.32,0.41059
5923.18,0.38308
5900.03,0.33767
5876.89,0.30992
5853.74,0.29372
5830.6,0.27999
5807.45,0.28861
5784.31,0.30724
5761.16,0.31623
5738.02,0.30723
5714.87,0.29916
5691.73,0.30491
5668.58,0.32442
5645.44,0.33723
5622.29,0.34656
5599.15,0.35178
5576,0.36373
5552.86,0.37129
5529.71,0.37587
5506.57,0.37855
5483.42,0.37361
5460.28,0.37339
5437.13,0.38006
5413.99,0.38441
5390.84,0.38554
5367.7,0.39176
5344.55,0.40469
5321.41,0.41079
5298.26,0.41398
5275.12,0.40583
5251.97,0.38772
5228.83,0.39750
5205.68,0.39677
5182.54,0.39534
5159.39,0.38794
5136.25,0.38543
5113.1,0.39673
5089.96,0.40205
5066.81,0.40475
5043.67,0.41020
5020.52,0.41460
4997.38,0.41285
4974.23,0.41245
4951.09,0.41320
4927.94,0.41077
4904.8,0.40695
4881.65,0.39804
4858.51,0.39326
4835.36,0.39725
4812.22,0.39985
4789.07,0.39647
4765.93,0.39133
4742.78,0.38634
4719.64,0.37562
4696.49,0.35463
4673.35,0.28703
4650.2,0.30666
4627.06,0.28651
4603.92,0.29043
4580.77,0.31105
4557.63,0.33109
4534.48,0.33337
4511.34,0.32078
4488.19,0.30548
4465.05,0.27370
4441.9,0.22848
4418.76,0.18667
4395.61,0.15440
4372.47,0.13191
4349.32,0.12492
4326.18,0.13142
4303.03,0.13416
4279.89,0.12737
4256.74,0.12273
4233.6,0.12396
4210.45,0.12392
4187.31,0.12640
4164.16,0.12912
4141.02,0.12910
4117.87,0.12722
4094.73,0.12355
4071.58,0.11325
4048.44,0.10907
4025.29,0.11575
4002.15,0.12820
3979,0.13442
3955.86,0.13821
3932.71,0.13791
3909.57,0.13985
3886.42,0.13983
3863.28,0.14111
3840.13,0.13974
3816.99,0.14058
3793.84,0.14529
3770.7,0.14813
3747.55,0.15111
3724.41,0.15211
3701.26,0.13833
3678.12,0.11672
3654.97,0.10630
3631.83,0.10666
3608.68,0.10518
3585.54,0.10280
3562.39,0.09941
3539.25,0.09550
3516.1,0.09429
3492.96,0.09323
3469.81,0.09071
3446.67,0.08375
3423.52,0.08692
3400.38,0.08677
3377.23,0.08416
3354.09,0.07718
3330.94,0.06758
3307.8,0.05898
3284.65,0.06634
3261.51,0.07268
3238.36,0.07827
3215.22,0.07905
3192.07,0.07876
3168.93,0.08003
3145.78,0.08083
3122.64,0.07750
3099.49,0.06611
3076.35,0.05977
3053.2,0.05833
3030.06,0.05366
3006.91,0.05932
2983.77,0.05601
2960.62,0.05157
2937.48,0.05447
2914.33,0.06019
2891.19,0.05814
2868.04,0.05687
2844.9,0.06209
2821.75,0.06784
2798.61,0.07046
2775.46,0.07242
2752.32,0.07304
2729.17,0.07260
2706.03,0.07403
2682.88,0.07407
2659.74,0.07424
2636.59,0.07376
2613.45,0.07381
2590.3,0.07303
2567.16,0.07339
2544.02,0.07315
2520.87,0.07203
2497.73,0.07197
2474.58,0.07344
2451.44,0.07442
2428.29,0.07458
2405.15,0.07408
2382,0.07495
2358.86,0.07406
2335.71,0.07263
2312.57,0.07431
2289.42,0.07465
2266.28,0.07278
2243.13,0.05729
2219.99,0.07672
2196.84,0.08113
2173.7,0.08233
2150.55,0.08216
2127.41,0.08400
2104.26,0.08866
2081.12,0.08959
2057.97,0.08639
2034.83,0.08304
2011.68,0.08256
1988.54,0.07770
1965.39,0.07128
1942.25,0.07251
1919.1,0.08116
1895.96,0.07329
1872.81,0.07271
1849.67,0.08175
1826.52,0.06992
1803.38,0.06027
1780.23,0.05957
1757.09,0.05254
1733.94,0.05357
1710.8,0.05819
1687.65,0.05897
1664.51,0.05864
1641.36,0.05852
1618.22,0.06012
1595.07,0.05766
1571.93,0.05736
1548.78,0.05459
1525.64,0.05855
1502.49,0.05419
1479.35,0.05344
1456.2,0.05054
1433.06,0.05670
1409.91,0.05572
1386.77,0.05376
1363.62,0.05353
1340.48,0.05341
1317.33,0.05272
1294.19,0.05251
1271.04,0.05153
1247.9,0.05286
1224.75,0.05372
1201.61,0.05254
1178.46,0.05253
1155.32,0.05992
1132.17,0.05753
1109.03,0.05622
1085.88,0.05493
1062.74,0.05611
1039.59,0.05531
1016.45,0.05714
993.304,0.05549
970.159,0.05474
947.014,0.05524
923.869,0.05440
900.724,0.05456
877.579,0.05459
854.434,0.05222
831.289,0.05247
808.144,0.05179
784.999,0.04876
761.854,0.04927
738.709,0.05297
715.565,0.04370
692.42,0.06768
669.275,0.05671
646.13,0.05610
622.985,0.05300
599.84,0.05300