File: 01_Data/Vinyl_Siding/FTIR/IS/Vinyl_Siding_IS_T_220914_R1.dpt
7497.03,0.02946
7473.89,0.03226
7450.74,0.02549
7427.6,0.01725
7404.45,0.02525
7381.31,0.03264
7358.16,0.02520
7335.02,0.02054
7311.87,0.02471
7288.73,0.01877
7265.58,0.02962
7242.44,0.03182
7219.29,0.02801
7196.15,0.02779
7173,0.02824
7149.86,0.01810
7126.71,0.02056
7103.57,0.02673
7080.42,0.02448
7057.28,0.01951
7034.13,0.02697
7010.99,0.02345
6987.84,0.02519
6964.7,0.02950
6941.55,0.01978
6918.41,0.02972
6895.26,0.02248
6872.12,0.02720
6848.97,0.02801
6825.83,0.02523
6802.68,0.02134
6779.54,0.01984
6756.39,0.01735
6733.25,0.02320
6710.1,0.02281
6686.96,0.02455
6663.82,0.02283
6640.67,0.02262
6617.53,0.02169
6594.38,0.02088
6571.24,0.02436
6548.09,0.02117
6524.95,0.02438
6501.8,0.02232
6478.66,0.02130
6455.51,0.02244
6432.37,0.02278
6409.22,0.02001
6386.08,0.02105
6362.93,0.02361
6339.79,0.02139
6316.64,0.01991
6293.5,0.02410
6270.35,0.02256
6247.21,0.01904
6224.06,0.02293
6200.92,0.01882
6177.77,0.02125
6154.63,0.02051
6131.48,0.02122
6108.34,0.02127
6085.19,0.02556
6062.05,0.02226
6038.9,0.01989
6015.76,0.02411
5992.61,0.02260
5969.47,0.01984
5946.32,0.02039
5923.18,0.02099
5900.03,0.02341
5876.89,0.02090
5853.74,0.02338
5830.6,0.02175
5807.45,0.02204
5784.31,0.02080
5761.16,0.02312
5738.02,0.01988
5714.87,0.02468
5691.73,0.02121
5668.58,0.02055
5645.44,0.02065
5622.29,0.02206
5599.15,0.02080
5576,0.02208
5552.86,0.02130
5529.71,0.02090
5506.57,0.02191
5483.42,0.02204
5460.28,0.02275
5437.13,0.02235
5413.99,0.02398
5390.84,0.01946
5367.7,0.02231
5344.55,0.02040
5321.41,0.02183
5298.26,0.02128
5275.12,0.02122
5251.97,0.02259
5228.83,0.02190
5205.68,0.02114
5182.54,0.02301
5159.39,0.02253
5136.25,0.02241
5113.1,0.02141
5089.96,0.02332
5066.81,0.02128
5043.67,0.02120
5020.52,0.02037
4997.38,0.02275
4974.23,0.02234
4951.09,0.02209
4927.94,0.02278
4904.8,0.02190
4881.65,0.02259
4858.51,0.02170
4835.36,0.02115
4812.22,0.02133
4789.07,0.02114
4765.93,0.02119
4742.78,0.02213
4719.64,0.02106
4696.49,0.02212
4673.35,0.02219
4650.2,0.02173
4627.06,0.02289
4603.92,0.02118
4580.77,0.02199
4557.63,0.02191
4534.48,0.02258
4511.34,0.02169
4488.19,0.02153
4465.05,0.02150
4441.9,0.02145
4418.76,0.02317
4395.61,0.02196
4372.47,0.02308
4349.32,0.02263
4326.18,0.02262
4303.03,0.02315
4279.89,0.02210
4256.74,0.02248
4233.6,0.02281
4210.45,0.02321
4187.31,0.02194
4164.16,0.02270
4141.02,0.02248
4117.87,0.02255
4094.73,0.02230
4071.58,0.02262
4048.44,0.02279
4025.29,0.02261
4002.15,0.02193
3979,0.02223
3955.86,0.02225
3932.71,0.02275
3909.57,0.02257
3886.42,0.02280
3863.28,0.02235
3840.13,0.02328
3816.99,0.02301
3793.84,0.02221
3770.7,0.02253
3747.55,0.02328
3724.41,0.02260
3701.26,0.02257
3678.12,0.02275
3654.97,0.02187
3631.83,0.02192
3608.68,0.02179
3585.54,0.02136
3562.39,0.02154
3539.25,0.02142
3516.1,0.02109
3492.96,0.02075
3469.81,0.02085
3446.67,0.02043
3423.52,0.02056
3400.38,0.02014
3377.23,0.02077
3354.09,0.02020
3330.94,0.02054
3307.8,0.02006
3284.65,0.01987
3261.51,0.02054
3238.36,0.02102
3215.22,0.02045
3192.07,0.02040
3168.93,0.02044
3145.78,0.02069
3122.64,0.02079
3099.49,0.02054
3076.35,0.02026
3053.2,0.02042
3030.06,0.01994
3006.91,0.02013
2983.77,0.01979
2960.62,0.01951
2937.48,0.01997
2914.33,0.01989
2891.19,0.02016
2868.04,0.02038
2844.9,0.02055
2821.75,0.02156
2798.61,0.02103
2775.46,0.02096
2752.32,0.02116
2729.17,0.02099
2706.03,0.02135
2682.88,0.02123
2659.74,0.02126
2636.59,0.02131
2613.45,0.02098
2590.3,0.02152
2567.16,0.02093
2544.02,0.02059
2520.87,0.02058
2497.73,0.02103
2474.58,0.02110
2451.44,0.02088
2428.29,0.02108
2405.15,0.02102
2382,0.02086
2358.86,0.02115
2335.71,0.02101
2312.57,0.02112
2289.42,0.02068
2266.28,0.02123
2243.13,0.02087
2219.99,0.02071
2196.84,0.02118
2173.7,0.02060
2150.55,0.02059
2127.41,0.02068
2104.26,0.02070
2081.12,0.02093
2057.97,0.02065
2034.83,0.02073
2011.68,0.02075
1988.54,0.02080
1965.39,0.02067
1942.25,0.02041
1919.1,0.02033
1895.96,0.02050
1872.81,0.02011
1849.67,0.02020
1826.52,0.02012
1803.38,0.01938
1780.23,0.01898
1757.09,0.01768
1733.94,0.01959
1710.8,0.02051
1687.65,0.01897
1664.51,0.01854
1641.36,0.01891
1618.22,0.01872
1595.07,0.01883
1571.93,0.01836
1548.78,0.01830
1525.64,0.01874
1502.49,0.01848
1479.35,0.01873
1456.2,0.01895
1433.06,0.01887
1409.91,0.01833
1386.77,0.01827
1363.62,0.01806
1340.48,0.01774
1317.33,0.01660
1294.19,0.01812
1271.04,0.01974
1247.9,0.02057
1224.75,0.01951
1201.61,0.01884
1178.46,0.01751
1155.32,0.01766
1132.17,0.01811
1109.03,0.01855
1085.88,0.01804
1062.74,0.01951
1039.59,0.01918
1016.45,0.01896
993.304,0.02037
970.159,0.02063
947.014,0.01958
923.869,0.01910
900.724,0.01881
877.579,0.01929
854.434,0.01922
831.289,0.01784
808.144,0.01875
784.999,0.01855
761.854,0.01904
738.709,0.01766
715.565,0.01703
692.42,0.01795
669.275,0.01715
646.13,0.01625
622.985,0.01668
599.84,0.01613