File: 01_Data/Vinyl_Siding/FTIR/IS/Vinyl_Siding_IS_S_220914_R2.dpt
7497.03,0.75079
7473.89,0.75126
7450.74,0.74748
7427.6,0.73703
7404.45,0.72893
7381.31,0.73124
7358.16,0.72183
7335.02,0.70479
7311.87,0.70085
7288.73,0.66980
7265.58,0.64303
7242.44,0.62109
7219.29,0.61450
7196.15,0.61878
7173,0.60787
7149.86,0.59563
7126.71,0.58645
7103.57,0.58348
7080.42,0.57486
7057.28,0.57645
7034.13,0.57682
7010.99,0.57358
6987.84,0.58422
6964.7,0.59456
6941.55,0.60469
6918.41,0.60912
6895.26,0.61716
6872.12,0.61778
6848.97,0.63005
6825.83,0.63399
6802.68,0.63511
6779.54,0.63110
6756.39,0.63816
6733.25,0.64279
6710.1,0.64397
6686.96,0.64843
6663.82,0.65112
6640.67,0.65692
6617.53,0.65844
6594.38,0.65617
6571.24,0.65773
6548.09,0.65329
6524.95,0.65322
6501.8,0.65557
6478.66,0.65796
6455.51,0.66011
6432.37,0.66235
6409.22,0.66485
6386.08,0.66432
6362.93,0.66449
6339.79,0.66492
6316.64,0.66311
6293.5,0.66076
6270.35,0.66179
6247.21,0.65573
6224.06,0.66080
6200.92,0.65866
6177.77,0.65625
6154.63,0.64027
6131.48,0.62579
6108.34,0.61715
6085.19,0.61403
6062.05,0.61731
6038.9,0.59367
6015.76,0.53556
5992.61,0.47567
5969.47,0.42560
5946.32,0.40965
5923.18,0.38238
5900.03,0.33564
5876.89,0.31134
5853.74,0.29390
5830.6,0.27983
5807.45,0.29115
5784.31,0.30662
5761.16,0.31745
5738.02,0.30334
5714.87,0.29987
5691.73,0.30431
5668.58,0.32324
5645.44,0.33775
5622.29,0.34479
5599.15,0.34946
5576,0.36088
5552.86,0.36873
5529.71,0.37483
5506.57,0.37584
5483.42,0.37341
5460.28,0.37067
5437.13,0.37847
5413.99,0.38173
5390.84,0.38492
5367.7,0.39024
5344.55,0.40138
5321.41,0.40951
5298.26,0.41112
5275.12,0.39658
5251.97,0.37658
5228.83,0.38749
5205.68,0.39218
5182.54,0.38824
5159.39,0.38419
5136.25,0.38171
5113.1,0.39162
5089.96,0.39875
5066.81,0.40318
5043.67,0.40604
5020.52,0.40967
4997.38,0.40987
4974.23,0.40966
4951.09,0.40983
4927.94,0.40693
4904.8,0.40508
4881.65,0.39595
4858.51,0.39136
4835.36,0.39464
4812.22,0.39721
4789.07,0.39545
4765.93,0.38947
4742.78,0.38630
4719.64,0.37206
4696.49,0.35460
4673.35,0.28628
4650.2,0.30533
4627.06,0.28422
4603.92,0.28845
4580.77,0.30959
4557.63,0.32941
4534.48,0.33122
4511.34,0.31996
4488.19,0.30426
4465.05,0.27268
4441.9,0.22728
4418.76,0.18547
4395.61,0.15293
4372.47,0.13188
4349.32,0.12604
4326.18,0.13147
4303.03,0.13361
4279.89,0.12684
4256.74,0.12265
4233.6,0.12377
4210.45,0.12273
4187.31,0.12619
4164.16,0.12832
4141.02,0.12864
4117.87,0.12748
4094.73,0.12328
4071.58,0.11284
4048.44,0.10826
4025.29,0.11564
4002.15,0.12687
3979,0.13392
3955.86,0.13704
3932.71,0.13722
3909.57,0.13846
3886.42,0.13908
3863.28,0.13980
3840.13,0.13843
3816.99,0.13894
3793.84,0.14351
3770.7,0.14626
3747.55,0.14868
3724.41,0.14836
3701.26,0.13327
3678.12,0.10921
3654.97,0.09635
3631.83,0.09593
3608.68,0.09778
3585.54,0.09603
3562.39,0.09074
3539.25,0.08768
3516.1,0.08813
3492.96,0.08784
3469.81,0.08638
3446.67,0.08107
3423.52,0.08454
3400.38,0.08392
3377.23,0.08179
3354.09,0.07629
3330.94,0.06803
3307.8,0.05940
3284.65,0.06581
3261.51,0.07228
3238.36,0.07685
3215.22,0.07768
3192.07,0.07809
3168.93,0.07874
3145.78,0.07925
3122.64,0.07669
3099.49,0.06560
3076.35,0.06053
3053.2,0.05816
3030.06,0.05497
3006.91,0.05888
2983.77,0.05544
2960.62,0.05144
2937.48,0.05440
2914.33,0.05991
2891.19,0.05798
2868.04,0.05662
2844.9,0.06203
2821.75,0.06798
2798.61,0.07053
2775.46,0.07228
2752.32,0.07322
2729.17,0.07267
2706.03,0.07402
2682.88,0.07430
2659.74,0.07424
2636.59,0.07350
2613.45,0.07326
2590.3,0.07335
2567.16,0.07308
2544.02,0.07330
2520.87,0.07227
2497.73,0.07184
2474.58,0.07353
2451.44,0.07444
2428.29,0.07397
2405.15,0.07413
2382,0.07496
2358.86,0.07360
2335.71,0.07211
2312.57,0.07429
2289.42,0.07458
2266.28,0.07266
2243.13,0.05726
2219.99,0.07661
2196.84,0.08070
2173.7,0.08192
2150.55,0.08183
2127.41,0.08348
2104.26,0.08805
2081.12,0.08851
2057.97,0.08588
2034.83,0.08257
2011.68,0.08216
1988.54,0.07712
1965.39,0.07113
1942.25,0.07207
1919.1,0.08077
1895.96,0.07260
1872.81,0.07230
1849.67,0.08131
1826.52,0.06999
1803.38,0.06023
1780.23,0.05960
1757.09,0.05177
1733.94,0.05331
1710.8,0.05814
1687.65,0.05862
1664.51,0.05865
1641.36,0.05821
1618.22,0.05949
1595.07,0.05710
1571.93,0.05742
1548.78,0.05456
1525.64,0.05871
1502.49,0.05431
1479.35,0.05336
1456.2,0.05059
1433.06,0.05612
1409.91,0.05579
1386.77,0.05359
1363.62,0.05332
1340.48,0.05326
1317.33,0.05243
1294.19,0.05242
1271.04,0.05142
1247.9,0.05278
1224.75,0.05352
1201.61,0.05251
1178.46,0.05181
1155.32,0.06029
1132.17,0.05752
1109.03,0.05688
1085.88,0.05531
1062.74,0.05581
1039.59,0.05525
1016.45,0.05667
993.304,0.05536
970.159,0.05516
947.014,0.05509
923.869,0.05458
900.724,0.05477
877.579,0.05433
854.434,0.05256
831.289,0.05441
808.144,0.05192
784.999,0.04840
761.854,0.04978
738.709,0.05356
715.565,0.04452
692.42,0.06739
669.275,0.05606
646.13,0.05452
622.985,0.05628
599.84,0.05204