File: 01_Data/Vinyl_Siding/FTIR/IS/Vinyl_Siding_IS_S_220914_R3.dpt
7497.03,0.74797
7473.89,0.75172
7450.74,0.74137
7427.6,0.74365
7404.45,0.73863
7381.31,0.73705
7358.16,0.71603
7335.02,0.70980
7311.87,0.69248
7288.73,0.67039
7265.58,0.64577
7242.44,0.62460
7219.29,0.61745
7196.15,0.60639
7173,0.60829
7149.86,0.60308
7126.71,0.59331
7103.57,0.58926
7080.42,0.58189
7057.28,0.58072
7034.13,0.58185
7010.99,0.58030
6987.84,0.57615
6964.7,0.59542
6941.55,0.60481
6918.41,0.60834
6895.26,0.61313
6872.12,0.62501
6848.97,0.62686
6825.83,0.63343
6802.68,0.63125
6779.54,0.63769
6756.39,0.63558
6733.25,0.63828
6710.1,0.64788
6686.96,0.64654
6663.82,0.65062
6640.67,0.65107
6617.53,0.64937
6594.38,0.65483
6571.24,0.65947
6548.09,0.65271
6524.95,0.65157
6501.8,0.65716
6478.66,0.65662
6455.51,0.65999
6432.37,0.66317
6409.22,0.66814
6386.08,0.66518
6362.93,0.66341
6339.79,0.66634
6316.64,0.66217
6293.5,0.66314
6270.35,0.66390
6247.21,0.65859
6224.06,0.66179
6200.92,0.66051
6177.77,0.65013
6154.63,0.63904
6131.48,0.62882
6108.34,0.61915
6085.19,0.61380
6062.05,0.61364
6038.9,0.59030
6015.76,0.53258
5992.61,0.47246
5969.47,0.42439
5946.32,0.41060
5923.18,0.38048
5900.03,0.33548
5876.89,0.31121
5853.74,0.29387
5830.6,0.28175
5807.45,0.29104
5784.31,0.30657
5761.16,0.31489
5738.02,0.30295
5714.87,0.29700
5691.73,0.30128
5668.58,0.32589
5645.44,0.33592
5622.29,0.34464
5599.15,0.34852
5576,0.35922
5552.86,0.36721
5529.71,0.37475
5506.57,0.37695
5483.42,0.37324
5460.28,0.36958
5437.13,0.37814
5413.99,0.38192
5390.84,0.38373
5367.7,0.39022
5344.55,0.40150
5321.41,0.40723
5298.26,0.41123
5275.12,0.39873
5251.97,0.37667
5228.83,0.38846
5205.68,0.39241
5182.54,0.38993
5159.39,0.38504
5136.25,0.38228
5113.1,0.39176
5089.96,0.39762
5066.81,0.40088
5043.67,0.40625
5020.52,0.40935
4997.38,0.40826
4974.23,0.40948
4951.09,0.40892
4927.94,0.40768
4904.8,0.40252
4881.65,0.39453
4858.51,0.39101
4835.36,0.39397
4812.22,0.39595
4789.07,0.39358
4765.93,0.38846
4742.78,0.38548
4719.64,0.37238
4696.49,0.35228
4673.35,0.28535
4650.2,0.30443
4627.06,0.28455
4603.92,0.28716
4580.77,0.30887
4557.63,0.32903
4534.48,0.32998
4511.34,0.31810
4488.19,0.30395
4465.05,0.27182
4441.9,0.22612
4418.76,0.18461
4395.61,0.15313
4372.47,0.13185
4349.32,0.12433
4326.18,0.13100
4303.03,0.13333
4279.89,0.12572
4256.74,0.12188
4233.6,0.12294
4210.45,0.12272
4187.31,0.12606
4164.16,0.12732
4141.02,0.12797
4117.87,0.12676
4094.73,0.12274
4071.58,0.11283
4048.44,0.10799
4025.29,0.11533
4002.15,0.12681
3979,0.13330
3955.86,0.13635
3932.71,0.13693
3909.57,0.13815
3886.42,0.13905
3863.28,0.13951
3840.13,0.13859
3816.99,0.13852
3793.84,0.14312
3770.7,0.14605
3747.55,0.14902
3724.41,0.14885
3701.26,0.13501
3678.12,0.11065
3654.97,0.09894
3631.83,0.09866
3608.68,0.09912
3585.54,0.09788
3562.39,0.09346
3539.25,0.09007
3516.1,0.08934
3492.96,0.08942
3469.81,0.08761
3446.67,0.08128
3423.52,0.08438
3400.38,0.08434
3377.23,0.08124
3354.09,0.07618
3330.94,0.06767
3307.8,0.05945
3284.65,0.06625
3261.51,0.07157
3238.36,0.07679
3215.22,0.07819
3192.07,0.07804
3168.93,0.07922
3145.78,0.07994
3122.64,0.07657
3099.49,0.06575
3076.35,0.05944
3053.2,0.05845
3030.06,0.05395
3006.91,0.05899
2983.77,0.05611
2960.62,0.05153
2937.48,0.05422
2914.33,0.05975
2891.19,0.05793
2868.04,0.05710
2844.9,0.06199
2821.75,0.06793
2798.61,0.06987
2775.46,0.07223
2752.32,0.07263
2729.17,0.07248
2706.03,0.07392
2682.88,0.07390
2659.74,0.07385
2636.59,0.07329
2613.45,0.07324
2590.3,0.07276
2567.16,0.07290
2544.02,0.07288
2520.87,0.07151
2497.73,0.07200
2474.58,0.07368
2451.44,0.07420
2428.29,0.07383
2405.15,0.07368
2382,0.07469
2358.86,0.07374
2335.71,0.07225
2312.57,0.07382
2289.42,0.07440
2266.28,0.07284
2243.13,0.05707
2219.99,0.07628
2196.84,0.08053
2173.7,0.08165
2150.55,0.08168
2127.41,0.08332
2104.26,0.08795
2081.12,0.08845
2057.97,0.08583
2034.83,0.08233
2011.68,0.08199
1988.54,0.07709
1965.39,0.07060
1942.25,0.07217
1919.1,0.08039
1895.96,0.07248
1872.81,0.07206
1849.67,0.08125
1826.52,0.06947
1803.38,0.06000
1780.23,0.05941
1757.09,0.05186
1733.94,0.05322
1710.8,0.05782
1687.65,0.05854
1664.51,0.05836
1641.36,0.05798
1618.22,0.05949
1595.07,0.05756
1571.93,0.05695
1548.78,0.05437
1525.64,0.05837
1502.49,0.05396
1479.35,0.05318
1456.2,0.05053
1433.06,0.05657
1409.91,0.05557
1386.77,0.05327
1363.62,0.05350
1340.48,0.05325
1317.33,0.05276
1294.19,0.05181
1271.04,0.05157
1247.9,0.05304
1224.75,0.05358
1201.61,0.05221
1178.46,0.05208
1155.32,0.06019
1132.17,0.05731
1109.03,0.05631
1085.88,0.05547
1062.74,0.05591
1039.59,0.05555
1016.45,0.05711
993.304,0.05560
970.159,0.05494
947.014,0.05453
923.869,0.05446
900.724,0.05442
877.579,0.05339
854.434,0.05226
831.289,0.05242
808.144,0.05166
784.999,0.04822
761.854,0.05028
738.709,0.05251
715.565,0.04453
692.42,0.06785
669.275,0.05676
646.13,0.05722
622.985,0.05603
599.84,0.05469