File: 01_Data/Vinyl_Siding/FTIR/IS/Vinyl_Siding_IS_S_220914_R4.dpt
7497.03,0.74956
7473.89,0.75709
7450.74,0.74952
7427.6,0.73709
7404.45,0.73481
7381.31,0.73017
7358.16,0.72782
7335.02,0.70933
7311.87,0.69619
7288.73,0.67339
7265.58,0.65732
7242.44,0.63357
7219.29,0.62088
7196.15,0.61756
7173,0.59982
7149.86,0.59066
7126.71,0.58561
7103.57,0.58455
7080.42,0.58434
7057.28,0.57102
7034.13,0.58580
7010.99,0.57195
6987.84,0.58621
6964.7,0.59936
6941.55,0.60349
6918.41,0.61187
6895.26,0.61844
6872.12,0.62206
6848.97,0.62957
6825.83,0.63261
6802.68,0.63259
6779.54,0.63775
6756.39,0.64326
6733.25,0.64161
6710.1,0.65006
6686.96,0.64954
6663.82,0.65190
6640.67,0.65779
6617.53,0.65351
6594.38,0.65363
6571.24,0.65359
6548.09,0.65577
6524.95,0.65450
6501.8,0.65763
6478.66,0.65858
6455.51,0.65919
6432.37,0.66287
6409.22,0.66513
6386.08,0.66932
6362.93,0.66356
6339.79,0.66474
6316.64,0.66519
6293.5,0.66023
6270.35,0.65960
6247.21,0.66154
6224.06,0.65779
6200.92,0.65783
6177.77,0.65225
6154.63,0.63977
6131.48,0.62642
6108.34,0.61955
6085.19,0.61190
6062.05,0.61559
6038.9,0.59274
6015.76,0.53199
5992.61,0.47013
5969.47,0.42373
5946.32,0.41014
5923.18,0.38162
5900.03,0.33585
5876.89,0.31102
5853.74,0.29318
5830.6,0.28521
5807.45,0.29088
5784.31,0.30715
5761.16,0.31702
5738.02,0.30454
5714.87,0.29790
5691.73,0.30500
5668.58,0.32474
5645.44,0.33550
5622.29,0.34288
5599.15,0.35023
5576,0.36220
5552.86,0.36869
5529.71,0.37401
5506.57,0.37429
5483.42,0.37183
5460.28,0.37097
5437.13,0.37673
5413.99,0.38345
5390.84,0.38342
5367.7,0.39107
5344.55,0.40120
5321.41,0.40881
5298.26,0.41036
5275.12,0.40001
5251.97,0.38088
5228.83,0.39144
5205.68,0.39356
5182.54,0.39036
5159.39,0.38509
5136.25,0.38229
5113.1,0.39235
5089.96,0.40025
5066.81,0.40286
5043.67,0.40861
5020.52,0.41063
4997.38,0.41023
4974.23,0.41099
4951.09,0.41034
4927.94,0.40758
4904.8,0.40298
4881.65,0.39698
4858.51,0.39217
4835.36,0.39479
4812.22,0.39709
4789.07,0.39396
4765.93,0.38957
4742.78,0.38522
4719.64,0.37171
4696.49,0.35230
4673.35,0.28661
4650.2,0.30470
4627.06,0.28506
4603.92,0.28902
4580.77,0.30902
4557.63,0.32824
4534.48,0.33057
4511.34,0.31921
4488.19,0.30332
4465.05,0.27250
4441.9,0.22768
4418.76,0.18569
4395.61,0.15298
4372.47,0.13151
4349.32,0.12553
4326.18,0.13089
4303.03,0.13316
4279.89,0.12648
4256.74,0.12198
4233.6,0.12325
4210.45,0.12306
4187.31,0.12608
4164.16,0.12756
4141.02,0.12943
4117.87,0.12651
4094.73,0.12288
4071.58,0.11279
4048.44,0.10802
4025.29,0.11518
4002.15,0.12708
3979,0.13338
3955.86,0.13734
3932.71,0.13684
3909.57,0.13832
3886.42,0.14002
3863.28,0.14048
3840.13,0.13830
3816.99,0.13882
3793.84,0.14454
3770.7,0.14690
3747.55,0.14899
3724.41,0.14978
3701.26,0.13561
3678.12,0.11198
3654.97,0.10050
3631.83,0.10048
3608.68,0.10013
3585.54,0.09939
3562.39,0.09438
3539.25,0.09110
3516.1,0.09107
3492.96,0.08959
3469.81,0.08898
3446.67,0.08178
3423.52,0.08493
3400.38,0.08501
3377.23,0.08163
3354.09,0.07625
3330.94,0.06732
3307.8,0.06044
3284.65,0.06595
3261.51,0.07225
3238.36,0.07711
3215.22,0.07855
3192.07,0.07846
3168.93,0.07901
3145.78,0.07983
3122.64,0.07681
3099.49,0.06584
3076.35,0.06051
3053.2,0.05867
3030.06,0.05435
3006.91,0.05899
2983.77,0.05618
2960.62,0.05161
2937.48,0.05411
2914.33,0.05967
2891.19,0.05790
2868.04,0.05702
2844.9,0.06211
2821.75,0.06771
2798.61,0.07015
2775.46,0.07263
2752.32,0.07321
2729.17,0.07274
2706.03,0.07379
2682.88,0.07397
2659.74,0.07417
2636.59,0.07327
2613.45,0.07370
2590.3,0.07291
2567.16,0.07288
2544.02,0.07265
2520.87,0.07220
2497.73,0.07168
2474.58,0.07326
2451.44,0.07416
2428.29,0.07407
2405.15,0.07401
2382,0.07443
2358.86,0.07440
2335.71,0.07245
2312.57,0.07381
2289.42,0.07453
2266.28,0.07303
2243.13,0.05677
2219.99,0.07671
2196.84,0.08052
2173.7,0.08192
2150.55,0.08141
2127.41,0.08365
2104.26,0.08818
2081.12,0.08868
2057.97,0.08578
2034.83,0.08239
2011.68,0.08209
1988.54,0.07700
1965.39,0.07121
1942.25,0.07193
1919.1,0.08071
1895.96,0.07259
1872.81,0.07201
1849.67,0.08135
1826.52,0.06952
1803.38,0.06002
1780.23,0.05958
1757.09,0.05188
1733.94,0.05358
1710.8,0.05832
1687.65,0.05857
1664.51,0.05838
1641.36,0.05805
1618.22,0.05973
1595.07,0.05739
1571.93,0.05718
1548.78,0.05433
1525.64,0.05822
1502.49,0.05448
1479.35,0.05304
1456.2,0.05002
1433.06,0.05663
1409.91,0.05577
1386.77,0.05342
1363.62,0.05330
1340.48,0.05346
1317.33,0.05265
1294.19,0.05243
1271.04,0.05158
1247.9,0.05244
1224.75,0.05393
1201.61,0.05223
1178.46,0.05184
1155.32,0.05958
1132.17,0.05693
1109.03,0.05631
1085.88,0.05508
1062.74,0.05582
1039.59,0.05540
1016.45,0.05656
993.304,0.05600
970.159,0.05492
947.014,0.05463
923.869,0.05460
900.724,0.05462
877.579,0.05404
854.434,0.05314
831.289,0.05286
808.144,0.05159
784.999,0.04839
761.854,0.05011
738.709,0.05279
715.565,0.04410
692.42,0.06697
669.275,0.05765
646.13,0.05561
622.985,0.05347
599.84,0.05335