File: 01_Data/Vinyl_Siding/FTIR/IS/Vinyl_Siding_IS_S_220914_R1.dpt
7497.03,0.76554
7473.89,0.74831
7450.74,0.75319
7427.6,0.74429
7404.45,0.73995
7381.31,0.73586
7358.16,0.71932
7335.02,0.71709
7311.87,0.69369
7288.73,0.66670
7265.58,0.64529
7242.44,0.62921
7219.29,0.60080
7196.15,0.61869
7173,0.60607
7149.86,0.59603
7126.71,0.58141
7103.57,0.59401
7080.42,0.58222
7057.28,0.57855
7034.13,0.57410
7010.99,0.57265
6987.84,0.58166
6964.7,0.59765
6941.55,0.61069
6918.41,0.61067
6895.26,0.62143
6872.12,0.63116
6848.97,0.62875
6825.83,0.63433
6802.68,0.63144
6779.54,0.63850
6756.39,0.64191
6733.25,0.64493
6710.1,0.64719
6686.96,0.65755
6663.82,0.65147
6640.67,0.65392
6617.53,0.65435
6594.38,0.65687
6571.24,0.65946
6548.09,0.65821
6524.95,0.65683
6501.8,0.65806
6478.66,0.66129
6455.51,0.66466
6432.37,0.67054
6409.22,0.66746
6386.08,0.66502
6362.93,0.66572
6339.79,0.66703
6316.64,0.66870
6293.5,0.66471
6270.35,0.66421
6247.21,0.66250
6224.06,0.66255
6200.92,0.65664
6177.77,0.65296
6154.63,0.63928
6131.48,0.63080
6108.34,0.62349
6085.19,0.61501
6062.05,0.61776
6038.9,0.59330
6015.76,0.53619
5992.61,0.47566
5969.47,0.42729
5946.32,0.40790
5923.18,0.38225
5900.03,0.33597
5876.89,0.31419
5853.74,0.29323
5830.6,0.28212
5807.45,0.29084
5784.31,0.30877
5761.16,0.31871
5738.02,0.30568
5714.87,0.29814
5691.73,0.30647
5668.58,0.32563
5645.44,0.33603
5622.29,0.34557
5599.15,0.35219
5576,0.36051
5552.86,0.36993
5529.71,0.37626
5506.57,0.37760
5483.42,0.37520
5460.28,0.37287
5437.13,0.37899
5413.99,0.38293
5390.84,0.38503
5367.7,0.39101
5344.55,0.40153
5321.41,0.41091
5298.26,0.41014
5275.12,0.39735
5251.97,0.37383
5228.83,0.38372
5205.68,0.39151
5182.54,0.38806
5159.39,0.38338
5136.25,0.38150
5113.1,0.39299
5089.96,0.39813
5066.81,0.40283
5043.67,0.40761
5020.52,0.41110
4997.38,0.41123
4974.23,0.41000
4951.09,0.40922
4927.94,0.40920
4904.8,0.40545
4881.65,0.39724
4858.51,0.39284
4835.36,0.39593
4812.22,0.39775
4789.07,0.39584
4765.93,0.38988
4742.78,0.38671
4719.64,0.37385
4696.49,0.35266
4673.35,0.28722
4650.2,0.30480
4627.06,0.28600
4603.92,0.28882
4580.77,0.31063
4557.63,0.32963
4534.48,0.33205
4511.34,0.32015
4488.19,0.30502
4465.05,0.27261
4441.9,0.22707
4418.76,0.18622
4395.61,0.15352
4372.47,0.13283
4349.32,0.12592
4326.18,0.13159
4303.03,0.13431
4279.89,0.12713
4256.74,0.12238
4233.6,0.12332
4210.45,0.12335
4187.31,0.12697
4164.16,0.12766
4141.02,0.12938
4117.87,0.12769
4094.73,0.12335
4071.58,0.11240
4048.44,0.10891
4025.29,0.11553
4002.15,0.12746
3979,0.13370
3955.86,0.13700
3932.71,0.13773
3909.57,0.13942
3886.42,0.14011
3863.28,0.14008
3840.13,0.13925
3816.99,0.13939
3793.84,0.14388
3770.7,0.14600
3747.55,0.14781
3724.41,0.14827
3701.26,0.13272
3678.12,0.10573
3654.97,0.09251
3631.83,0.09359
3608.68,0.09435
3585.54,0.09326
3562.39,0.08964
3539.25,0.08579
3516.1,0.08563
3492.96,0.08638
3469.81,0.08497
3446.67,0.07993
3423.52,0.08320
3400.38,0.08302
3377.23,0.08014
3354.09,0.07590
3330.94,0.06799
3307.8,0.06000
3284.65,0.06622
3261.51,0.07219
3238.36,0.07665
3215.22,0.07730
3192.07,0.07819
3168.93,0.07900
3145.78,0.07975
3122.64,0.07706
3099.49,0.06650
3076.35,0.05990
3053.2,0.05854
3030.06,0.05478
3006.91,0.05913
2983.77,0.05632
2960.62,0.05150
2937.48,0.05395
2914.33,0.06001
2891.19,0.05840
2868.04,0.05749
2844.9,0.06207
2821.75,0.06852
2798.61,0.07026
2775.46,0.07291
2752.32,0.07309
2729.17,0.07343
2706.03,0.07409
2682.88,0.07420
2659.74,0.07377
2636.59,0.07375
2613.45,0.07367
2590.3,0.07315
2567.16,0.07327
2544.02,0.07316
2520.87,0.07259
2497.73,0.07228
2474.58,0.07364
2451.44,0.07439
2428.29,0.07458
2405.15,0.07441
2382,0.07511
2358.86,0.07376
2335.71,0.07232
2312.57,0.07408
2289.42,0.07461
2266.28,0.07269
2243.13,0.05673
2219.99,0.07694
2196.84,0.08061
2173.7,0.08205
2150.55,0.08197
2127.41,0.08320
2104.26,0.08808
2081.12,0.08841
2057.97,0.08578
2034.83,0.08238
2011.68,0.08218
1988.54,0.07741
1965.39,0.07099
1942.25,0.07208
1919.1,0.08061
1895.96,0.07298
1872.81,0.07240
1849.67,0.08132
1826.52,0.07017
1803.38,0.06055
1780.23,0.05965
1757.09,0.05229
1733.94,0.05333
1710.8,0.05829
1687.65,0.05871
1664.51,0.05851
1641.36,0.05844
1618.22,0.05942
1595.07,0.05748
1571.93,0.05713
1548.78,0.05479
1525.64,0.05875
1502.49,0.05451
1479.35,0.05331
1456.2,0.05078
1433.06,0.05651
1409.91,0.05620
1386.77,0.05350
1363.62,0.05378
1340.48,0.05338
1317.33,0.05309
1294.19,0.05267
1271.04,0.05159
1247.9,0.05287
1224.75,0.05405
1201.61,0.05234
1178.46,0.05206
1155.32,0.06010
1132.17,0.05760
1109.03,0.05678
1085.88,0.05519
1062.74,0.05628
1039.59,0.05603
1016.45,0.05749
993.304,0.05558
970.159,0.05526
947.014,0.05535
923.869,0.05447
900.724,0.05473
877.579,0.05427
854.434,0.05286
831.289,0.05349
808.144,0.05161
784.999,0.04902
761.854,0.05016
738.709,0.05330
715.565,0.04347
692.42,0.06720
669.275,0.05679
646.13,0.05510
622.985,0.05512
599.84,0.05350