File: 01_Data/Vinyl_Siding/FTIR/IS/Vinyl_Siding_IS_S_220914_R5.dpt
7497.03,0.75193
7473.89,0.75055
7450.74,0.75231
7427.6,0.74309
7404.45,0.74537
7381.31,0.72824
7358.16,0.72265
7335.02,0.70083
7311.87,0.69707
7288.73,0.67433
7265.58,0.64643
7242.44,0.63441
7219.29,0.62099
7196.15,0.61720
7173,0.60322
7149.86,0.59455
7126.71,0.59086
7103.57,0.59283
7080.42,0.58296
7057.28,0.58038
7034.13,0.58764
7010.99,0.57806
6987.84,0.58729
6964.7,0.60118
6941.55,0.60950
6918.41,0.61328
6895.26,0.62218
6872.12,0.62888
6848.97,0.63143
6825.83,0.63601
6802.68,0.63701
6779.54,0.63896
6756.39,0.64247
6733.25,0.64511
6710.1,0.64415
6686.96,0.65835
6663.82,0.65297
6640.67,0.65526
6617.53,0.65688
6594.38,0.65792
6571.24,0.66005
6548.09,0.66065
6524.95,0.65665
6501.8,0.66485
6478.66,0.65808
6455.51,0.66356
6432.37,0.66325
6409.22,0.67073
6386.08,0.67067
6362.93,0.66794
6339.79,0.66492
6316.64,0.66382
6293.5,0.66480
6270.35,0.66186
6247.21,0.66495
6224.06,0.66300
6200.92,0.65962
6177.77,0.65581
6154.63,0.64145
6131.48,0.63137
6108.34,0.62665
6085.19,0.61489
6062.05,0.61958
6038.9,0.59832
6015.76,0.53420
5992.61,0.47850
5969.47,0.42621
5946.32,0.41058
5923.18,0.38243
5900.03,0.33670
5876.89,0.31216
5853.74,0.29426
5830.6,0.28359
5807.45,0.29069
5784.31,0.30880
5761.16,0.31704
5738.02,0.30450
5714.87,0.29880
5691.73,0.30734
5668.58,0.32675
5645.44,0.33608
5622.29,0.34361
5599.15,0.34985
5576,0.36197
5552.86,0.37051
5529.71,0.37496
5506.57,0.37856
5483.42,0.37270
5460.28,0.37465
5437.13,0.37897
5413.99,0.38402
5390.84,0.38722
5367.7,0.39046
5344.55,0.40301
5321.41,0.41160
5298.26,0.41500
5275.12,0.40407
5251.97,0.38432
5228.83,0.39593
5205.68,0.39677
5182.54,0.39287
5159.39,0.38744
5136.25,0.38551
5113.1,0.39649
5089.96,0.40232
5066.81,0.40453
5043.67,0.40957
5020.52,0.41291
4997.38,0.41385
4974.23,0.41300
4951.09,0.41242
4927.94,0.41080
4904.8,0.40612
4881.65,0.39720
4858.51,0.39362
4835.36,0.39783
4812.22,0.39877
4789.07,0.39655
4765.93,0.39105
4742.78,0.38689
4719.64,0.37480
4696.49,0.35354
4673.35,0.28781
4650.2,0.30630
4627.06,0.28589
4603.92,0.29022
4580.77,0.31242
4557.63,0.33075
4534.48,0.33280
4511.34,0.32123
4488.19,0.30465
4465.05,0.27424
4441.9,0.22820
4418.76,0.18567
4395.61,0.15371
4372.47,0.13261
4349.32,0.12555
4326.18,0.13105
4303.03,0.13390
4279.89,0.12686
4256.74,0.12305
4233.6,0.12328
4210.45,0.12282
4187.31,0.12654
4164.16,0.12821
4141.02,0.12900
4117.87,0.12745
4094.73,0.12301
4071.58,0.11245
4048.44,0.10892
4025.29,0.11602
4002.15,0.12780
3979,0.13422
3955.86,0.13806
3932.71,0.13839
3909.57,0.13957
3886.42,0.14116
3863.28,0.14038
3840.13,0.13940
3816.99,0.14000
3793.84,0.14407
3770.7,0.14856
3747.55,0.15045
3724.41,0.15113
3701.26,0.13722
3678.12,0.11396
3654.97,0.10295
3631.83,0.10238
3608.68,0.10157
3585.54,0.10010
3562.39,0.09681
3539.25,0.09327
3516.1,0.09153
3492.96,0.09177
3469.81,0.08883
3446.67,0.08355
3423.52,0.08598
3400.38,0.08628
3377.23,0.08317
3354.09,0.07702
3330.94,0.06815
3307.8,0.06002
3284.65,0.06648
3261.51,0.07204
3238.36,0.07782
3215.22,0.07844
3192.07,0.07880
3168.93,0.08009
3145.78,0.07978
3122.64,0.07721
3099.49,0.06614
3076.35,0.05978
3053.2,0.05855
3030.06,0.05463
3006.91,0.05931
2983.77,0.05608
2960.62,0.05216
2937.48,0.05464
2914.33,0.06056
2891.19,0.05781
2868.04,0.05720
2844.9,0.06192
2821.75,0.06746
2798.61,0.07030
2775.46,0.07292
2752.32,0.07290
2729.17,0.07294
2706.03,0.07399
2682.88,0.07446
2659.74,0.07436
2636.59,0.07336
2613.45,0.07347
2590.3,0.07315
2567.16,0.07311
2544.02,0.07296
2520.87,0.07197
2497.73,0.07211
2474.58,0.07349
2451.44,0.07458
2428.29,0.07446
2405.15,0.07422
2382,0.07507
2358.86,0.07415
2335.71,0.07282
2312.57,0.07419
2289.42,0.07455
2266.28,0.07296
2243.13,0.05690
2219.99,0.07683
2196.84,0.08093
2173.7,0.08189
2150.55,0.08198
2127.41,0.08341
2104.26,0.08875
2081.12,0.08914
2057.97,0.08664
2034.83,0.08274
2011.68,0.08260
1988.54,0.07728
1965.39,0.07128
1942.25,0.07240
1919.1,0.08079
1895.96,0.07337
1872.81,0.07217
1849.67,0.08161
1826.52,0.07002
1803.38,0.06052
1780.23,0.05981
1757.09,0.05231
1733.94,0.05350
1710.8,0.05814
1687.65,0.05851
1664.51,0.05822
1641.36,0.05823
1618.22,0.06008
1595.07,0.05695
1571.93,0.05783
1548.78,0.05401
1525.64,0.05887
1502.49,0.05461
1479.35,0.05340
1456.2,0.05073
1433.06,0.05641
1409.91,0.05591
1386.77,0.05349
1363.62,0.05349
1340.48,0.05336
1317.33,0.05251
1294.19,0.05259
1271.04,0.05163
1247.9,0.05306
1224.75,0.05353
1201.61,0.05226
1178.46,0.05195
1155.32,0.06011
1132.17,0.05758
1109.03,0.05642
1085.88,0.05516
1062.74,0.05587
1039.59,0.05584
1016.45,0.05660
993.304,0.05623
970.159,0.05579
947.014,0.05480
923.869,0.05409
900.724,0.05489
877.579,0.05308
854.434,0.05228
831.289,0.05283
808.144,0.05158
784.999,0.04856
761.854,0.04999
738.709,0.05225
715.565,0.04420
692.42,0.06700
669.275,0.05639
646.13,0.05386
622.985,0.05235
599.84,0.05671