File: 01_Data/Straw/FTIR/IS/Straw_IS_S_221109_R3.dpt
7497.03,0.83159
7473.89,0.83016
7450.74,0.82911
7427.6,0.83731
7404.45,0.82573
7381.31,0.82766
7358.16,0.81896
7335.02,0.81235
7311.87,0.81033
7288.73,0.80868
7265.58,0.80481
7242.44,0.81386
7219.29,0.80528
7196.15,0.81050
7173,0.80297
7149.86,0.79375
7126.71,0.78530
7103.57,0.77795
7080.42,0.76304
7057.28,0.74493
7034.13,0.72711
7010.99,0.71189
6987.84,0.70469
6964.7,0.69025
6941.55,0.69339
6918.41,0.69495
6895.26,0.68282
6872.12,0.68554
6848.97,0.68794
6825.83,0.67717
6802.68,0.68492
6779.54,0.68511
6756.39,0.68273
6733.25,0.68219
6710.1,0.68845
6686.96,0.68595
6663.82,0.69288
6640.67,0.69679
6617.53,0.69343
6594.38,0.70706
6571.24,0.70833
6548.09,0.70792
6524.95,0.71136
6501.8,0.71521
6478.66,0.71706
6455.51,0.72116
6432.37,0.71965
6409.22,0.72331
6386.08,0.72535
6362.93,0.72619
6339.79,0.72902
6316.64,0.72442
6293.5,0.72636
6270.35,0.73373
6247.21,0.74191
6224.06,0.74485
6200.92,0.74857
6177.77,0.75942
6154.63,0.75903
6131.48,0.76250
6108.34,0.76432
6085.19,0.76721
6062.05,0.76267
6038.9,0.76130
6015.76,0.75895
5992.61,0.75422
5969.47,0.75233
5946.32,0.75121
5923.18,0.74859
5900.03,0.74736
5876.89,0.74414
5853.74,0.74274
5830.6,0.74235
5807.45,0.73294
5784.31,0.73379
5761.16,0.73917
5738.02,0.74461
5714.87,0.74280
5691.73,0.73884
5668.58,0.74147
5645.44,0.74059
5622.29,0.74135
5599.15,0.74029
5576,0.74095
5552.86,0.74485
5529.71,0.74532
5506.57,0.74687
5483.42,0.74841
5460.28,0.75093
5437.13,0.75429
5413.99,0.75834
5390.84,0.75764
5367.7,0.76196
5344.55,0.75782
5321.41,0.75261
5298.26,0.73547
5275.12,0.70028
5251.97,0.65995
5228.83,0.63183
5205.68,0.61840
5182.54,0.61856
5159.39,0.62896
5136.25,0.64284
5113.1,0.65555
5089.96,0.66587
5066.81,0.67774
5043.67,0.68520
5020.52,0.69148
4997.38,0.69123
4974.23,0.68460
4951.09,0.67124
4927.94,0.64972
4904.8,0.62479
4881.65,0.60011
4858.51,0.57832
4835.36,0.56103
4812.22,0.54983
4789.07,0.54459
4765.93,0.54246
4742.78,0.54152
4719.64,0.54478
4696.49,0.54866
4673.35,0.55621
4650.2,0.56585
4627.06,0.57552
4603.92,0.58472
4580.77,0.59209
4557.63,0.59906
4534.48,0.60459
4511.34,0.60556
4488.19,0.59718
4465.05,0.57256
4441.9,0.54049
4418.76,0.51528
4395.61,0.50450
4372.47,0.51244
4349.32,0.51334
4326.18,0.50184
4303.03,0.49252
4279.89,0.48774
4256.74,0.49175
4233.6,0.49578
4210.45,0.49852
4187.31,0.49974
4164.16,0.50465
4141.02,0.49769
4117.87,0.48161
4094.73,0.45825
4071.58,0.43295
4048.44,0.40784
4025.29,0.38999
4002.15,0.38943
3979,0.39754
3955.86,0.40971
3932.71,0.42221
3909.57,0.43529
3886.42,0.44964
3863.28,0.46292
3840.13,0.47657
3816.99,0.48215
3793.84,0.48224
3770.7,0.47831
3747.55,0.47087
3724.41,0.45253
3701.26,0.41606
3678.12,0.33618
3654.97,0.23359
3631.83,0.16647
3608.68,0.12357
3585.54,0.09433
3562.39,0.07703
3539.25,0.06627
3516.1,0.05777
3492.96,0.05213
3469.81,0.04880
3446.67,0.04583
3423.52,0.04470
3400.38,0.04547
3377.23,0.04635
3354.09,0.04763
3330.94,0.04939
3307.8,0.05295
3284.65,0.05670
3261.51,0.06198
3238.36,0.06980
3215.22,0.07651
3192.07,0.08397
3168.93,0.09178
3145.78,0.10097
3122.64,0.10864
3099.49,0.11687
3076.35,0.12409
3053.2,0.13349
3030.06,0.13892
3006.91,0.13417
2983.77,0.12176
2960.62,0.10131
2937.48,0.08794
2914.33,0.08978
2891.19,0.08885
2868.04,0.09484
2844.9,0.11161
2821.75,0.13695
2798.61,0.15419
2775.46,0.16355
2752.32,0.16860
2729.17,0.17219
2706.03,0.18153
2682.88,0.19140
2659.74,0.20142
2636.59,0.21053
2613.45,0.22152
2590.3,0.23101
2567.16,0.23671
2544.02,0.24112
2520.87,0.24776
2497.73,0.25776
2474.58,0.26951
2451.44,0.28066
2428.29,0.29533
2405.15,0.31108
2382,0.32490
2358.86,0.33573
2335.71,0.34564
2312.57,0.35158
2289.42,0.35047
2266.28,0.34760
2243.13,0.34310
2219.99,0.34410
2196.84,0.34026
2173.7,0.32513
2150.55,0.31155
2127.41,0.31113
2104.26,0.32026
2081.12,0.32870
2057.97,0.32932
2034.83,0.33761
2011.68,0.35556
1988.54,0.36901
1965.39,0.37332
1942.25,0.38123
1919.1,0.39403
1895.96,0.39667
1872.81,0.39404
1849.67,0.38467
1826.52,0.36738
1803.38,0.33414
1780.23,0.27025
1757.09,0.15316
1733.94,0.10400
1710.8,0.12142
1687.65,0.12831
1664.51,0.09402
1641.36,0.08991
1618.22,0.08004
1595.07,0.07644
1571.93,0.10538
1548.78,0.12693
1525.64,0.10427
1502.49,0.07406
1479.35,0.07961
1456.2,0.05850
1433.06,0.05433
1409.91,0.06084
1386.77,0.05106
1363.62,0.04902
1340.48,0.05142
1317.33,0.05091
1294.19,0.05460
1271.04,0.04515
1247.9,0.04612
1224.75,0.05466
1201.61,0.05370
1178.46,0.04562
1155.32,0.05324
1132.17,0.05079
1109.03,0.06439
1085.88,0.07026
1062.74,0.07228
1039.59,0.08669
1016.45,0.08411
993.304,0.08417
970.159,0.10664
947.014,0.14622
923.869,0.15959
900.724,0.13174
877.579,0.17093
854.434,0.16844
831.289,0.16135
808.144,0.16803
784.999,0.16341
761.854,0.14650
738.709,0.12940
715.565,0.11830
692.42,0.11232
669.275,0.09860
646.13,0.10263
622.985,0.09941
599.84,0.11146