File: 01_Data/Straw/FTIR/IS/Straw_IS_S_221109_R7.dpt
7497.03,0.85843
7473.89,0.84485
7450.74,0.83063
7427.6,0.83159
7404.45,0.82955
7381.31,0.82576
7358.16,0.81371
7335.02,0.81045
7311.87,0.81568
7288.73,0.81556
7265.58,0.80753
7242.44,0.81000
7219.29,0.80884
7196.15,0.81631
7173,0.80735
7149.86,0.79465
7126.71,0.79397
7103.57,0.77332
7080.42,0.76859
7057.28,0.74179
7034.13,0.72476
7010.99,0.72196
6987.84,0.70338
6964.7,0.69356
6941.55,0.69573
6918.41,0.69381
6895.26,0.68613
6872.12,0.68517
6848.97,0.67871
6825.83,0.68365
6802.68,0.67783
6779.54,0.68970
6756.39,0.68618
6733.25,0.68839
6710.1,0.68498
6686.96,0.69046
6663.82,0.68858
6640.67,0.69870
6617.53,0.69646
6594.38,0.70282
6571.24,0.70956
6548.09,0.71049
6524.95,0.71814
6501.8,0.71065
6478.66,0.71635
6455.51,0.72413
6432.37,0.71899
6409.22,0.72194
6386.08,0.72233
6362.93,0.72259
6339.79,0.72349
6316.64,0.72617
6293.5,0.73109
6270.35,0.73050
6247.21,0.73902
6224.06,0.74787
6200.92,0.74948
6177.77,0.75443
6154.63,0.76034
6131.48,0.76427
6108.34,0.76242
6085.19,0.76822
6062.05,0.76846
6038.9,0.76089
6015.76,0.75926
5992.61,0.75643
5969.47,0.75419
5946.32,0.75071
5923.18,0.75274
5900.03,0.74450
5876.89,0.74243
5853.74,0.74149
5830.6,0.74094
5807.45,0.73363
5784.31,0.73646
5761.16,0.74071
5738.02,0.74533
5714.87,0.74371
5691.73,0.74187
5668.58,0.74203
5645.44,0.74142
5622.29,0.73895
5599.15,0.74045
5576,0.74261
5552.86,0.74365
5529.71,0.74604
5506.57,0.74650
5483.42,0.74720
5460.28,0.75098
5437.13,0.75513
5413.99,0.75826
5390.84,0.76312
5367.7,0.76047
5344.55,0.75837
5321.41,0.75579
5298.26,0.73913
5275.12,0.71022
5251.97,0.67004
5228.83,0.64339
5205.68,0.63068
5182.54,0.63094
5159.39,0.63915
5136.25,0.65301
5113.1,0.66523
5089.96,0.67668
5066.81,0.68572
5043.67,0.69332
5020.52,0.69669
4997.38,0.69624
4974.23,0.68911
4951.09,0.67343
4927.94,0.64980
4904.8,0.62402
4881.65,0.59954
4858.51,0.57951
4835.36,0.56191
4812.22,0.54949
4789.07,0.54388
4765.93,0.54118
4742.78,0.54168
4719.64,0.54432
4696.49,0.54946
4673.35,0.55624
4650.2,0.56639
4627.06,0.57541
4603.92,0.58469
4580.77,0.59251
4557.63,0.59953
4534.48,0.60507
4511.34,0.60596
4488.19,0.59769
4465.05,0.57247
4441.9,0.54015
4418.76,0.51514
4395.61,0.50487
4372.47,0.51209
4349.32,0.51278
4326.18,0.50129
4303.03,0.49244
4279.89,0.48753
4256.74,0.49105
4233.6,0.49619
4210.45,0.49760
4187.31,0.50029
4164.16,0.50515
4141.02,0.49919
4117.87,0.48279
4094.73,0.46009
4071.58,0.43439
4048.44,0.40831
4025.29,0.39042
4002.15,0.39042
3979,0.39925
3955.86,0.41102
3932.71,0.42407
3909.57,0.43728
3886.42,0.45013
3863.28,0.46385
3840.13,0.47822
3816.99,0.48566
3793.84,0.48544
3770.7,0.48280
3747.55,0.47559
3724.41,0.45847
3701.26,0.42308
3678.12,0.34744
3654.97,0.24557
3631.83,0.17644
3608.68,0.12999
3585.54,0.09863
3562.39,0.08003
3539.25,0.06655
3516.1,0.05946
3492.96,0.05272
3469.81,0.04873
3446.67,0.04714
3423.52,0.04552
3400.38,0.04535
3377.23,0.04670
3354.09,0.04784
3330.94,0.05018
3307.8,0.05398
3284.65,0.05745
3261.51,0.06346
3238.36,0.07117
3215.22,0.07805
3192.07,0.08597
3168.93,0.09335
3145.78,0.10205
3122.64,0.11118
3099.49,0.11872
3076.35,0.12657
3053.2,0.13603
3030.06,0.14081
3006.91,0.13539
2983.77,0.12195
2960.62,0.10065
2937.48,0.08786
2914.33,0.08955
2891.19,0.08894
2868.04,0.09492
2844.9,0.11164
2821.75,0.13764
2798.61,0.15549
2775.46,0.16364
2752.32,0.16894
2729.17,0.17274
2706.03,0.18177
2682.88,0.19210
2659.74,0.20216
2636.59,0.21108
2613.45,0.22212
2590.3,0.23171
2567.16,0.23676
2544.02,0.24148
2520.87,0.24819
2497.73,0.25833
2474.58,0.26913
2451.44,0.28085
2428.29,0.29554
2405.15,0.31150
2382,0.32525
2358.86,0.33627
2335.71,0.34698
2312.57,0.35268
2289.42,0.35203
2266.28,0.34920
2243.13,0.34510
2219.99,0.34627
2196.84,0.34350
2173.7,0.32747
2150.55,0.31504
2127.41,0.31394
2104.26,0.32367
2081.12,0.33167
2057.97,0.33281
2034.83,0.34005
2011.68,0.35808
1988.54,0.37187
1965.39,0.37643
1942.25,0.38356
1919.1,0.39634
1895.96,0.39912
1872.81,0.39639
1849.67,0.38677
1826.52,0.36945
1803.38,0.33571
1780.23,0.27079
1757.09,0.15249
1733.94,0.10500
1710.8,0.12223
1687.65,0.13008
1664.51,0.09509
1641.36,0.09136
1618.22,0.08085
1595.07,0.07593
1571.93,0.10532
1548.78,0.12746
1525.64,0.10455
1502.49,0.07372
1479.35,0.07978
1456.2,0.05899
1433.06,0.05427
1409.91,0.06057
1386.77,0.05110
1363.62,0.04885
1340.48,0.05133
1317.33,0.05053
1294.19,0.05478
1271.04,0.04509
1247.9,0.04679
1224.75,0.05433
1201.61,0.05457
1178.46,0.04587
1155.32,0.05378
1132.17,0.05077
1109.03,0.06495
1085.88,0.07080
1062.74,0.07279
1039.59,0.08662
1016.45,0.08368
993.304,0.08474
970.159,0.10766
947.014,0.14771
923.869,0.16069
900.724,0.13302
877.579,0.17391
854.434,0.17107
831.289,0.16429
808.144,0.17128
784.999,0.16702
761.854,0.15004
738.709,0.13181
715.565,0.12121
692.42,0.11348
669.275,0.10071
646.13,0.10270
622.985,0.09940
599.84,0.11093