File: 01_Data/Straw/FTIR/IS/Straw_IS_S_221109_R2.dpt
7497.03,0.83995
7473.89,0.82883
7450.74,0.82673
7427.6,0.82561
7404.45,0.83427
7381.31,0.82602
7358.16,0.81649
7335.02,0.82634
7311.87,0.81684
7288.73,0.81052
7265.58,0.80363
7242.44,0.81167
7219.29,0.80856
7196.15,0.80451
7173,0.80579
7149.86,0.80064
7126.71,0.79093
7103.57,0.77989
7080.42,0.76776
7057.28,0.74246
7034.13,0.73275
7010.99,0.71555
6987.84,0.70624
6964.7,0.68970
6941.55,0.69169
6918.41,0.68197
6895.26,0.68357
6872.12,0.68892
6848.97,0.68486
6825.83,0.68553
6802.68,0.67848
6779.54,0.68158
6756.39,0.68154
6733.25,0.68760
6710.1,0.68753
6686.96,0.68973
6663.82,0.69375
6640.67,0.69073
6617.53,0.69802
6594.38,0.70244
6571.24,0.71010
6548.09,0.71212
6524.95,0.70928
6501.8,0.71378
6478.66,0.71389
6455.51,0.71795
6432.37,0.71486
6409.22,0.72046
6386.08,0.72175
6362.93,0.72358
6339.79,0.72496
6316.64,0.73057
6293.5,0.72747
6270.35,0.73135
6247.21,0.73927
6224.06,0.74097
6200.92,0.74758
6177.77,0.75377
6154.63,0.75500
6131.48,0.76163
6108.34,0.76357
6085.19,0.76330
6062.05,0.76450
6038.9,0.76190
6015.76,0.75732
5992.61,0.75528
5969.47,0.75109
5946.32,0.75299
5923.18,0.75107
5900.03,0.74323
5876.89,0.74206
5853.74,0.74385
5830.6,0.73795
5807.45,0.73331
5784.31,0.73527
5761.16,0.73752
5738.02,0.73873
5714.87,0.73945
5691.73,0.74145
5668.58,0.73774
5645.44,0.73817
5622.29,0.73916
5599.15,0.73882
5576,0.73824
5552.86,0.74180
5529.71,0.74033
5506.57,0.74356
5483.42,0.74445
5460.28,0.74885
5437.13,0.75231
5413.99,0.75452
5390.84,0.75884
5367.7,0.75768
5344.55,0.75637
5321.41,0.74956
5298.26,0.73356
5275.12,0.69961
5251.97,0.65772
5228.83,0.62682
5205.68,0.61333
5182.54,0.61398
5159.39,0.62441
5136.25,0.63882
5113.1,0.65192
5089.96,0.66387
5066.81,0.67322
5043.67,0.68256
5020.52,0.68716
4997.38,0.68839
4974.23,0.68185
4951.09,0.66801
4927.94,0.64670
4904.8,0.62267
4881.65,0.59796
4858.51,0.57771
4835.36,0.56002
4812.22,0.54728
4789.07,0.54280
4765.93,0.53862
4742.78,0.54132
4719.64,0.54322
4696.49,0.54847
4673.35,0.55406
4650.2,0.56504
4627.06,0.57445
4603.92,0.58299
4580.77,0.59134
4557.63,0.59822
4534.48,0.60196
4511.34,0.60526
4488.19,0.59494
4465.05,0.57145
4441.9,0.53905
4418.76,0.51399
4395.61,0.50401
4372.47,0.51111
4349.32,0.51150
4326.18,0.50020
4303.03,0.49143
4279.89,0.48715
4256.74,0.48999
4233.6,0.49535
4210.45,0.49717
4187.31,0.49901
4164.16,0.50349
4141.02,0.49607
4117.87,0.47938
4094.73,0.45717
4071.58,0.43214
4048.44,0.40643
4025.29,0.38919
4002.15,0.38756
3979,0.39627
3955.86,0.40847
3932.71,0.42132
3909.57,0.43399
3886.42,0.44808
3863.28,0.46070
3840.13,0.47480
3816.99,0.48093
3793.84,0.47984
3770.7,0.47608
3747.55,0.46793
3724.41,0.44926
3701.26,0.41231
3678.12,0.33314
3654.97,0.23004
3631.83,0.16420
3608.68,0.12191
3585.54,0.09447
3562.39,0.07700
3539.25,0.06572
3516.1,0.05801
3492.96,0.05251
3469.81,0.04839
3446.67,0.04608
3423.52,0.04524
3400.38,0.04531
3377.23,0.04718
3354.09,0.04732
3330.94,0.04972
3307.8,0.05287
3284.65,0.05753
3261.51,0.06231
3238.36,0.06963
3215.22,0.07595
3192.07,0.08326
3168.93,0.09096
3145.78,0.09969
3122.64,0.10763
3099.49,0.11617
3076.35,0.12393
3053.2,0.13258
3030.06,0.13726
3006.91,0.13308
2983.77,0.12071
2960.62,0.10101
2937.48,0.08770
2914.33,0.08985
2891.19,0.08875
2868.04,0.09480
2844.9,0.11142
2821.75,0.13688
2798.61,0.15372
2775.46,0.16285
2752.32,0.16830
2729.17,0.17157
2706.03,0.18049
2682.88,0.19066
2659.74,0.20057
2636.59,0.21014
2613.45,0.22106
2590.3,0.23045
2567.16,0.23596
2544.02,0.24054
2520.87,0.24682
2497.73,0.25668
2474.58,0.26826
2451.44,0.27980
2428.29,0.29420
2405.15,0.31024
2382,0.32349
2358.86,0.33482
2335.71,0.34443
2312.57,0.35013
2289.42,0.34894
2266.28,0.34553
2243.13,0.34169
2219.99,0.34207
2196.84,0.33877
2173.7,0.32315
2150.55,0.30994
2127.41,0.30920
2104.26,0.31858
2081.12,0.32707
2057.97,0.32805
2034.83,0.33571
2011.68,0.35349
1988.54,0.36748
1965.39,0.37140
1942.25,0.37931
1919.1,0.39243
1895.96,0.39475
1872.81,0.39220
1849.67,0.38300
1826.52,0.36578
1803.38,0.33272
1780.23,0.26958
1757.09,0.15302
1733.94,0.10386
1710.8,0.12119
1687.65,0.12767
1664.51,0.09335
1641.36,0.08951
1618.22,0.07994
1595.07,0.07588
1571.93,0.10519
1548.78,0.12642
1525.64,0.10461
1502.49,0.07405
1479.35,0.07967
1456.2,0.05875
1433.06,0.05406
1409.91,0.06074
1386.77,0.05107
1363.62,0.04941
1340.48,0.05155
1317.33,0.05064
1294.19,0.05469
1271.04,0.04532
1247.9,0.04653
1224.75,0.05420
1201.61,0.05424
1178.46,0.04547
1155.32,0.05298
1132.17,0.05053
1109.03,0.06465
1085.88,0.07032
1062.74,0.07305
1039.59,0.08608
1016.45,0.08361
993.304,0.08488
970.159,0.10633
947.014,0.14606
923.869,0.15916
900.724,0.13170
877.579,0.16978
854.434,0.16671
831.289,0.16097
808.144,0.16660
784.999,0.16182
761.854,0.14671
738.709,0.12920
715.565,0.11677
692.42,0.11191
669.275,0.09787
646.13,0.10241
622.985,0.10077
599.84,0.11255