File: 01_Data/Straw/FTIR/IS/Straw_IS_S_221109_R5.dpt
7497.03,0.83331
7473.89,0.83593
7450.74,0.83870
7427.6,0.84274
7404.45,0.82622
7381.31,0.83331
7358.16,0.82420
7335.02,0.81937
7311.87,0.81149
7288.73,0.80504
7265.58,0.81654
7242.44,0.82105
7219.29,0.80694
7196.15,0.80736
7173,0.81068
7149.86,0.79898
7126.71,0.79033
7103.57,0.77234
7080.42,0.77214
7057.28,0.74910
7034.13,0.73248
7010.99,0.72113
6987.84,0.69584
6964.7,0.69025
6941.55,0.69771
6918.41,0.68408
6895.26,0.69117
6872.12,0.68458
6848.97,0.68349
6825.83,0.68811
6802.68,0.68553
6779.54,0.68168
6756.39,0.68278
6733.25,0.68337
6710.1,0.68961
6686.96,0.69226
6663.82,0.69648
6640.67,0.69574
6617.53,0.69560
6594.38,0.70316
6571.24,0.70155
6548.09,0.71608
6524.95,0.71600
6501.8,0.71545
6478.66,0.71485
6455.51,0.71613
6432.37,0.71912
6409.22,0.71973
6386.08,0.72308
6362.93,0.72579
6339.79,0.72727
6316.64,0.72570
6293.5,0.73030
6270.35,0.73553
6247.21,0.73928
6224.06,0.74288
6200.92,0.75242
6177.77,0.75520
6154.63,0.76065
6131.48,0.76310
6108.34,0.76424
6085.19,0.76484
6062.05,0.76230
6038.9,0.76286
6015.76,0.76555
5992.61,0.75666
5969.47,0.75423
5946.32,0.75116
5923.18,0.74984
5900.03,0.74563
5876.89,0.74062
5853.74,0.74415
5830.6,0.73668
5807.45,0.73510
5784.31,0.73563
5761.16,0.74261
5738.02,0.74245
5714.87,0.74145
5691.73,0.74184
5668.58,0.74245
5645.44,0.74120
5622.29,0.74056
5599.15,0.74116
5576,0.74491
5552.86,0.74410
5529.71,0.74599
5506.57,0.74706
5483.42,0.74771
5460.28,0.75258
5437.13,0.75330
5413.99,0.75832
5390.84,0.76050
5367.7,0.75891
5344.55,0.76100
5321.41,0.75615
5298.26,0.73900
5275.12,0.70760
5251.97,0.66848
5228.83,0.64106
5205.68,0.62924
5182.54,0.62836
5159.39,0.63776
5136.25,0.65143
5113.1,0.66293
5089.96,0.67363
5066.81,0.68413
5043.67,0.69092
5020.52,0.69647
4997.38,0.69467
4974.23,0.68814
4951.09,0.67308
4927.94,0.65071
4904.8,0.62489
4881.65,0.60010
4858.51,0.57789
4835.36,0.56312
4812.22,0.55037
4789.07,0.54402
4765.93,0.54053
4742.78,0.54279
4719.64,0.54413
4696.49,0.54971
4673.35,0.55551
4650.2,0.56664
4627.06,0.57674
4603.92,0.58566
4580.77,0.59280
4557.63,0.59911
4534.48,0.60476
4511.34,0.60639
4488.19,0.59624
4465.05,0.57320
4441.9,0.54055
4418.76,0.51644
4395.61,0.50485
4372.47,0.51170
4349.32,0.51320
4326.18,0.50170
4303.03,0.49275
4279.89,0.48832
4256.74,0.49129
4233.6,0.49595
4210.45,0.49813
4187.31,0.50006
4164.16,0.50457
4141.02,0.49874
4117.87,0.48239
4094.73,0.45964
4071.58,0.43372
4048.44,0.40810
4025.29,0.39082
4002.15,0.38966
3979,0.39872
3955.86,0.41033
3932.71,0.42333
3909.57,0.43710
3886.42,0.45087
3863.28,0.46429
3840.13,0.47879
3816.99,0.48485
3793.84,0.48392
3770.7,0.48148
3747.55,0.47592
3724.41,0.45711
3701.26,0.42093
3678.12,0.34441
3654.97,0.24211
3631.83,0.17279
3608.68,0.12740
3585.54,0.09704
3562.39,0.07890
3539.25,0.06708
3516.1,0.05912
3492.96,0.05278
3469.81,0.04859
3446.67,0.04613
3423.52,0.04568
3400.38,0.04598
3377.23,0.04669
3354.09,0.04794
3330.94,0.05035
3307.8,0.05408
3284.65,0.05786
3261.51,0.06274
3238.36,0.07034
3215.22,0.07690
3192.07,0.08455
3168.93,0.09276
3145.78,0.10179
3122.64,0.11001
3099.49,0.11838
3076.35,0.12613
3053.2,0.13532
3030.06,0.13997
3006.91,0.13522
2983.77,0.12190
2960.62,0.10127
2937.48,0.08733
2914.33,0.08919
2891.19,0.08889
2868.04,0.09453
2844.9,0.11195
2821.75,0.13725
2798.61,0.15497
2775.46,0.16361
2752.32,0.16925
2729.17,0.17309
2706.03,0.18161
2682.88,0.19198
2659.74,0.20177
2636.59,0.21111
2613.45,0.22226
2590.3,0.23142
2567.16,0.23691
2544.02,0.24098
2520.87,0.24813
2497.73,0.25770
2474.58,0.26927
2451.44,0.28091
2428.29,0.29528
2405.15,0.31114
2382,0.32514
2358.86,0.33627
2335.71,0.34642
2312.57,0.35239
2289.42,0.35158
2266.28,0.34902
2243.13,0.34484
2219.99,0.34582
2196.84,0.34264
2173.7,0.32704
2150.55,0.31393
2127.41,0.31297
2104.26,0.32237
2081.12,0.33126
2057.97,0.33218
2034.83,0.33961
2011.68,0.35782
1988.54,0.37132
1965.39,0.37568
1942.25,0.38279
1919.1,0.39567
1895.96,0.39815
1872.81,0.39586
1849.67,0.38592
1826.52,0.36900
1803.38,0.33524
1780.23,0.27039
1757.09,0.15255
1733.94,0.10478
1710.8,0.12176
1687.65,0.12943
1664.51,0.09507
1641.36,0.09078
1618.22,0.08055
1595.07,0.07601
1571.93,0.10547
1548.78,0.12749
1525.64,0.10432
1502.49,0.07382
1479.35,0.07984
1456.2,0.05860
1433.06,0.05413
1409.91,0.06036
1386.77,0.05107
1363.62,0.04910
1340.48,0.05121
1317.33,0.05093
1294.19,0.05466
1271.04,0.04558
1247.9,0.04655
1224.75,0.05429
1201.61,0.05410
1178.46,0.04584
1155.32,0.05384
1132.17,0.05028
1109.03,0.06501
1085.88,0.07180
1062.74,0.07396
1039.59,0.08651
1016.45,0.08372
993.304,0.08434
970.159,0.10772
947.014,0.14699
923.869,0.16041
900.724,0.13215
877.579,0.17214
854.434,0.17010
831.289,0.16313
808.144,0.16977
784.999,0.16560
761.854,0.14962
738.709,0.13164
715.565,0.11963
692.42,0.11213
669.275,0.09999
646.13,0.10207
622.985,0.09831
599.84,0.11015