File: 01_Data/Straw/FTIR/IS/Straw_IS_S_221109_R8.dpt
7497.03,0.85133
7473.89,0.82625
7450.74,0.83524
7427.6,0.82049
7404.45,0.82157
7381.31,0.81885
7358.16,0.82160
7335.02,0.81340
7311.87,0.81571
7288.73,0.82154
7265.58,0.80185
7242.44,0.80885
7219.29,0.80826
7196.15,0.81129
7173,0.80584
7149.86,0.80752
7126.71,0.78862
7103.57,0.78498
7080.42,0.76073
7057.28,0.74321
7034.13,0.72737
7010.99,0.70942
6987.84,0.70320
6964.7,0.69608
6941.55,0.69119
6918.41,0.68926
6895.26,0.69306
6872.12,0.68961
6848.97,0.68709
6825.83,0.69119
6802.68,0.68684
6779.54,0.67884
6756.39,0.68499
6733.25,0.69061
6710.1,0.68702
6686.96,0.69130
6663.82,0.69378
6640.67,0.69386
6617.53,0.70119
6594.38,0.70200
6571.24,0.70680
6548.09,0.71027
6524.95,0.71086
6501.8,0.71501
6478.66,0.71350
6455.51,0.72027
6432.37,0.71774
6409.22,0.72221
6386.08,0.72306
6362.93,0.72511
6339.79,0.72657
6316.64,0.73047
6293.5,0.73085
6270.35,0.73131
6247.21,0.74008
6224.06,0.74296
6200.92,0.74969
6177.77,0.75536
6154.63,0.76189
6131.48,0.76451
6108.34,0.76502
6085.19,0.76635
6062.05,0.76689
6038.9,0.76347
6015.76,0.75754
5992.61,0.75511
5969.47,0.75464
5946.32,0.74864
5923.18,0.74909
5900.03,0.74638
5876.89,0.74136
5853.74,0.74288
5830.6,0.73765
5807.45,0.73351
5784.31,0.73919
5761.16,0.73998
5738.02,0.74392
5714.87,0.74327
5691.73,0.74142
5668.58,0.74083
5645.44,0.74141
5622.29,0.74086
5599.15,0.74088
5576,0.74128
5552.86,0.74255
5529.71,0.74606
5506.57,0.74629
5483.42,0.74712
5460.28,0.74910
5437.13,0.75438
5413.99,0.75587
5390.84,0.75882
5367.7,0.76195
5344.55,0.76071
5321.41,0.75412
5298.26,0.73861
5275.12,0.70988
5251.97,0.67363
5228.83,0.64464
5205.68,0.63513
5182.54,0.63496
5159.39,0.64308
5136.25,0.65523
5113.1,0.66797
5089.96,0.67756
5066.81,0.68612
5043.67,0.69327
5020.52,0.69730
4997.38,0.69478
4974.23,0.68908
4951.09,0.67273
4927.94,0.64904
4904.8,0.62489
4881.65,0.60027
4858.51,0.57966
4835.36,0.56154
4812.22,0.54926
4789.07,0.54241
4765.93,0.53998
4742.78,0.54123
4719.64,0.54282
4696.49,0.54836
4673.35,0.55518
4650.2,0.56544
4627.06,0.57622
4603.92,0.58418
4580.77,0.59318
4557.63,0.59946
4534.48,0.60502
4511.34,0.60472
4488.19,0.59627
4465.05,0.57250
4441.9,0.53993
4418.76,0.51423
4395.61,0.50374
4372.47,0.51080
4349.32,0.51206
4326.18,0.50119
4303.03,0.49220
4279.89,0.48692
4256.74,0.49105
4233.6,0.49539
4210.45,0.49774
4187.31,0.49948
4164.16,0.50514
4141.02,0.49797
4117.87,0.48212
4094.73,0.45947
4071.58,0.43389
4048.44,0.40837
4025.29,0.39065
4002.15,0.38997
3979,0.39831
3955.86,0.41053
3932.71,0.42460
3909.57,0.43694
3886.42,0.45066
3863.28,0.46445
3840.13,0.47945
3816.99,0.48509
3793.84,0.48611
3770.7,0.48327
3747.55,0.47635
3724.41,0.45981
3701.26,0.42498
3678.12,0.34982
3654.97,0.24732
3631.83,0.17859
3608.68,0.13101
3585.54,0.09972
3562.39,0.07996
3539.25,0.06820
3516.1,0.05946
3492.96,0.05394
3469.81,0.04939
3446.67,0.04657
3423.52,0.04596
3400.38,0.04597
3377.23,0.04680
3354.09,0.04772
3330.94,0.05004
3307.8,0.05405
3284.65,0.05756
3261.51,0.06388
3238.36,0.07101
3215.22,0.07792
3192.07,0.08583
3168.93,0.09392
3145.78,0.10217
3122.64,0.11130
3099.49,0.11920
3076.35,0.12735
3053.2,0.13630
3030.06,0.14105
3006.91,0.13542
2983.77,0.12193
2960.62,0.10157
2937.48,0.08788
2914.33,0.08964
2891.19,0.08914
2868.04,0.09438
2844.9,0.11190
2821.75,0.13695
2798.61,0.15512
2775.46,0.16382
2752.32,0.16914
2729.17,0.17313
2706.03,0.18191
2682.88,0.19193
2659.74,0.20201
2636.59,0.21145
2613.45,0.22189
2590.3,0.23154
2567.16,0.23695
2544.02,0.24090
2520.87,0.24773
2497.73,0.25800
2474.58,0.26896
2451.44,0.28092
2428.29,0.29510
2405.15,0.31133
2382,0.32489
2358.86,0.33630
2335.71,0.34731
2312.57,0.35263
2289.42,0.35228
2266.28,0.34947
2243.13,0.34544
2219.99,0.34662
2196.84,0.34402
2173.7,0.32851
2150.55,0.31521
2127.41,0.31446
2104.26,0.32364
2081.12,0.33252
2057.97,0.33358
2034.83,0.34091
2011.68,0.35865
1988.54,0.37251
1965.39,0.37686
1942.25,0.38386
1919.1,0.39659
1895.96,0.39915
1872.81,0.39668
1849.67,0.38672
1826.52,0.36961
1803.38,0.33597
1780.23,0.27037
1757.09,0.15189
1733.94,0.10446
1710.8,0.12186
1687.65,0.13032
1664.51,0.09558
1641.36,0.09128
1618.22,0.08116
1595.07,0.07597
1571.93,0.10541
1548.78,0.12760
1525.64,0.10447
1502.49,0.07350
1479.35,0.07970
1456.2,0.05848
1433.06,0.05381
1409.91,0.06033
1386.77,0.05109
1363.62,0.04915
1340.48,0.05130
1317.33,0.05023
1294.19,0.05457
1271.04,0.04550
1247.9,0.04655
1224.75,0.05440
1201.61,0.05421
1178.46,0.04621
1155.32,0.05318
1132.17,0.05087
1109.03,0.06525
1085.88,0.07107
1062.74,0.07344
1039.59,0.08665
1016.45,0.08328
993.304,0.08445
970.159,0.10758
947.014,0.14728
923.869,0.16095
900.724,0.13362
877.579,0.17301
854.434,0.17080
831.289,0.16523
808.144,0.17255
784.999,0.16709
761.854,0.15076
738.709,0.13364
715.565,0.12047
692.42,0.11406
669.275,0.10057
646.13,0.10349
622.985,0.10079
599.84,0.11316