File: 01_Data/Straw/FTIR/IS/Straw_IS_S_221109_R1.dpt
7497.03,0.84261
7473.89,0.85500
7450.74,0.83107
7427.6,0.83463
7404.45,0.83893
7381.31,0.83175
7358.16,0.81525
7335.02,0.82310
7311.87,0.81780
7288.73,0.81394
7265.58,0.80594
7242.44,0.81732
7219.29,0.81138
7196.15,0.80175
7173,0.81020
7149.86,0.79702
7126.71,0.79410
7103.57,0.77997
7080.42,0.75906
7057.28,0.74216
7034.13,0.72866
7010.99,0.72009
6987.84,0.70716
6964.7,0.69296
6941.55,0.69638
6918.41,0.68522
6895.26,0.68215
6872.12,0.68664
6848.97,0.68562
6825.83,0.67856
6802.68,0.68477
6779.54,0.68108
6756.39,0.67968
6733.25,0.68036
6710.1,0.68815
6686.96,0.68277
6663.82,0.69023
6640.67,0.69581
6617.53,0.69178
6594.38,0.69967
6571.24,0.70936
6548.09,0.71360
6524.95,0.70970
6501.8,0.71293
6478.66,0.71257
6455.51,0.72127
6432.37,0.71480
6409.22,0.71571
6386.08,0.72515
6362.93,0.72375
6339.79,0.72699
6316.64,0.72423
6293.5,0.72995
6270.35,0.73493
6247.21,0.73833
6224.06,0.74264
6200.92,0.74864
6177.77,0.75588
6154.63,0.75718
6131.48,0.75813
6108.34,0.76150
6085.19,0.76457
6062.05,0.76261
6038.9,0.76210
6015.76,0.76118
5992.61,0.75674
5969.47,0.74794
5946.32,0.75038
5923.18,0.74981
5900.03,0.74846
5876.89,0.74203
5853.74,0.73699
5830.6,0.73893
5807.45,0.73477
5784.31,0.73523
5761.16,0.73872
5738.02,0.74192
5714.87,0.74098
5691.73,0.74215
5668.58,0.74069
5645.44,0.74100
5622.29,0.73668
5599.15,0.73831
5576,0.74099
5552.86,0.74177
5529.71,0.74465
5506.57,0.74468
5483.42,0.74577
5460.28,0.74791
5437.13,0.75215
5413.99,0.75594
5390.84,0.75915
5367.7,0.75772
5344.55,0.75870
5321.41,0.75100
5298.26,0.73111
5275.12,0.70007
5251.97,0.65565
5228.83,0.62494
5205.68,0.61127
5182.54,0.61317
5159.39,0.62265
5136.25,0.63655
5113.1,0.65016
5089.96,0.66222
5066.81,0.67158
5043.67,0.68197
5020.52,0.68632
4997.38,0.68845
4974.23,0.68288
4951.09,0.66808
4927.94,0.64687
4904.8,0.62307
4881.65,0.59783
4858.51,0.57851
4835.36,0.55974
4812.22,0.54842
4789.07,0.54368
4765.93,0.54008
4742.78,0.53917
4719.64,0.54423
4696.49,0.54693
4673.35,0.55541
4650.2,0.56455
4627.06,0.57387
4603.92,0.58347
4580.77,0.59229
4557.63,0.59776
4534.48,0.60329
4511.34,0.60424
4488.19,0.59598
4465.05,0.57181
4441.9,0.53984
4418.76,0.51401
4395.61,0.50402
4372.47,0.51142
4349.32,0.51227
4326.18,0.50165
4303.03,0.49178
4279.89,0.48700
4256.74,0.49070
4233.6,0.49504
4210.45,0.49694
4187.31,0.49934
4164.16,0.50355
4141.02,0.49564
4117.87,0.48017
4094.73,0.45800
4071.58,0.43211
4048.44,0.40678
4025.29,0.38927
4002.15,0.38767
3979,0.39634
3955.86,0.40804
3932.71,0.42066
3909.57,0.43443
3886.42,0.44703
3863.28,0.46150
3840.13,0.47535
3816.99,0.48115
3793.84,0.47959
3770.7,0.47600
3747.55,0.46845
3724.41,0.44891
3701.26,0.41097
3678.12,0.33148
3654.97,0.22812
3631.83,0.16155
3608.68,0.12024
3585.54,0.09326
3562.39,0.07660
3539.25,0.06498
3516.1,0.05827
3492.96,0.05259
3469.81,0.04825
3446.67,0.04582
3423.52,0.04520
3400.38,0.04532
3377.23,0.04691
3354.09,0.04780
3330.94,0.05055
3307.8,0.05401
3284.65,0.05676
3261.51,0.06273
3238.36,0.06931
3215.22,0.07640
3192.07,0.08305
3168.93,0.09114
3145.78,0.09937
3122.64,0.10771
3099.49,0.11522
3076.35,0.12307
3053.2,0.13236
3030.06,0.13737
3006.91,0.13284
2983.77,0.12107
2960.62,0.10118
2937.48,0.08775
2914.33,0.08952
2891.19,0.08901
2868.04,0.09497
2844.9,0.11156
2821.75,0.13670
2798.61,0.15423
2775.46,0.16255
2752.32,0.16799
2729.17,0.17143
2706.03,0.18095
2682.88,0.19064
2659.74,0.20088
2636.59,0.21025
2613.45,0.22088
2590.3,0.23035
2567.16,0.23625
2544.02,0.24000
2520.87,0.24672
2497.73,0.25691
2474.58,0.26845
2451.44,0.28032
2428.29,0.29440
2405.15,0.31035
2382,0.32347
2358.86,0.33438
2335.71,0.34468
2312.57,0.34942
2289.42,0.34909
2266.28,0.34570
2243.13,0.34136
2219.99,0.34172
2196.84,0.33834
2173.7,0.32267
2150.55,0.30974
2127.41,0.30890
2104.26,0.31770
2081.12,0.32631
2057.97,0.32757
2034.83,0.33500
2011.68,0.35278
1988.54,0.36683
1965.39,0.37144
1942.25,0.37904
1919.1,0.39188
1895.96,0.39444
1872.81,0.39187
1849.67,0.38235
1826.52,0.36566
1803.38,0.33285
1780.23,0.26990
1757.09,0.15357
1733.94,0.10431
1710.8,0.12075
1687.65,0.12734
1664.51,0.09295
1641.36,0.08929
1618.22,0.07998
1595.07,0.07599
1571.93,0.10482
1548.78,0.12651
1525.64,0.10424
1502.49,0.07451
1479.35,0.07952
1456.2,0.05860
1433.06,0.05446
1409.91,0.06074
1386.77,0.05097
1363.62,0.04906
1340.48,0.05180
1317.33,0.05084
1294.19,0.05453
1271.04,0.04512
1247.9,0.04647
1224.75,0.05429
1201.61,0.05457
1178.46,0.04536
1155.32,0.05278
1132.17,0.05057
1109.03,0.06438
1085.88,0.07103
1062.74,0.07335
1039.59,0.08657
1016.45,0.08377
993.304,0.08418
970.159,0.10697
947.014,0.14571
923.869,0.15900
900.724,0.13095
877.579,0.16956
854.434,0.16662
831.289,0.15984
808.144,0.16570
784.999,0.16103
761.854,0.14528
738.709,0.12801
715.565,0.11604
692.42,0.10966
669.275,0.09763
646.13,0.10021
622.985,0.10032
599.84,0.11073