File: 01_Data/Straw/FTIR/IS/Straw_IS_S_221109_R6.dpt
7497.03,0.84355
7473.89,0.83851
7450.74,0.84026
7427.6,0.83420
7404.45,0.82994
7381.31,0.83474
7358.16,0.81641
7335.02,0.81741
7311.87,0.81333
7288.73,0.81278
7265.58,0.80395
7242.44,0.81074
7219.29,0.81163
7196.15,0.81262
7173,0.80338
7149.86,0.79366
7126.71,0.78889
7103.57,0.77896
7080.42,0.76609
7057.28,0.74518
7034.13,0.72459
7010.99,0.71101
6987.84,0.70958
6964.7,0.70494
6941.55,0.68676
6918.41,0.68667
6895.26,0.68742
6872.12,0.68455
6848.97,0.68133
6825.83,0.68173
6802.68,0.68680
6779.54,0.68593
6756.39,0.68344
6733.25,0.68680
6710.1,0.69055
6686.96,0.69125
6663.82,0.69359
6640.67,0.69717
6617.53,0.70354
6594.38,0.69759
6571.24,0.70758
6548.09,0.70821
6524.95,0.70820
6501.8,0.71264
6478.66,0.71876
6455.51,0.72112
6432.37,0.71841
6409.22,0.72115
6386.08,0.72170
6362.93,0.72370
6339.79,0.72696
6316.64,0.72461
6293.5,0.73027
6270.35,0.73413
6247.21,0.73692
6224.06,0.73869
6200.92,0.75071
6177.77,0.75662
6154.63,0.76075
6131.48,0.76436
6108.34,0.76646
6085.19,0.76656
6062.05,0.76483
6038.9,0.76579
6015.76,0.76076
5992.61,0.75606
5969.47,0.75239
5946.32,0.74841
5923.18,0.75334
5900.03,0.74632
5876.89,0.74310
5853.74,0.74344
5830.6,0.73985
5807.45,0.73364
5784.31,0.73671
5761.16,0.74079
5738.02,0.74279
5714.87,0.74326
5691.73,0.74185
5668.58,0.74034
5645.44,0.73967
5622.29,0.74183
5599.15,0.74065
5576,0.74086
5552.86,0.74170
5529.71,0.74665
5506.57,0.74406
5483.42,0.74842
5460.28,0.75161
5437.13,0.75398
5413.99,0.75621
5390.84,0.76008
5367.7,0.75996
5344.55,0.76049
5321.41,0.75334
5298.26,0.73840
5275.12,0.70944
5251.97,0.67031
5228.83,0.64161
5205.68,0.62882
5182.54,0.63034
5159.39,0.63878
5136.25,0.65223
5113.1,0.66435
5089.96,0.67429
5066.81,0.68453
5043.67,0.69143
5020.52,0.69577
4997.38,0.69565
4974.23,0.68788
4951.09,0.67389
4927.94,0.64940
4904.8,0.62520
4881.65,0.59954
4858.51,0.57939
4835.36,0.56123
4812.22,0.54977
4789.07,0.54307
4765.93,0.54042
4742.78,0.54197
4719.64,0.54349
4696.49,0.54850
4673.35,0.55542
4650.2,0.56644
4627.06,0.57539
4603.92,0.58516
4580.77,0.59226
4557.63,0.59997
4534.48,0.60363
4511.34,0.60591
4488.19,0.59604
4465.05,0.57288
4441.9,0.54086
4418.76,0.51519
4395.61,0.50370
4372.47,0.51191
4349.32,0.51338
4326.18,0.50191
4303.03,0.49171
4279.89,0.48732
4256.74,0.49044
4233.6,0.49499
4210.45,0.49841
4187.31,0.49948
4164.16,0.50515
4141.02,0.49729
4117.87,0.48193
4094.73,0.45939
4071.58,0.43338
4048.44,0.40777
4025.29,0.39004
4002.15,0.38972
3979,0.39911
3955.86,0.41017
3932.71,0.42351
3909.57,0.43626
3886.42,0.45001
3863.28,0.46395
3840.13,0.47826
3816.99,0.48415
3793.84,0.48492
3770.7,0.48071
3747.55,0.47524
3724.41,0.45756
3701.26,0.42192
3678.12,0.34603
3654.97,0.24348
3631.83,0.17497
3608.68,0.12917
3585.54,0.09760
3562.39,0.07896
3539.25,0.06724
3516.1,0.05881
3492.96,0.05325
3469.81,0.04835
3446.67,0.04642
3423.52,0.04557
3400.38,0.04681
3377.23,0.04701
3354.09,0.04798
3330.94,0.05039
3307.8,0.05407
3284.65,0.05725
3261.51,0.06305
3238.36,0.07000
3215.22,0.07712
3192.07,0.08536
3168.93,0.09274
3145.78,0.10112
3122.64,0.10993
3099.49,0.11863
3076.35,0.12667
3053.2,0.13501
3030.06,0.14036
3006.91,0.13531
2983.77,0.12215
2960.62,0.10149
2937.48,0.08838
2914.33,0.08969
2891.19,0.08913
2868.04,0.09485
2844.9,0.11155
2821.75,0.13723
2798.61,0.15471
2775.46,0.16371
2752.32,0.16908
2729.17,0.17318
2706.03,0.18158
2682.88,0.19147
2659.74,0.20159
2636.59,0.21087
2613.45,0.22182
2590.3,0.23128
2567.16,0.23626
2544.02,0.24087
2520.87,0.24755
2497.73,0.25780
2474.58,0.26945
2451.44,0.28069
2428.29,0.29507
2405.15,0.31153
2382,0.32465
2358.86,0.33566
2335.71,0.34613
2312.57,0.35212
2289.42,0.35145
2266.28,0.34865
2243.13,0.34466
2219.99,0.34587
2196.84,0.34279
2173.7,0.32689
2150.55,0.31408
2127.41,0.31353
2104.26,0.32287
2081.12,0.33149
2057.97,0.33200
2034.83,0.33946
2011.68,0.35723
1988.54,0.37166
1965.39,0.37576
1942.25,0.38317
1919.1,0.39626
1895.96,0.39822
1872.81,0.39563
1849.67,0.38595
1826.52,0.36880
1803.38,0.33496
1780.23,0.27035
1757.09,0.15218
1733.94,0.10463
1710.8,0.12208
1687.65,0.12931
1664.51,0.09472
1641.36,0.09112
1618.22,0.08070
1595.07,0.07619
1571.93,0.10508
1548.78,0.12753
1525.64,0.10478
1502.49,0.07359
1479.35,0.07967
1456.2,0.05866
1433.06,0.05402
1409.91,0.06025
1386.77,0.05097
1363.62,0.04884
1340.48,0.05131
1317.33,0.05069
1294.19,0.05436
1271.04,0.04485
1247.9,0.04643
1224.75,0.05424
1201.61,0.05403
1178.46,0.04596
1155.32,0.05356
1132.17,0.05095
1109.03,0.06477
1085.88,0.07112
1062.74,0.07308
1039.59,0.08674
1016.45,0.08369
993.304,0.08413
970.159,0.10689
947.014,0.14728
923.869,0.16076
900.724,0.13254
877.579,0.17197
854.434,0.17055
831.289,0.16401
808.144,0.17091
784.999,0.16638
761.854,0.14955
738.709,0.13172
715.565,0.11962
692.42,0.11340
669.275,0.09974
646.13,0.10311
622.985,0.10084
599.84,0.11355