File: 01_Data/Straw/FTIR/IS/Straw_IS_S_221109_R4.dpt
7497.03,0.83970
7473.89,0.82779
7450.74,0.84217
7427.6,0.82514
7404.45,0.82355
7381.31,0.83128
7358.16,0.81521
7335.02,0.81248
7311.87,0.81506
7288.73,0.80848
7265.58,0.81403
7242.44,0.81943
7219.29,0.80765
7196.15,0.80322
7173,0.80507
7149.86,0.79624
7126.71,0.78769
7103.57,0.77854
7080.42,0.76178
7057.28,0.74617
7034.13,0.72342
7010.99,0.71356
6987.84,0.70567
6964.7,0.69819
6941.55,0.69279
6918.41,0.69215
6895.26,0.69006
6872.12,0.68993
6848.97,0.68687
6825.83,0.68700
6802.68,0.68745
6779.54,0.67711
6756.39,0.68411
6733.25,0.68333
6710.1,0.68073
6686.96,0.68774
6663.82,0.68702
6640.67,0.69252
6617.53,0.70012
6594.38,0.70394
6571.24,0.71202
6548.09,0.70920
6524.95,0.70699
6501.8,0.71604
6478.66,0.71984
6455.51,0.71820
6432.37,0.72059
6409.22,0.72428
6386.08,0.72436
6362.93,0.72261
6339.79,0.72670
6316.64,0.72386
6293.5,0.73162
6270.35,0.73081
6247.21,0.73952
6224.06,0.74697
6200.92,0.75111
6177.77,0.75695
6154.63,0.75924
6131.48,0.76343
6108.34,0.76590
6085.19,0.76693
6062.05,0.76689
6038.9,0.76266
6015.76,0.75987
5992.61,0.75582
5969.47,0.75548
5946.32,0.74891
5923.18,0.75001
5900.03,0.74500
5876.89,0.74197
5853.74,0.74073
5830.6,0.74105
5807.45,0.73290
5784.31,0.73750
5761.16,0.74424
5738.02,0.74408
5714.87,0.74236
5691.73,0.74496
5668.58,0.74093
5645.44,0.74051
5622.29,0.74050
5599.15,0.74179
5576,0.74017
5552.86,0.74628
5529.71,0.74755
5506.57,0.74780
5483.42,0.74560
5460.28,0.75029
5437.13,0.75230
5413.99,0.75823
5390.84,0.75903
5367.7,0.76081
5344.55,0.76004
5321.41,0.75254
5298.26,0.73697
5275.12,0.70501
5251.97,0.66409
5228.83,0.63417
5205.68,0.62048
5182.54,0.62264
5159.39,0.63230
5136.25,0.64415
5113.1,0.65856
5089.96,0.67031
5066.81,0.67980
5043.67,0.68733
5020.52,0.69189
4997.38,0.69322
4974.23,0.68733
4951.09,0.67173
4927.94,0.65045
4904.8,0.62506
4881.65,0.60141
4858.51,0.57856
4835.36,0.56141
4812.22,0.54899
4789.07,0.54362
4765.93,0.54223
4742.78,0.54151
4719.64,0.54446
4696.49,0.54880
4673.35,0.55694
4650.2,0.56755
4627.06,0.57651
4603.92,0.58570
4580.77,0.59263
4557.63,0.59965
4534.48,0.60460
4511.34,0.60667
4488.19,0.59648
4465.05,0.57212
4441.9,0.54022
4418.76,0.51552
4395.61,0.50503
4372.47,0.51193
4349.32,0.51245
4326.18,0.50165
4303.03,0.49338
4279.89,0.48820
4256.74,0.49188
4233.6,0.49594
4210.45,0.49805
4187.31,0.50026
4164.16,0.50497
4141.02,0.49852
4117.87,0.48129
4094.73,0.46016
4071.58,0.43349
4048.44,0.40803
4025.29,0.39060
4002.15,0.38917
3979,0.39795
3955.86,0.41040
3932.71,0.42329
3909.57,0.43581
3886.42,0.44991
3863.28,0.46342
3840.13,0.47800
3816.99,0.48345
3793.84,0.48312
3770.7,0.47993
3747.55,0.47299
3724.41,0.45418
3701.26,0.41722
3678.12,0.33910
3654.97,0.23561
3631.83,0.16820
3608.68,0.12457
3585.54,0.09566
3562.39,0.07784
3539.25,0.06644
3516.1,0.05859
3492.96,0.05246
3469.81,0.04875
3446.67,0.04611
3423.52,0.04569
3400.38,0.04552
3377.23,0.04708
3354.09,0.04706
3330.94,0.04961
3307.8,0.05276
3284.65,0.05699
3261.51,0.06243
3238.36,0.06937
3215.22,0.07625
3192.07,0.08434
3168.93,0.09244
3145.78,0.10069
3122.64,0.10912
3099.49,0.11725
3076.35,0.12505
3053.2,0.13421
3030.06,0.13891
3006.91,0.13484
2983.77,0.12162
2960.62,0.10100
2937.48,0.08805
2914.33,0.09017
2891.19,0.08853
2868.04,0.09493
2844.9,0.11142
2821.75,0.13711
2798.61,0.15459
2775.46,0.16335
2752.32,0.16894
2729.17,0.17266
2706.03,0.18144
2682.88,0.19158
2659.74,0.20156
2636.59,0.21073
2613.45,0.22178
2590.3,0.23101
2567.16,0.23670
2544.02,0.24113
2520.87,0.24778
2497.73,0.25774
2474.58,0.26938
2451.44,0.28086
2428.29,0.29527
2405.15,0.31191
2382,0.32479
2358.86,0.33585
2335.71,0.34601
2312.57,0.35191
2289.42,0.35082
2266.28,0.34808
2243.13,0.34323
2219.99,0.34457
2196.84,0.34111
2173.7,0.32562
2150.55,0.31246
2127.41,0.31177
2104.26,0.32113
2081.12,0.32937
2057.97,0.33041
2034.83,0.33795
2011.68,0.35601
1988.54,0.36984
1965.39,0.37461
1942.25,0.38200
1919.1,0.39499
1895.96,0.39719
1872.81,0.39469
1849.67,0.38476
1826.52,0.36800
1803.38,0.33461
1780.23,0.27047
1757.09,0.15309
1733.94,0.10438
1710.8,0.12112
1687.65,0.12823
1664.51,0.09435
1641.36,0.09012
1618.22,0.08059
1595.07,0.07577
1571.93,0.10555
1548.78,0.12716
1525.64,0.10430
1502.49,0.07375
1479.35,0.07999
1456.2,0.05870
1433.06,0.05413
1409.91,0.06083
1386.77,0.05094
1363.62,0.04904
1340.48,0.05131
1317.33,0.05055
1294.19,0.05503
1271.04,0.04500
1247.9,0.04636
1224.75,0.05453
1201.61,0.05411
1178.46,0.04554
1155.32,0.05341
1132.17,0.05095
1109.03,0.06456
1085.88,0.07062
1062.74,0.07337
1039.59,0.08647
1016.45,0.08377
993.304,0.08381
970.159,0.10750
947.014,0.14723
923.869,0.16009
900.724,0.13156
877.579,0.17181
854.434,0.16759
831.289,0.16196
808.144,0.16859
784.999,0.16360
761.854,0.14775
738.709,0.12951
715.565,0.11883
692.42,0.11083
669.275,0.09967
646.13,0.10235
622.985,0.09811
599.84,0.11052