File: 01_Data/Straw/FTIR/IS/Straw_IS_T_221109_R2.dpt
7497.03,0.02096
7473.89,0.02232
7450.74,0.02905
7427.6,0.02849
7404.45,0.01661
7381.31,0.02491
7358.16,0.01768
7335.02,0.01748
7311.87,0.02457
7288.73,0.02881
7265.58,0.02055
7242.44,0.02193
7219.29,0.02256
7196.15,0.02260
7173,0.02431
7149.86,0.02222
7126.71,0.02112
7103.57,0.02497
7080.42,0.02300
7057.28,0.01968
7034.13,0.03155
7010.99,0.02055
6987.84,0.02367
6964.7,0.02240
6941.55,0.01987
6918.41,0.02165
6895.26,0.02111
6872.12,0.02505
6848.97,0.02067
6825.83,0.02715
6802.68,0.01864
6779.54,0.02466
6756.39,0.01966
6733.25,0.02049
6710.1,0.02449
6686.96,0.02084
6663.82,0.02327
6640.67,0.01767
6617.53,0.02642
6594.38,0.02563
6571.24,0.02076
6548.09,0.02162
6524.95,0.02015
6501.8,0.02306
6478.66,0.02062
6455.51,0.02402
6432.37,0.02592
6409.22,0.02116
6386.08,0.02208
6362.93,0.02219
6339.79,0.02218
6316.64,0.02290
6293.5,0.01756
6270.35,0.02359
6247.21,0.01703
6224.06,0.02510
6200.92,0.02462
6177.77,0.02350
6154.63,0.02269
6131.48,0.01824
6108.34,0.02615
6085.19,0.02005
6062.05,0.02100
6038.9,0.02001
6015.76,0.02052
5992.61,0.01860
5969.47,0.01923
5946.32,0.02067
5923.18,0.02029
5900.03,0.02291
5876.89,0.02257
5853.74,0.02264
5830.6,0.02289
5807.45,0.02018
5784.31,0.02204
5761.16,0.02172
5738.02,0.02228
5714.87,0.02185
5691.73,0.02301
5668.58,0.02116
5645.44,0.02098
5622.29,0.02135
5599.15,0.02219
5576,0.02046
5552.86,0.02249
5529.71,0.02193
5506.57,0.02150
5483.42,0.02351
5460.28,0.02163
5437.13,0.02252
5413.99,0.02044
5390.84,0.02183
5367.7,0.02087
5344.55,0.02198
5321.41,0.02155
5298.26,0.02182
5275.12,0.02188
5251.97,0.02241
5228.83,0.02100
5205.68,0.02198
5182.54,0.02325
5159.39,0.02050
5136.25,0.02222
5113.1,0.02256
5089.96,0.02300
5066.81,0.02169
5043.67,0.02025
5020.52,0.02147
4997.38,0.02165
4974.23,0.02224
4951.09,0.02165
4927.94,0.02246
4904.8,0.02126
4881.65,0.02076
4858.51,0.02096
4835.36,0.02222
4812.22,0.02225
4789.07,0.02330
4765.93,0.02252
4742.78,0.02305
4719.64,0.02217
4696.49,0.02337
4673.35,0.02128
4650.2,0.02305
4627.06,0.02202
4603.92,0.02263
4580.77,0.02075
4557.63,0.02240
4534.48,0.02249
4511.34,0.02249
4488.19,0.02170
4465.05,0.02191
4441.9,0.02267
4418.76,0.02285
4395.61,0.02274
4372.47,0.02166
4349.32,0.02230
4326.18,0.02184
4303.03,0.02248
4279.89,0.02333
4256.74,0.02309
4233.6,0.02198
4210.45,0.02247
4187.31,0.02275
4164.16,0.02206
4141.02,0.02223
4117.87,0.02244
4094.73,0.02165
4071.58,0.02314
4048.44,0.02250
4025.29,0.02266
4002.15,0.02302
3979,0.02245
3955.86,0.02274
3932.71,0.02264
3909.57,0.02332
3886.42,0.02236
3863.28,0.02222
3840.13,0.02276
3816.99,0.02185
3793.84,0.02248
3770.7,0.02248
3747.55,0.02315
3724.41,0.02229
3701.26,0.02220
3678.12,0.02269
3654.97,0.02248
3631.83,0.02226
3608.68,0.02131
3585.54,0.02204
3562.39,0.02160
3539.25,0.02110
3516.1,0.02107
3492.96,0.02123
3469.81,0.02089
3446.67,0.02086
3423.52,0.02016
3400.38,0.01999
3377.23,0.02031
3354.09,0.01974
3330.94,0.02097
3307.8,0.02059
3284.65,0.02018
3261.51,0.02035
3238.36,0.02100
3215.22,0.02072
3192.07,0.02075
3168.93,0.02042
3145.78,0.02121
3122.64,0.02138
3099.49,0.02090
3076.35,0.02119
3053.2,0.02087
3030.06,0.02055
3006.91,0.02078
2983.77,0.02006
2960.62,0.02017
2937.48,0.01965
2914.33,0.01997
2891.19,0.02096
2868.04,0.02088
2844.9,0.02090
2821.75,0.02207
2798.61,0.02205
2775.46,0.02128
2752.32,0.02146
2729.17,0.02128
2706.03,0.02155
2682.88,0.02152
2659.74,0.02195
2636.59,0.02155
2613.45,0.02145
2590.3,0.02175
2567.16,0.02152
2544.02,0.02162
2520.87,0.02117
2497.73,0.02172
2474.58,0.02158
2451.44,0.02120
2428.29,0.02153
2405.15,0.02142
2382,0.02130
2358.86,0.02177
2335.71,0.02154
2312.57,0.02134
2289.42,0.02145
2266.28,0.02102
2243.13,0.02121
2219.99,0.02164
2196.84,0.02107
2173.7,0.02094
2150.55,0.02137
2127.41,0.02146
2104.26,0.02123
2081.12,0.02146
2057.97,0.02125
2034.83,0.02124
2011.68,0.02146
1988.54,0.02113
1965.39,0.02104
1942.25,0.02114
1919.1,0.02098
1895.96,0.02103
1872.81,0.02069
1849.67,0.02093
1826.52,0.02076
1803.38,0.02038
1780.23,0.01950
1757.09,0.01806
1733.94,0.01989
1710.8,0.02074
1687.65,0.01920
1664.51,0.01860
1641.36,0.01891
1618.22,0.01914
1595.07,0.01904
1571.93,0.01844
1548.78,0.01847
1525.64,0.01861
1502.49,0.01891
1479.35,0.01911
1456.2,0.01868
1433.06,0.01884
1409.91,0.01857
1386.77,0.01860
1363.62,0.01860
1340.48,0.01826
1317.33,0.01773
1294.19,0.01798
1271.04,0.01932
1247.9,0.02041
1224.75,0.01964
1201.61,0.01904
1178.46,0.01820
1155.32,0.01781
1132.17,0.01840
1109.03,0.01867
1085.88,0.01844
1062.74,0.02047
1039.59,0.01985
1016.45,0.01969
993.304,0.02208
970.159,0.02018
947.014,0.02020
923.869,0.01949
900.724,0.01974
877.579,0.01962
854.434,0.01872
831.289,0.01913
808.144,0.01881
784.999,0.01888
761.854,0.01883
738.709,0.01918
715.565,0.01821
692.42,0.01767
669.275,0.01890
646.13,0.01693
622.985,0.01543
599.84,0.01613