File: 01_Data/Gypsum_Wallboard_Paper/MCC/Gypsum_Wallboard_Paper_MCC_30K_min_211001_R1.txt
Sample ID:	C:\MCC\MCC Cal\Test\Gypsum_Wallboard_Paper_211001_R1.txt
Sample Weight (mg):	4.69
Heating Rate (C/s):	0.5
Combustor Temp (C):	900
N2 Flow Rate (cc/min):	80
O2 Flow Rate (cc/min):	20
Calibration File:	C:\MCC\MCC Cal\Coeff1 JN10440_30_210304.txt.txt
T Correction Coefficients:	0	1.024463	0
Time Shift (s):	14
*
Time (s)	Temperature (C)	N2 flow rate (cc/min)	O2 flow rate (cc/min)	Flow Rate (cc/min)	Oxygen (%)	HRR (W/g)	Heating rate (C/s)
0.000	106.427	79.999	19.996	100.530	20.094	-0.265	-0.019
8.000	106.476	80.001	19.996	100.527	20.092	-0.074	0.041
16.000	106.455	80.001	19.995	100.534	20.097	-0.424	-0.000
24.000	106.479	80.001	19.995	100.558	20.087	0.209	0.004
32.000	106.730	80.000	19.995	100.681	20.074	1.119	0.056
40.001	107.444	79.999	19.995	100.746	20.055	2.348	0.101
48.001	108.721	79.998	19.996	100.733	20.052	2.572	0.176
56.000	110.241	79.999	19.997	100.730	20.054	2.450	0.176
64.000	112.073	80.001	19.995	100.749	20.052	2.588	0.251
72.000	114.196	80.000	19.996	100.773	20.042	3.237	0.262
80.000	116.640	80.000	19.995	100.805	20.040	3.399	0.336
88.000	119.351	80.000	19.996	100.802	20.037	3.601	0.383
96.001	122.381	80.002	19.993	100.796	20.037	3.554	0.404
104.000	125.655	79.998	19.995	100.809	20.043	3.155	0.428
112.000	129.130	79.999	19.995	100.809	20.040	3.410	0.465
120.000	132.652	80.000	19.996	100.808	20.047	2.946	0.453
128.000	136.332	80.000	19.994	100.797	20.044	3.121	0.445
136.000	140.089	79.999	19.994	100.794	20.045	3.043	0.483
144.000	143.912	80.000	19.996	100.782	20.049	2.763	0.452
152.000	147.775	80.000	19.995	100.771	20.051	2.640	0.499
160.000	151.738	80.001	19.994	100.782	20.049	2.791	0.518
168.000	155.553	80.000	19.995	100.770	20.054	2.441	0.476
176.000	159.371	80.002	19.996	100.765	20.054	2.441	0.486
184.000	163.072	79.998	19.997	100.763	20.056	2.279	0.448
192.000	166.881	79.999	19.995	100.762	20.055	2.383	0.460
200.000	170.688	80.002	19.995	100.753	20.056	2.327	0.495
208.000	174.436	80.000	19.996	100.769	20.052	2.594	0.469
216.000	178.172	79.999	19.994	100.760	20.050	2.715	0.455
224.000	181.985	80.000	19.995	100.771	20.050	2.710	0.477
232.000	185.857	79.999	19.995	100.760	20.054	2.434	0.510
240.000	189.750	79.999	19.995	100.767	20.046	2.952	0.465
248.000	193.637	80.002	19.995	100.766	20.050	2.710	0.446
256.000	197.518	80.001	19.994	100.742	20.051	2.652	0.479
264.000	201.456	80.000	19.995	100.745	20.048	2.821	0.478
272.000	205.414	79.998	19.997	100.739	20.045	3.026	0.495
280.000	209.318	80.000	19.994	100.735	20.050	2.693	0.477
288.000	213.188	79.999	19.995	100.751	20.051	2.641	0.455
296.000	217.197	79.998	19.995	100.750	20.046	2.956	0.472
304.000	221.202	79.998	19.994	100.762	20.042	3.278	0.502
312.000	225.310	80.001	19.994	100.757	20.039	3.437	0.529
320.000	229.367	80.002	19.994	100.759	20.032	3.917	0.507
328.000	233.416	80.002	19.995	100.755	20.035	3.684	0.504
336.000	237.580	80.002	19.994	100.748	20.030	4.037	0.588
344.000	241.530	80.002	19.995	100.727	20.021	4.675	0.498
352.000	245.496	79.998	19.995	100.737	20.010	5.366	0.516
360.000	249.469	79.999	19.996	100.751	20.003	5.877	0.502
368.000	253.414	79.998	19.994	100.737	19.993	6.564	0.489
376.000	257.324	79.999	19.995	100.759	19.981	7.306	0.458
384.000	261.311	79.998	19.995	100.760	19.967	8.292	0.491
392.000	265.237	80.000	19.995	100.768	19.955	9.089	0.475
400.000	269.263	80.002	19.995	100.767	19.935	10.414	0.507
408.000	273.269	80.001	19.994	100.769	19.913	11.902	0.448
416.000	277.141	80.001	19.994	100.771	19.889	13.517	0.444
424.000	281.051	80.000	19.995	100.796	19.863	15.245	0.470
432.000	284.975	79.998	19.995	100.802	19.836	17.032	0.482
440.000	288.926	79.999	19.995	100.809	19.807	19.004	0.494
448.000	292.851	80.000	19.995	100.821	19.778	20.988	0.483
456.000	296.806	79.998	19.996	100.817	19.748	22.998	0.510
464.000	300.754	79.999	19.995	100.841	19.711	25.485	0.542
472.000	304.754	80.001	19.995	100.863	19.673	28.042	0.511
480.000	308.885	80.001	19.995	100.866	19.636	30.478	0.506
488.000	312.999	79.999	19.995	100.874	19.593	33.404	0.498
496.000	317.105	80.001	19.994	100.886	19.550	36.256	0.523
504.000	321.124	80.002	19.995	100.900	19.512	38.813	0.515
512.001	325.016	79.999	19.995	100.901	19.472	41.522	0.471
520.000	329.022	80.001	19.997	100.924	19.423	44.848	0.506
528.000	333.048	80.000	19.994	100.962	19.367	48.575	0.502
536.001	337.170	80.000	19.996	100.970	19.311	52.408	0.529
544.000	341.233	79.998	19.997	101.003	19.241	57.110	0.510
552.000	345.361	80.000	19.995	101.016	19.166	62.108	0.555
560.000	349.361	80.001	19.993	101.041	19.087	67.432	0.502
568.000	353.391	80.001	19.994	101.040	19.026	71.529	0.522
576.000	357.324	80.001	19.994	101.044	18.995	73.608	0.493
584.000	361.383	80.002	19.993	101.001	19.005	72.878	0.538
592.000	365.362	80.000	19.995	100.947	19.068	68.591	0.504
600.000	369.538	80.001	19.994	100.884	19.191	60.330	0.377
608.000	373.539	79.998	19.995	100.809	19.369	48.351	0.473
616.000	377.726	79.999	19.995	100.748	19.565	35.202	0.553
624.000	381.946	79.998	19.995	100.700	19.743	23.301	0.533
632.000	386.126	80.000	19.997	100.683	19.869	14.837	0.525
640.000	390.144	80.001	19.995	100.666	19.939	10.137	0.530
648.000	394.166	80.001	19.995	100.669	19.967	8.259	0.490
656.000	398.047	80.001	19.995	100.681	19.976	7.693	0.500
664.000	402.001	80.003	19.996	100.680	19.980	7.369	0.467
672.000	405.904	80.000	19.995	100.689	19.982	7.240	0.496
680.000	409.957	79.998	19.995	100.691	19.986	6.986	0.490
688.000	414.137	79.998	19.996	100.690	19.986	6.998	0.504
696.000	418.361	79.999	19.995	100.694	19.986	6.982	0.527
704.000	422.548	79.999	19.997	100.689	19.985	7.095	0.509
712.000	426.908	79.999	19.995	100.689	19.988	6.832	0.562
720.000	431.290	80.001	19.995	100.688	19.990	6.723	0.588
728.000	435.713	80.000	19.995	100.684	19.997	6.269	0.556
736.000	440.040	79.999	19.996	100.687	20.002	5.907	0.577
744.000	444.283	80.003	19.995	100.683	20.008	5.547	0.530
752.000	448.457	80.001	19.994	100.668	20.009	5.482	0.549
760.001	452.524	80.000	19.995	100.670	20.013	5.174	0.544
768.000	456.475	80.000	19.995	100.658	20.019	4.779	0.489
776.000	460.468	80.000	19.995	100.650	20.021	4.637	0.467
784.000	464.394	79.999	19.995	100.668	20.025	4.350	0.479
792.001	468.409	79.999	19.996	100.666	20.026	4.343	0.528
800.000	472.435	80.001	19.997	100.667	20.031	4.004	0.489
808.000	476.636	80.000	19.996	100.679	20.033	3.844	0.530
816.000	480.929	80.000	19.996	100.665	20.030	4.074	0.532
824.000	485.082	80.001	19.996	100.665	20.031	3.957	0.520
832.000	489.229	80.002	19.997	100.664	20.032	3.879	0.510
840.000	493.392	80.000	19.994	100.661	20.032	3.907	0.529
848.000	497.494	80.000	19.995	100.666	20.039	3.474	0.491
856.000	501.565	80.002	19.996	100.663	20.034	3.789	0.502
864.000	505.630	80.000	19.996	100.661	20.041	3.283	0.511
872.000	509.625	80.000	19.995	100.664	20.036	3.665	0.502
880.001	513.697	80.000	19.995	100.665	20.039	3.432	0.499
888.000	517.734	80.002	19.995	100.659	20.041	3.326	0.540
896.000	521.750	80.001	19.996	100.668	20.042	3.212	0.498
904.000	525.863	80.001	19.995	100.652	20.046	2.998	0.524
912.000	529.905	80.002	19.996	100.652	20.040	3.398	0.527
920.000	533.912	80.000	19.998	100.662	20.041	3.302	0.514
928.000	537.890	80.000	19.994	100.653	20.044	3.142	0.491
936.000	541.776	80.000	19.995	100.660	20.040	3.346	0.489
944.000	545.692	79.999	19.995	100.656	20.046	2.974	0.470
952.000	549.634	80.000	19.995	100.656	20.044	3.117	0.516
960.000	553.633	80.000	19.994	100.661	20.039	3.421	0.514
968.000	557.676	80.003	19.995	100.669	20.035	3.720	0.517
976.000	561.813	79.999	19.994	100.652	20.040	3.403	0.529
984.000	565.832	80.002	19.996	100.655	20.040	3.401	0.537
992.000	569.859	80.003	19.995	100.658	20.035	3.721	0.496
1000.000	573.898	79.999	19.995	100.660	20.035	3.712	0.490
1008.000	577.973	79.998	19.995	100.656	20.034	3.785	0.527
1016.000	581.960	80.000	19.994	100.654	20.034	3.780	0.471
1024.000	586.001	80.000	19.995	100.661	20.034	3.764	0.478
1032.000	590.001	80.000	19.997	100.649	20.033	3.820	0.509
1040.000	594.070	80.001	19.997	100.666	20.030	4.018	0.520
1048.000	598.181	80.001	19.994	100.661	20.034	3.781	0.517
1056.000	602.462	80.002	19.994	100.665	20.036	3.677	0.540
1064.000	606.783	80.001	19.995	100.666	20.036	3.620	0.539
1072.001	611.235	80.002	19.996	100.668	20.034	3.791	0.562
1080.000	615.607	80.001	19.996	100.656	20.035	3.688	0.535
1088.000	619.973	80.002	19.994	100.667	20.034	3.809	0.537
1096.000	624.334	80.000	19.996	100.662	20.033	3.862	0.502
1104.000	628.631	79.999	19.997	100.663	20.030	4.036	0.557
1112.001	632.879	80.000	19.995	100.659	20.034	3.751	0.535
1120.000	637.133	80.000	19.994	100.650	20.030	4.018	0.535
1128.000	641.303	80.001	19.995	100.662	20.028	4.162	0.512
1136.001	645.453	80.001	19.995	100.657	20.024	4.438	0.523
1144.000	649.483	79.999	19.994	100.653	20.028	4.211	0.510
1152.000	653.595	80.001	19.995	100.655	20.029	4.090	0.498
1160.000	657.691	80.003	19.995	100.656	20.029	4.112	0.510
1168.000	661.731	80.002	19.996	100.650	20.030	4.054	0.517
1176.000	665.715	79.999	19.994	100.653	20.027	4.249	0.496
1184.000	669.769	80.001	19.995	100.651	20.027	4.267	0.526
1192.000	673.786	80.001	19.996	100.656	20.024	4.442	0.515
1200.000	677.753	79.998	19.997	100.649	20.027	4.263	0.464
1208.000	681.854	80.000	19.995	100.655	20.029	4.088	0.474
1216.000	685.953	80.002	19.995	100.652	20.028	4.213	0.520
1224.000	689.970	80.002	19.995	100.648	20.024	4.476	0.502
1232.000	694.078	80.001	19.995	100.648	20.019	4.802	0.481
1240.000	698.116	80.004	19.995	100.648	20.026	4.308	0.492
1248.000	702.085	80.002	19.995	100.648	20.026	4.283	0.505
1256.000	706.178	80.001	19.995	100.649	20.023	4.523	0.482
1264.000	710.100	80.000	19.995	100.652	20.022	4.595	0.474
1272.001	714.084	80.001	19.994	100.648	20.024	4.444	0.519
1280.000	718.080	80.001	19.995	100.659	20.020	4.716	0.493
1288.000	722.109	79.999	19.997	100.649	20.027	4.225	0.496
1296.000	726.122	80.003	19.995	100.646	20.023	4.501	0.518
1304.000	730.174	80.003	19.995	100.647	20.018	4.816	0.505
1312.001	734.128	80.002	19.994	100.646	20.021	4.647	0.467
1320.000	737.852	80.001	19.993	100.644	20.015	5.027	0.474
1328.000	741.517	80.002	19.994	100.643	20.018	4.819	0.432
1334.000	744.186	80.002	19.994	100.648	20.013	5.204	0.438