File: 01_Data/Gypsum_Wallboard_Paper/MCC/Gypsum_Wallboard_Paper_MCC_30K_min_211001_R2.txt
Sample ID:	C:\MCC\MCC Cal\Test\Gypsum_Wallboard_Paper_211001_R2.txt
Sample Weight (mg):	4.81
Heating Rate (C/s):	0.5
Combustor Temp (C):	900
N2 Flow Rate (cc/min):	80
O2 Flow Rate (cc/min):	20
Calibration File:	C:\MCC\MCC Cal\Coeff1 JN10440_30_210304.txt.txt
T Correction Coefficients:	0	1.024463	0
Time Shift (s):	14
*
Time (s)	Temperature (C)	N2 flow rate (cc/min)	O2 flow rate (cc/min)	Flow Rate (cc/min)	Oxygen (%)	HRR (W/g)	Heating rate (C/s)
0.000	108.918	80.002	19.993	100.581	19.936	0.248	-0.009
8.000	108.861	80.003	19.995	100.585	19.938	0.165	0.016
16.000	108.858	80.002	19.995	100.614	19.933	0.456	0.000
24.000	108.937	80.001	19.993	100.678	19.922	1.213	0.026
32.000	109.397	80.002	19.995	100.736	19.904	2.340	0.054
40.000	110.294	80.003	19.994	100.775	19.897	2.838	0.115
48.001	111.509	80.001	19.995	100.791	19.892	3.179	0.181
56.000	113.199	80.001	19.994	100.802	19.887	3.492	0.228
64.000	115.186	80.002	19.995	100.802	19.890	3.255	0.263
72.000	117.425	80.001	19.996	100.805	19.888	3.404	0.327
80.001	119.940	80.003	19.996	100.803	19.888	3.415	0.346
88.001	122.578	80.005	19.994	100.813	19.886	3.544	0.318
96.000	125.413	80.004	19.995	100.810	19.886	3.567	0.354
104.000	128.459	80.001	19.994	100.826	19.888	3.386	0.367
112.000	131.661	80.000	19.994	100.840	19.885	3.616	0.404
120.000	135.005	80.002	19.994	100.836	19.883	3.750	0.419
128.000	138.496	80.001	19.995	100.838	19.882	3.835	0.470
136.000	141.980	80.001	19.995	100.838	19.883	3.752	0.421
144.001	145.662	80.002	19.996	100.828	19.881	3.901	0.464
152.000	149.324	80.001	19.994	100.810	19.877	4.137	0.448
160.000	153.099	80.002	19.994	100.815	19.877	4.119	0.470
168.000	156.807	80.002	19.994	100.811	19.881	3.869	0.473
176.000	160.740	80.004	19.995	100.803	19.881	3.864	0.491
184.001	164.713	80.001	19.995	100.803	19.880	3.959	0.556
192.000	168.688	80.002	19.995	100.804	19.885	3.638	0.486
200.000	172.626	80.002	19.993	100.800	19.881	3.886	0.508
208.000	176.596	80.001	19.994	100.799	19.878	4.067	0.475
216.000	180.557	80.001	19.996	100.798	19.882	3.828	0.471
224.000	184.555	80.002	19.994	100.780	19.877	4.133	0.517
232.000	188.609	80.003	19.995	100.766	19.883	3.734	0.490
240.001	192.545	80.002	19.995	100.763	19.885	3.637	0.526
248.001	196.511	80.003	19.995	100.763	19.884	3.665	0.489
256.000	200.473	80.004	19.995	100.762	19.881	3.869	0.498
264.000	204.326	80.003	19.994	100.765	19.879	3.970	0.482
272.000	208.254	80.000	19.996	100.763	19.881	3.897	0.535
280.000	212.120	79.999	19.994	100.765	19.882	3.815	0.473
288.000	216.002	80.001	19.993	100.769	19.879	3.977	0.453
296.000	219.940	80.001	19.994	100.764	19.874	4.352	0.517
304.000	223.793	80.000	19.994	100.763	19.871	4.528	0.479
312.000	227.754	80.003	19.994	100.754	19.871	4.536	0.495
320.000	231.735	80.003	19.994	100.762	19.865	4.938	0.491
328.000	235.636	80.003	19.995	100.764	19.853	5.722	0.519
336.000	239.521	80.003	19.995	100.769	19.848	6.026	0.514
344.000	243.523	80.004	19.994	100.779	19.840	6.523	0.533
352.000	247.631	80.001	19.994	100.772	19.833	7.029	0.557
360.000	251.887	80.001	19.995	100.768	19.827	7.410	0.550
368.000	255.997	80.000	19.996	100.770	19.816	8.104	0.538
376.000	260.161	80.001	19.994	100.773	19.795	9.468	0.521
384.000	264.220	80.001	19.994	100.788	19.781	10.403	0.527
392.000	268.258	80.000	19.995	100.785	19.763	11.584	0.487
400.000	272.307	80.003	19.994	100.804	19.743	12.900	0.528
408.000	276.296	80.002	19.993	100.803	19.720	14.418	0.515
416.000	280.190	80.001	19.993	100.806	19.695	16.050	0.492
424.000	284.056	80.003	19.995	100.805	19.672	17.539	0.497
432.000	287.802	80.002	19.994	100.802	19.643	19.416	0.514
440.000	291.605	80.000	19.995	100.843	19.610	21.629	0.503
448.000	295.457	80.002	19.995	100.861	19.580	23.572	0.476
456.000	299.568	80.000	19.995	100.876	19.542	26.093	0.542
464.000	303.742	80.000	19.994	100.888	19.498	28.975	0.523
472.000	308.002	80.001	19.995	100.909	19.459	31.492	0.541
480.000	312.331	80.002	19.994	100.923	19.414	34.422	0.563
488.000	316.696	80.003	19.994	100.935	19.367	37.506	0.551
496.000	320.970	80.001	19.995	100.950	19.320	40.633	0.551
504.000	325.222	80.003	19.993	100.961	19.269	43.943	0.513
512.000	329.465	80.005	19.994	100.987	19.216	47.471	0.523
520.000	333.672	80.002	19.994	100.997	19.151	51.690	0.516
528.000	337.822	80.002	19.996	101.025	19.091	55.643	0.513
536.000	341.904	80.003	19.994	101.039	19.017	60.548	0.516
544.000	345.891	80.003	19.995	101.070	18.947	65.134	0.494
552.000	349.842	80.001	19.994	101.075	18.880	69.525	0.513
560.000	353.776	80.000	19.996	101.074	18.828	72.917	0.528
568.000	357.508	80.003	19.996	101.035	18.813	73.872	0.426
576.000	361.144	80.004	19.995	101.023	18.849	71.417	0.436
584.000	364.840	80.003	19.993	100.955	18.935	65.796	0.410
592.000	368.595	80.005	19.994	100.896	19.075	56.561	0.451
600.000	372.540	80.003	19.993	100.823	19.252	44.972	0.518
608.000	376.563	80.002	19.995	100.769	19.445	32.329	0.497
616.000	380.689	80.000	19.994	100.732	19.606	21.835	0.531
624.001	384.868	80.001	19.995	100.724	19.719	14.469	0.512
632.000	389.010	80.002	19.995	100.718	19.781	10.421	0.530
640.000	393.195	80.001	19.995	100.708	19.801	9.077	0.488
648.000	397.325	80.002	19.995	100.704	19.813	8.280	0.498
656.000	401.320	80.002	19.994	100.685	19.816	8.097	0.535
664.000	405.207	80.003	19.996	100.699	19.828	7.359	0.468
672.000	409.053	80.001	19.994	100.696	19.825	7.527	0.501
680.000	412.905	80.004	19.993	100.701	19.828	7.321	0.475
688.000	416.624	80.001	19.993	100.693	19.834	6.909	0.463
696.000	420.377	80.001	19.995	100.687	19.838	6.667	0.449
704.000	424.177	80.003	19.994	100.684	19.835	6.893	0.485
712.000	427.969	80.002	19.995	100.700	19.839	6.581	0.495
720.001	431.969	80.001	19.994	100.706	19.838	6.650	0.512
728.000	436.179	80.000	19.995	100.712	19.849	5.951	0.536
736.000	440.562	80.001	19.994	100.697	19.849	5.953	0.553
744.000	444.867	80.003	19.994	100.687	19.854	5.624	0.534
752.000	449.160	80.002	19.994	100.699	19.856	5.504	0.567
760.000	453.579	80.005	19.994	100.686	19.859	5.289	0.570
768.000	458.014	80.005	19.995	100.685	19.861	5.191	0.545
776.000	462.387	80.002	19.994	100.685	19.866	4.879	0.522
784.001	466.757	80.003	19.995	100.685	19.872	4.452	0.555
792.000	471.121	80.001	19.994	100.681	19.869	4.651	0.555
800.000	475.540	80.002	19.994	100.680	19.877	4.130	0.554
808.000	479.798	80.001	19.994	100.688	19.879	3.966	0.537
816.000	484.048	80.000	19.995	100.685	19.882	3.776	0.557
824.000	488.246	80.003	19.996	100.660	19.881	3.880	0.515
832.000	492.398	80.003	19.994	100.675	19.886	3.524	0.517
840.001	496.606	80.003	19.995	100.677	19.898	2.763	0.517
848.000	500.774	80.004	19.995	100.676	19.891	3.212	0.548
856.000	504.878	80.002	19.995	100.666	19.894	3.050	0.489
864.000	508.919	80.002	19.994	100.677	19.897	2.812	0.498
872.000	512.922	80.001	19.993	100.670	19.895	2.935	0.491
880.000	516.967	80.004	19.995	100.675	19.904	2.371	0.485
888.000	521.072	80.003	19.995	100.675	19.903	2.441	0.536
896.000	525.056	80.003	19.992	100.660	19.910	1.955	0.485
904.000	529.085	80.004	19.994	100.660	19.907	2.165	0.515
912.000	533.116	80.001	19.996	100.671	19.909	2.038	0.501
920.000	537.065	80.004	19.994	100.660	19.911	1.885	0.470
928.000	541.021	80.005	19.992	100.656	19.907	2.152	0.479
936.000	544.897	80.002	19.995	100.660	19.914	1.716	0.497
944.000	548.812	80.000	19.995	100.663	19.908	2.084	0.495
952.000	552.665	80.001	19.994	100.661	19.914	1.720	0.474
960.000	556.551	80.004	19.994	100.652	19.910	1.984	0.489
968.000	560.635	80.001	19.997	100.683	19.912	1.875	0.549
976.001	564.874	80.003	19.994	100.669	19.914	1.713	0.543
984.000	569.305	80.003	19.994	100.678	19.911	1.891	0.561
992.000	573.748	80.003	19.994	100.676	19.919	1.363	0.540
1000.000	578.322	80.001	19.995	100.677	19.914	1.697	0.544
1008.000	582.782	80.004	19.996	100.665	19.916	1.609	0.531
1016.000	587.216	80.005	19.996	100.668	19.916	1.572	0.556
1024.000	591.602	80.002	19.995	100.675	19.917	1.504	0.521
1032.000	595.987	79.999	19.995	100.657	19.916	1.554	0.555
1040.000	600.124	80.003	19.993	100.653	19.918	1.438	0.527
1048.000	604.031	80.001	19.995	100.641	19.921	1.229	0.502
1056.000	607.838	80.001	19.997	100.649	19.922	1.175	0.471
1064.000	611.676	80.001	19.994	100.661	19.918	1.437	0.503
1072.000	615.820	80.003	19.995	100.669	19.920	1.301	0.554
1080.000	619.988	80.003	19.993	100.667	19.922	1.162	0.521
1088.000	624.376	80.005	19.994	100.657	19.926	0.936	0.547
1096.000	628.715	80.007	19.994	100.672	19.927	0.878	0.556
1104.000	633.104	80.002	19.995	100.651	19.928	0.816	0.540
1112.000	637.494	80.004	19.995	100.656	19.926	0.948	0.536
1120.000	641.807	80.001	19.995	100.665	19.931	0.586	0.560
1128.000	646.052	80.001	19.996	100.653	19.928	0.823	0.533
1136.000	650.269	80.002	19.995	100.651	19.927	0.849	0.504
1144.000	654.371	80.003	19.995	100.656	19.925	1.000	0.511
1152.000	658.420	80.003	19.994	100.659	19.934	0.376	0.500
1160.000	662.294	80.003	19.995	100.641	19.932	0.550	0.499
1168.000	665.871	80.006	19.995	100.646	19.935	0.325	0.443
1176.001	669.448	80.005	19.994	100.644	19.935	0.332	0.468
1184.000	673.113	80.002	19.995	100.649	19.938	0.151	0.457
1192.000	676.823	80.002	19.995	100.649	19.935	0.360	0.428
1200.000	680.499	80.003	19.995	100.647	19.942	-0.093	0.447
1208.000	684.250	80.000	19.994	100.655	19.940	0.033	0.473
1216.000	688.180	80.000	19.996	100.653	19.936	0.278	0.499
1224.000	692.127	80.002	19.994	100.650	19.936	0.280	0.468
1232.000	696.145	80.005	19.994	100.654	19.940	0.023	0.501
1240.000	700.296	80.005	19.994	100.646	19.939	0.069	0.518
1248.000	704.521	80.003	19.994	100.650	19.941	-0.032	0.501
1256.000	708.704	80.004	19.992	100.648	19.944	-0.236	0.533
1264.000	713.006	80.002	19.993	100.657	19.943	-0.204	0.557
1272.000	717.334	80.002	19.993	100.651	19.940	0.009	0.546
1280.000	721.470	80.004	19.995	100.645	19.946	-0.345	0.520
1288.000	725.576	80.002	19.996	100.644	19.945	-0.325	0.530
1296.000	729.669	80.001	19.995	100.645	19.939	0.062	0.505
1304.000	733.709	80.004	19.996	100.644	19.946	-0.382	0.519
1312.000	737.638	80.002	19.996	100.642	19.942	-0.116	0.533
1320.000	741.455	80.004	19.996	100.647	19.945	-0.297	0.462
1325.000	743.865	80.003	19.993	100.648	19.948	-0.520	0.472