File: 01_Data/Engineered_Wood_Furniture/FTIR/IS/Engineered_Wood_Furniture_IS_S_221005_R8.dpt
7497.03,0.17879
7473.89,0.17979
7450.74,0.17656
7427.6,0.17308
7404.45,0.17950
7381.31,0.17551
7358.16,0.17356
7335.02,0.18050
7311.87,0.18026
7288.73,0.17238
7265.58,0.16251
7242.44,0.17626
7219.29,0.17347
7196.15,0.17256
7173,0.17054
7149.86,0.17151
7126.71,0.17097
7103.57,0.17376
7080.42,0.16388
7057.28,0.16125
7034.13,0.16625
7010.99,0.15761
6987.84,0.16083
6964.7,0.16110
6941.55,0.16083
6918.41,0.16315
6895.26,0.15744
6872.12,0.15505
6848.97,0.15968
6825.83,0.15218
6802.68,0.15840
6779.54,0.15608
6756.39,0.16066
6733.25,0.15926
6710.1,0.15892
6686.96,0.16014
6663.82,0.15967
6640.67,0.16287
6617.53,0.15753
6594.38,0.16642
6571.24,0.16025
6548.09,0.15918
6524.95,0.16229
6501.8,0.16499
6478.66,0.16629
6455.51,0.16545
6432.37,0.16524
6409.22,0.16469
6386.08,0.16612
6362.93,0.16785
6339.79,0.16721
6316.64,0.17222
6293.5,0.16828
6270.35,0.17094
6247.21,0.17097
6224.06,0.17111
6200.92,0.17021
6177.77,0.17278
6154.63,0.17522
6131.48,0.17515
6108.34,0.17979
6085.19,0.17699
6062.05,0.17503
6038.9,0.17471
6015.76,0.17410
5992.61,0.17342
5969.47,0.17300
5946.32,0.17220
5923.18,0.17503
5900.03,0.17384
5876.89,0.17370
5853.74,0.17182
5830.6,0.17078
5807.45,0.17126
5784.31,0.16995
5761.16,0.17289
5738.02,0.17179
5714.87,0.17383
5691.73,0.17382
5668.58,0.17562
5645.44,0.17514
5622.29,0.17774
5599.15,0.17711
5576,0.17776
5552.86,0.17774
5529.71,0.17733
5506.57,0.18067
5483.42,0.18051
5460.28,0.18157
5437.13,0.18125
5413.99,0.18392
5390.84,0.18483
5367.7,0.18291
5344.55,0.18464
5321.41,0.18103
5298.26,0.17605
5275.12,0.16789
5251.97,0.15859
5228.83,0.15309
5205.68,0.14919
5182.54,0.14856
5159.39,0.14890
5136.25,0.15129
5113.1,0.15425
5089.96,0.15428
5066.81,0.15846
5043.67,0.15903
5020.52,0.16186
4997.38,0.16232
4974.23,0.16192
4951.09,0.15994
4927.94,0.15616
4904.8,0.15460
4881.65,0.15151
4858.51,0.15036
4835.36,0.14957
4812.22,0.14752
4789.07,0.14789
4765.93,0.14669
4742.78,0.14876
4719.64,0.14736
4696.49,0.14664
4673.35,0.14684
4650.2,0.14957
4627.06,0.15036
4603.92,0.15218
4580.77,0.15371
4557.63,0.15507
4534.48,0.15421
4511.34,0.15540
4488.19,0.15368
4465.05,0.14676
4441.9,0.13753
4418.76,0.13475
4395.61,0.13267
4372.47,0.13272
4349.32,0.13170
4326.18,0.12869
4303.03,0.13057
4279.89,0.13035
4256.74,0.12932
4233.6,0.13248
4210.45,0.13387
4187.31,0.13381
4164.16,0.13450
4141.02,0.13221
4117.87,0.13087
4094.73,0.12673
4071.58,0.12304
4048.44,0.11941
4025.29,0.11742
4002.15,0.11700
3979,0.11743
3955.86,0.12009
3932.71,0.12227
3909.57,0.12555
3886.42,0.12875
3863.28,0.13167
3840.13,0.13432
3816.99,0.13409
3793.84,0.13417
3770.7,0.13341
3747.55,0.13026
3724.41,0.12593
3701.26,0.11599
3678.12,0.09116
3654.97,0.07926
3631.83,0.06885
3608.68,0.06180
3585.54,0.05796
3562.39,0.05478
3539.25,0.05222
3516.1,0.05201
3492.96,0.05166
3469.81,0.05113
3446.67,0.05049
3423.52,0.05142
3400.38,0.05131
3377.23,0.05089
3354.09,0.05143
3330.94,0.05219
3307.8,0.05280
3284.65,0.05256
3261.51,0.05371
3238.36,0.05463
3215.22,0.05531
3192.07,0.05666
3168.93,0.05769
3145.78,0.05944
3122.64,0.05909
3099.49,0.06050
3076.35,0.06026
3053.2,0.06166
3030.06,0.06118
3006.91,0.05898
2983.77,0.05531
2960.62,0.05241
2937.48,0.05163
2914.33,0.05598
2891.19,0.05587
2868.04,0.05535
2844.9,0.05912
2821.75,0.06500
2798.61,0.06865
2775.46,0.07105
2752.32,0.07241
2729.17,0.07366
2706.03,0.07583
2682.88,0.07693
2659.74,0.07839
2636.59,0.08001
2613.45,0.08187
2590.3,0.08356
2567.16,0.08302
2544.02,0.08372
2520.87,0.08819
2497.73,0.09128
2474.58,0.09509
2451.44,0.09731
2428.29,0.09892
2405.15,0.10151
2382,0.10399
2358.86,0.10616
2335.71,0.10739
2312.57,0.10855
2289.42,0.10807
2266.28,0.10679
2243.13,0.10503
2219.99,0.10417
2196.84,0.10270
2173.7,0.09875
2150.55,0.09531
2127.41,0.09501
2104.26,0.09595
2081.12,0.09798
2057.97,0.09827
2034.83,0.09880
2011.68,0.10112
1988.54,0.10066
1965.39,0.10012
1942.25,0.10118
1919.1,0.10468
1895.96,0.10486
1872.81,0.10112
1849.67,0.09369
1826.52,0.08706
1803.38,0.07529
1780.23,0.05755
1757.09,0.03827
1733.94,0.04440
1710.8,0.05622
1687.65,0.04590
1664.51,0.04715
1641.36,0.06452
1618.22,0.06296
1595.07,0.05942
1571.93,0.06392
1548.78,0.07275
1525.64,0.06387
1502.49,0.05825
1479.35,0.05463
1456.2,0.04913
1433.06,0.05252
1409.91,0.04852
1386.77,0.04541
1363.62,0.04521
1340.48,0.04061
1317.33,0.03574
1294.19,0.03793
1271.04,0.07745
1247.9,0.06721
1224.75,0.05873
1201.61,0.05433
1178.46,0.04804
1155.32,0.04554
1132.17,0.04970
1109.03,0.05611
1085.88,0.05138
1062.74,0.06910
1039.59,0.06874
1016.45,0.07108
993.304,0.06929
970.159,0.07029
947.014,0.06828
923.869,0.06339
900.724,0.06019
877.579,0.05432
854.434,0.05847
831.289,0.07505
808.144,0.07084
784.999,0.06452
761.854,0.05907
738.709,0.06717
715.565,0.06144
692.42,0.06428
669.275,0.06526
646.13,0.06024
622.985,0.05773
599.84,0.05724