File: 01_Data/Engineered_Wood_Furniture/FTIR/IS/Engineered_Wood_Furniture_IS_S_221005_R3.dpt
7497.03,0.17562
7473.89,0.16351
7450.74,0.17233
7427.6,0.17100
7404.45,0.17424
7381.31,0.18550
7358.16,0.17842
7335.02,0.16787
7311.87,0.18120
7288.73,0.16546
7265.58,0.17672
7242.44,0.17033
7219.29,0.16696
7196.15,0.17765
7173,0.16697
7149.86,0.17331
7126.71,0.16814
7103.57,0.17078
7080.42,0.16352
7057.28,0.15905
7034.13,0.16090
7010.99,0.15603
6987.84,0.15599
6964.7,0.15567
6941.55,0.15856
6918.41,0.15786
6895.26,0.15948
6872.12,0.15311
6848.97,0.15820
6825.83,0.15039
6802.68,0.15684
6779.54,0.15467
6756.39,0.15306
6733.25,0.15748
6710.1,0.15897
6686.96,0.15601
6663.82,0.15862
6640.67,0.15557
6617.53,0.16367
6594.38,0.15911
6571.24,0.16513
6548.09,0.16180
6524.95,0.16046
6501.8,0.16214
6478.66,0.16430
6455.51,0.16185
6432.37,0.16167
6409.22,0.16361
6386.08,0.16287
6362.93,0.16497
6339.79,0.16873
6316.64,0.16707
6293.5,0.16704
6270.35,0.16912
6247.21,0.16696
6224.06,0.17186
6200.92,0.17378
6177.77,0.17451
6154.63,0.17619
6131.48,0.17627
6108.34,0.17801
6085.19,0.17752
6062.05,0.17550
6038.9,0.17499
6015.76,0.17302
5992.61,0.17238
5969.47,0.17249
5946.32,0.17346
5923.18,0.17322
5900.03,0.17321
5876.89,0.17147
5853.74,0.17306
5830.6,0.17315
5807.45,0.17057
5784.31,0.16918
5761.16,0.17352
5738.02,0.17393
5714.87,0.17328
5691.73,0.17318
5668.58,0.17401
5645.44,0.17483
5622.29,0.17536
5599.15,0.17751
5576,0.17814
5552.86,0.17771
5529.71,0.17669
5506.57,0.17933
5483.42,0.17824
5460.28,0.17980
5437.13,0.18257
5413.99,0.18249
5390.84,0.18452
5367.7,0.18403
5344.55,0.18311
5321.41,0.18112
5298.26,0.17673
5275.12,0.16743
5251.97,0.15792
5228.83,0.15178
5205.68,0.14705
5182.54,0.14730
5159.39,0.14723
5136.25,0.14916
5113.1,0.15241
5089.96,0.15462
5066.81,0.15554
5043.67,0.15824
5020.52,0.16063
4997.38,0.16175
4974.23,0.16032
4951.09,0.15999
4927.94,0.15639
4904.8,0.15339
4881.65,0.15148
4858.51,0.14956
4835.36,0.14824
4812.22,0.14735
4789.07,0.14726
4765.93,0.14762
4742.78,0.14744
4719.64,0.14714
4696.49,0.14713
4673.35,0.14696
4650.2,0.14892
4627.06,0.14950
4603.92,0.15250
4580.77,0.15352
4557.63,0.15393
4534.48,0.15344
4511.34,0.15516
4488.19,0.15331
4465.05,0.14638
4441.9,0.13801
4418.76,0.13388
4395.61,0.13203
4372.47,0.13334
4349.32,0.13138
4326.18,0.12759
4303.03,0.13025
4279.89,0.13034
4256.74,0.12852
4233.6,0.13289
4210.45,0.13331
4187.31,0.13276
4164.16,0.13420
4141.02,0.13146
4117.87,0.12896
4094.73,0.12653
4071.58,0.12238
4048.44,0.11934
4025.29,0.11709
4002.15,0.11616
3979,0.11744
3955.86,0.11918
3932.71,0.12195
3909.57,0.12531
3886.42,0.12818
3863.28,0.13035
3840.13,0.13309
3816.99,0.13347
3793.84,0.13389
3770.7,0.13114
3747.55,0.12966
3724.41,0.12462
3701.26,0.11470
3678.12,0.09029
3654.97,0.07818
3631.83,0.06861
3608.68,0.06189
3585.54,0.05819
3562.39,0.05464
3539.25,0.05274
3516.1,0.05165
3492.96,0.05075
3469.81,0.05107
3446.67,0.05157
3423.52,0.05132
3400.38,0.05131
3377.23,0.05167
3354.09,0.05124
3330.94,0.05170
3307.8,0.05263
3284.65,0.05261
3261.51,0.05398
3238.36,0.05507
3215.22,0.05530
3192.07,0.05621
3168.93,0.05730
3145.78,0.05831
3122.64,0.05951
3099.49,0.05992
3076.35,0.06038
3053.2,0.06106
3030.06,0.06091
3006.91,0.05800
2983.77,0.05546
2960.62,0.05260
2937.48,0.05165
2914.33,0.05529
2891.19,0.05572
2868.04,0.05573
2844.9,0.05957
2821.75,0.06518
2798.61,0.06890
2775.46,0.07114
2752.32,0.07259
2729.17,0.07267
2706.03,0.07506
2682.88,0.07718
2659.74,0.07776
2636.59,0.07967
2613.45,0.08171
2590.3,0.08332
2567.16,0.08294
2544.02,0.08377
2520.87,0.08793
2497.73,0.09124
2474.58,0.09431
2451.44,0.09672
2428.29,0.09840
2405.15,0.10130
2382,0.10308
2358.86,0.10594
2335.71,0.10622
2312.57,0.10809
2289.42,0.10738
2266.28,0.10606
2243.13,0.10380
2219.99,0.10378
2196.84,0.10203
2173.7,0.09797
2150.55,0.09443
2127.41,0.09456
2104.26,0.09559
2081.12,0.09731
2057.97,0.09688
2034.83,0.09825
2011.68,0.10042
1988.54,0.09977
1965.39,0.09915
1942.25,0.10043
1919.1,0.10380
1895.96,0.10376
1872.81,0.10064
1849.67,0.09325
1826.52,0.08644
1803.38,0.07507
1780.23,0.05752
1757.09,0.03797
1733.94,0.04460
1710.8,0.05643
1687.65,0.04582
1664.51,0.04702
1641.36,0.06446
1618.22,0.06287
1595.07,0.05967
1571.93,0.06353
1548.78,0.07288
1525.64,0.06386
1502.49,0.05807
1479.35,0.05428
1456.2,0.04917
1433.06,0.05265
1409.91,0.04890
1386.77,0.04521
1363.62,0.04483
1340.48,0.04019
1317.33,0.03551
1294.19,0.03769
1271.04,0.07734
1247.9,0.06731
1224.75,0.05880
1201.61,0.05376
1178.46,0.04725
1155.32,0.04574
1132.17,0.04996
1109.03,0.05602
1085.88,0.05143
1062.74,0.06924
1039.59,0.06838
1016.45,0.07028
993.304,0.06903
970.159,0.07029
947.014,0.06781
923.869,0.06406
900.724,0.05951
877.579,0.05424
854.434,0.05842
831.289,0.07433
808.144,0.07132
784.999,0.06452
761.854,0.05881
738.709,0.06720
715.565,0.06209
692.42,0.06365
669.275,0.06496
646.13,0.06044
622.985,0.05702
599.84,0.05709