File: 01_Data/Engineered_Wood_Furniture/FTIR/IS/Engineered_Wood_Furniture_IS_S_221005_R6.dpt
7497.03,0.17958
7473.89,0.17798
7450.74,0.17358
7427.6,0.17467
7404.45,0.17193
7381.31,0.17371
7358.16,0.17709
7335.02,0.18459
7311.87,0.17463
7288.73,0.17685
7265.58,0.17557
7242.44,0.16876
7219.29,0.17487
7196.15,0.17311
7173,0.17633
7149.86,0.17330
7126.71,0.17024
7103.57,0.16371
7080.42,0.16636
7057.28,0.15926
7034.13,0.16115
7010.99,0.15754
6987.84,0.15811
6964.7,0.16171
6941.55,0.15830
6918.41,0.15154
6895.26,0.15371
6872.12,0.15597
6848.97,0.15827
6825.83,0.15914
6802.68,0.15841
6779.54,0.15523
6756.39,0.15622
6733.25,0.15720
6710.1,0.15769
6686.96,0.16021
6663.82,0.15541
6640.67,0.16008
6617.53,0.15681
6594.38,0.16473
6571.24,0.16104
6548.09,0.16280
6524.95,0.16125
6501.8,0.16383
6478.66,0.16316
6455.51,0.16388
6432.37,0.16650
6409.22,0.16680
6386.08,0.16934
6362.93,0.17336
6339.79,0.16416
6316.64,0.16989
6293.5,0.16768
6270.35,0.17161
6247.21,0.17128
6224.06,0.17574
6200.92,0.17373
6177.77,0.17530
6154.63,0.17516
6131.48,0.17806
6108.34,0.17533
6085.19,0.17737
6062.05,0.17717
6038.9,0.17383
6015.76,0.17478
5992.61,0.17443
5969.47,0.17003
5946.32,0.17514
5923.18,0.17078
5900.03,0.17563
5876.89,0.17498
5853.74,0.17224
5830.6,0.17190
5807.45,0.17162
5784.31,0.17266
5761.16,0.17353
5738.02,0.17605
5714.87,0.17471
5691.73,0.17583
5668.58,0.17713
5645.44,0.17675
5622.29,0.17661
5599.15,0.17833
5576,0.17681
5552.86,0.17911
5529.71,0.18094
5506.57,0.17784
5483.42,0.18138
5460.28,0.18195
5437.13,0.18408
5413.99,0.18319
5390.84,0.18551
5367.7,0.18702
5344.55,0.18387
5321.41,0.17976
5298.26,0.17591
5275.12,0.16920
5251.97,0.15878
5228.83,0.15343
5205.68,0.14876
5182.54,0.14807
5159.39,0.14979
5136.25,0.15141
5113.1,0.15367
5089.96,0.15543
5066.81,0.15834
5043.67,0.16044
5020.52,0.16212
4997.38,0.16372
4974.23,0.16186
4951.09,0.16038
4927.94,0.15834
4904.8,0.15415
4881.65,0.15222
4858.51,0.15007
4835.36,0.14883
4812.22,0.14857
4789.07,0.14894
4765.93,0.14810
4742.78,0.14905
4719.64,0.14765
4696.49,0.14820
4673.35,0.14720
4650.2,0.15009
4627.06,0.15196
4603.92,0.15395
4580.77,0.15455
4557.63,0.15516
4534.48,0.15582
4511.34,0.15625
4488.19,0.15393
4465.05,0.14650
4441.9,0.13884
4418.76,0.13478
4395.61,0.13384
4372.47,0.13386
4349.32,0.13165
4326.18,0.12855
4303.03,0.13166
4279.89,0.13031
4256.74,0.12929
4233.6,0.13311
4210.45,0.13390
4187.31,0.13408
4164.16,0.13425
4141.02,0.13314
4117.87,0.13035
4094.73,0.12733
4071.58,0.12331
4048.44,0.11970
4025.29,0.11794
4002.15,0.11760
3979,0.11909
3955.86,0.12018
3932.71,0.12352
3909.57,0.12608
3886.42,0.12854
3863.28,0.13117
3840.13,0.13483
3816.99,0.13517
3793.84,0.13478
3770.7,0.13323
3747.55,0.13089
3724.41,0.12529
3701.26,0.11629
3678.12,0.09123
3654.97,0.07864
3631.83,0.07031
3608.68,0.06195
3585.54,0.05785
3562.39,0.05522
3539.25,0.05361
3516.1,0.05191
3492.96,0.05184
3469.81,0.05140
3446.67,0.05098
3423.52,0.05175
3400.38,0.05112
3377.23,0.05153
3354.09,0.05102
3330.94,0.05194
3307.8,0.05166
3284.65,0.05337
3261.51,0.05372
3238.36,0.05473
3215.22,0.05537
3192.07,0.05654
3168.93,0.05828
3145.78,0.05825
3122.64,0.05918
3099.49,0.06014
3076.35,0.06044
3053.2,0.06137
3030.06,0.06097
3006.91,0.05858
2983.77,0.05575
2960.62,0.05226
2937.48,0.05196
2914.33,0.05553
2891.19,0.05567
2868.04,0.05594
2844.9,0.05940
2821.75,0.06496
2798.61,0.06910
2775.46,0.07164
2752.32,0.07237
2729.17,0.07327
2706.03,0.07597
2682.88,0.07745
2659.74,0.07850
2636.59,0.07975
2613.45,0.08189
2590.3,0.08373
2567.16,0.08359
2544.02,0.08424
2520.87,0.08801
2497.73,0.09118
2474.58,0.09536
2451.44,0.09718
2428.29,0.09908
2405.15,0.10181
2382,0.10400
2358.86,0.10624
2335.71,0.10727
2312.57,0.10876
2289.42,0.10848
2266.28,0.10705
2243.13,0.10521
2219.99,0.10430
2196.84,0.10293
2173.7,0.09889
2150.55,0.09532
2127.41,0.09513
2104.26,0.09612
2081.12,0.09809
2057.97,0.09808
2034.83,0.09940
2011.68,0.10088
1988.54,0.10109
1965.39,0.09988
1942.25,0.10158
1919.1,0.10478
1895.96,0.10446
1872.81,0.10144
1849.67,0.09395
1826.52,0.08691
1803.38,0.07524
1780.23,0.05737
1757.09,0.03782
1733.94,0.04438
1710.8,0.05690
1687.65,0.04595
1664.51,0.04743
1641.36,0.06528
1618.22,0.06322
1595.07,0.05966
1571.93,0.06403
1548.78,0.07329
1525.64,0.06414
1502.49,0.05882
1479.35,0.05474
1456.2,0.04922
1433.06,0.05261
1409.91,0.04954
1386.77,0.04545
1363.62,0.04485
1340.48,0.04055
1317.33,0.03600
1294.19,0.03790
1271.04,0.07758
1247.9,0.06733
1224.75,0.05940
1201.61,0.05462
1178.46,0.04773
1155.32,0.04556
1132.17,0.05006
1109.03,0.05586
1085.88,0.05149
1062.74,0.06934
1039.59,0.06908
1016.45,0.07111
993.304,0.06912
970.159,0.07034
947.014,0.06861
923.869,0.06389
900.724,0.06061
877.579,0.05409
854.434,0.05778
831.289,0.07485
808.144,0.07161
784.999,0.06581
761.854,0.05885
738.709,0.06777
715.565,0.06161
692.42,0.06448
669.275,0.06581
646.13,0.06037
622.985,0.05823
599.84,0.05826