File: 01_Data/Engineered_Wood_Furniture/FTIR/IS/Engineered_Wood_Furniture_IS_S_221005_R2.dpt
7497.03,0.17277
7473.89,0.18459
7450.74,0.17131
7427.6,0.17145
7404.45,0.17972
7381.31,0.16664
7358.16,0.18039
7335.02,0.17761
7311.87,0.17238
7288.73,0.17638
7265.58,0.17583
7242.44,0.17360
7219.29,0.17503
7196.15,0.16915
7173,0.17272
7149.86,0.16610
7126.71,0.17526
7103.57,0.17086
7080.42,0.16346
7057.28,0.16966
7034.13,0.15991
7010.99,0.16161
6987.84,0.16375
6964.7,0.16080
6941.55,0.15744
6918.41,0.15826
6895.26,0.15535
6872.12,0.15821
6848.97,0.15543
6825.83,0.15444
6802.68,0.15395
6779.54,0.15363
6756.39,0.15639
6733.25,0.15712
6710.1,0.15545
6686.96,0.15564
6663.82,0.15841
6640.67,0.15820
6617.53,0.16232
6594.38,0.16103
6571.24,0.16266
6548.09,0.16719
6524.95,0.16032
6501.8,0.16525
6478.66,0.16213
6455.51,0.16806
6432.37,0.16471
6409.22,0.16494
6386.08,0.16566
6362.93,0.16567
6339.79,0.16367
6316.64,0.16804
6293.5,0.16761
6270.35,0.17077
6247.21,0.17028
6224.06,0.17192
6200.92,0.17386
6177.77,0.17056
6154.63,0.17367
6131.48,0.17286
6108.34,0.17732
6085.19,0.17386
6062.05,0.17557
6038.9,0.17465
6015.76,0.17345
5992.61,0.17226
5969.47,0.17498
5946.32,0.17579
5923.18,0.17511
5900.03,0.17394
5876.89,0.17452
5853.74,0.17062
5830.6,0.17063
5807.45,0.17257
5784.31,0.17042
5761.16,0.17043
5738.02,0.17403
5714.87,0.17397
5691.73,0.17594
5668.58,0.17059
5645.44,0.17424
5622.29,0.17644
5599.15,0.17497
5576,0.17749
5552.86,0.17809
5529.71,0.17834
5506.57,0.17883
5483.42,0.18062
5460.28,0.18098
5437.13,0.18269
5413.99,0.18483
5390.84,0.18447
5367.7,0.18349
5344.55,0.18554
5321.41,0.18087
5298.26,0.17517
5275.12,0.16933
5251.97,0.15864
5228.83,0.15091
5205.68,0.14750
5182.54,0.14739
5159.39,0.14761
5136.25,0.15090
5113.1,0.15187
5089.96,0.15593
5066.81,0.15671
5043.67,0.15985
5020.52,0.16099
4997.38,0.16251
4974.23,0.16158
4951.09,0.16019
4927.94,0.15725
4904.8,0.15311
4881.65,0.15159
4858.51,0.14953
4835.36,0.14889
4812.22,0.14849
4789.07,0.14888
4765.93,0.14675
4742.78,0.14820
4719.64,0.14800
4696.49,0.14760
4673.35,0.14698
4650.2,0.15024
4627.06,0.15129
4603.92,0.15268
4580.77,0.15355
4557.63,0.15469
4534.48,0.15559
4511.34,0.15465
4488.19,0.15378
4465.05,0.14686
4441.9,0.13901
4418.76,0.13566
4395.61,0.13339
4372.47,0.13452
4349.32,0.13146
4326.18,0.12931
4303.03,0.13139
4279.89,0.13097
4256.74,0.12916
4233.6,0.13239
4210.45,0.13442
4187.31,0.13355
4164.16,0.13443
4141.02,0.13260
4117.87,0.13066
4094.73,0.12665
4071.58,0.12294
4048.44,0.11918
4025.29,0.11702
4002.15,0.11702
3979,0.11773
3955.86,0.11974
3932.71,0.12270
3909.57,0.12499
3886.42,0.12877
3863.28,0.13143
3840.13,0.13332
3816.99,0.13417
3793.84,0.13460
3770.7,0.13198
3747.55,0.12984
3724.41,0.12539
3701.26,0.11494
3678.12,0.09079
3654.97,0.07817
3631.83,0.06886
3608.68,0.06130
3585.54,0.05710
3562.39,0.05540
3539.25,0.05290
3516.1,0.05252
3492.96,0.05156
3469.81,0.05165
3446.67,0.05176
3423.52,0.05142
3400.38,0.05189
3377.23,0.05158
3354.09,0.05240
3330.94,0.05231
3307.8,0.05276
3284.65,0.05306
3261.51,0.05395
3238.36,0.05450
3215.22,0.05522
3192.07,0.05635
3168.93,0.05705
3145.78,0.05912
3122.64,0.06025
3099.49,0.06080
3076.35,0.06038
3053.2,0.06146
3030.06,0.06099
3006.91,0.05879
2983.77,0.05551
2960.62,0.05210
2937.48,0.05158
2914.33,0.05543
2891.19,0.05642
2868.04,0.05618
2844.9,0.05945
2821.75,0.06522
2798.61,0.06903
2775.46,0.07160
2752.32,0.07271
2729.17,0.07373
2706.03,0.07577
2682.88,0.07730
2659.74,0.07810
2636.59,0.08011
2613.45,0.08211
2590.3,0.08406
2567.16,0.08331
2544.02,0.08429
2520.87,0.08847
2497.73,0.09161
2474.58,0.09484
2451.44,0.09718
2428.29,0.09887
2405.15,0.10144
2382,0.10374
2358.86,0.10613
2335.71,0.10666
2312.57,0.10836
2289.42,0.10814
2266.28,0.10652
2243.13,0.10469
2219.99,0.10431
2196.84,0.10239
2173.7,0.09875
2150.55,0.09528
2127.41,0.09488
2104.26,0.09581
2081.12,0.09719
2057.97,0.09745
2034.83,0.09850
2011.68,0.10070
1988.54,0.10062
1965.39,0.09957
1942.25,0.10058
1919.1,0.10455
1895.96,0.10463
1872.81,0.10087
1849.67,0.09395
1826.52,0.08681
1803.38,0.07513
1780.23,0.05784
1757.09,0.03822
1733.94,0.04446
1710.8,0.05657
1687.65,0.04605
1664.51,0.04735
1641.36,0.06455
1618.22,0.06345
1595.07,0.05960
1571.93,0.06388
1548.78,0.07301
1525.64,0.06457
1502.49,0.05852
1479.35,0.05483
1456.2,0.04906
1433.06,0.05276
1409.91,0.04887
1386.77,0.04552
1363.62,0.04488
1340.48,0.04063
1317.33,0.03608
1294.19,0.03828
1271.04,0.07791
1247.9,0.06725
1224.75,0.05901
1201.61,0.05415
1178.46,0.04803
1155.32,0.04562
1132.17,0.05030
1109.03,0.05657
1085.88,0.05116
1062.74,0.06938
1039.59,0.06898
1016.45,0.07080
993.304,0.06925
970.159,0.07045
947.014,0.06829
923.869,0.06393
900.724,0.05990
877.579,0.05498
854.434,0.05832
831.289,0.07522
808.144,0.07104
784.999,0.06481
761.854,0.05923
738.709,0.06690
715.565,0.06083
692.42,0.06425
669.275,0.06564
646.13,0.06062
622.985,0.05961
599.84,0.05770