File: 01_Data/Engineered_Wood_Furniture/FTIR/IS/Engineered_Wood_Furniture_IS_S_221005_R7.dpt
7497.03,0.17859
7473.89,0.18554
7450.74,0.16884
7427.6,0.17590
7404.45,0.17356
7381.31,0.17337
7358.16,0.17835
7335.02,0.17053
7311.87,0.17105
7288.73,0.17535
7265.58,0.17412
7242.44,0.17824
7219.29,0.16991
7196.15,0.17193
7173,0.16871
7149.86,0.17215
7126.71,0.17620
7103.57,0.16480
7080.42,0.16675
7057.28,0.16397
7034.13,0.16549
7010.99,0.16108
6987.84,0.15408
6964.7,0.16337
6941.55,0.15678
6918.41,0.15682
6895.26,0.16212
6872.12,0.15563
6848.97,0.15666
6825.83,0.15751
6802.68,0.15938
6779.54,0.16035
6756.39,0.15967
6733.25,0.15849
6710.1,0.15281
6686.96,0.15920
6663.82,0.16025
6640.67,0.15878
6617.53,0.16201
6594.38,0.15552
6571.24,0.16026
6548.09,0.16218
6524.95,0.16856
6501.8,0.16747
6478.66,0.16798
6455.51,0.16246
6432.37,0.16370
6409.22,0.16654
6386.08,0.16697
6362.93,0.16581
6339.79,0.17278
6316.64,0.16745
6293.5,0.16757
6270.35,0.16836
6247.21,0.16860
6224.06,0.17310
6200.92,0.17132
6177.77,0.17340
6154.63,0.17317
6131.48,0.17640
6108.34,0.17580
6085.19,0.17818
6062.05,0.17543
6038.9,0.17760
6015.76,0.17434
5992.61,0.17480
5969.47,0.17310
5946.32,0.17421
5923.18,0.17260
5900.03,0.17393
5876.89,0.17093
5853.74,0.17009
5830.6,0.17300
5807.45,0.17091
5784.31,0.17079
5761.16,0.17249
5738.02,0.17512
5714.87,0.17522
5691.73,0.17580
5668.58,0.17545
5645.44,0.17613
5622.29,0.17676
5599.15,0.17682
5576,0.17863
5552.86,0.17862
5529.71,0.18168
5506.57,0.17940
5483.42,0.18176
5460.28,0.18131
5437.13,0.18388
5413.99,0.18402
5390.84,0.18488
5367.7,0.18538
5344.55,0.18472
5321.41,0.18419
5298.26,0.17874
5275.12,0.16825
5251.97,0.15971
5228.83,0.15268
5205.68,0.14918
5182.54,0.14855
5159.39,0.14960
5136.25,0.15265
5113.1,0.15459
5089.96,0.15581
5066.81,0.15857
5043.67,0.16134
5020.52,0.16231
4997.38,0.16368
4974.23,0.16336
4951.09,0.16039
4927.94,0.15849
4904.8,0.15317
4881.65,0.15210
4858.51,0.14970
4835.36,0.14985
4812.22,0.14914
4789.07,0.14888
4765.93,0.14812
4742.78,0.14945
4719.64,0.14791
4696.49,0.14705
4673.35,0.14808
4650.2,0.14995
4627.06,0.15157
4603.92,0.15312
4580.77,0.15496
4557.63,0.15625
4534.48,0.15626
4511.34,0.15675
4488.19,0.15415
4465.05,0.14811
4441.9,0.13993
4418.76,0.13493
4395.61,0.13384
4372.47,0.13351
4349.32,0.13178
4326.18,0.12921
4303.03,0.13188
4279.89,0.13077
4256.74,0.12933
4233.6,0.13426
4210.45,0.13436
4187.31,0.13454
4164.16,0.13500
4141.02,0.13309
4117.87,0.13145
4094.73,0.12833
4071.58,0.12359
4048.44,0.11995
4025.29,0.11774
4002.15,0.11772
3979,0.11884
3955.86,0.12063
3932.71,0.12353
3909.57,0.12682
3886.42,0.12935
3863.28,0.13229
3840.13,0.13510
3816.99,0.13540
3793.84,0.13517
3770.7,0.13381
3747.55,0.13116
3724.41,0.12674
3701.26,0.11633
3678.12,0.09164
3654.97,0.07949
3631.83,0.06924
3608.68,0.06294
3585.54,0.05902
3562.39,0.05511
3539.25,0.05331
3516.1,0.05237
3492.96,0.05146
3469.81,0.05220
3446.67,0.05137
3423.52,0.05149
3400.38,0.05205
3377.23,0.05140
3354.09,0.05163
3330.94,0.05202
3307.8,0.05276
3284.65,0.05261
3261.51,0.05423
3238.36,0.05497
3215.22,0.05599
3192.07,0.05648
3168.93,0.05801
3145.78,0.05908
3122.64,0.06006
3099.49,0.06073
3076.35,0.06060
3053.2,0.06128
3030.06,0.06086
3006.91,0.05883
2983.77,0.05558
2960.62,0.05307
2937.48,0.05136
2914.33,0.05542
2891.19,0.05644
2868.04,0.05597
2844.9,0.05941
2821.75,0.06545
2798.61,0.06939
2775.46,0.07168
2752.32,0.07326
2729.17,0.07366
2706.03,0.07602
2682.88,0.07751
2659.74,0.07866
2636.59,0.08044
2613.45,0.08205
2590.3,0.08432
2567.16,0.08326
2544.02,0.08390
2520.87,0.08843
2497.73,0.09161
2474.58,0.09552
2451.44,0.09724
2428.29,0.09950
2405.15,0.10217
2382,0.10403
2358.86,0.10632
2335.71,0.10740
2312.57,0.10905
2289.42,0.10847
2266.28,0.10754
2243.13,0.10548
2219.99,0.10485
2196.84,0.10310
2173.7,0.09968
2150.55,0.09575
2127.41,0.09521
2104.26,0.09702
2081.12,0.09844
2057.97,0.09843
2034.83,0.09980
2011.68,0.10169
1988.54,0.10101
1965.39,0.10011
1942.25,0.10168
1919.1,0.10524
1895.96,0.10517
1872.81,0.10195
1849.67,0.09365
1826.52,0.08742
1803.38,0.07544
1780.23,0.05751
1757.09,0.03835
1733.94,0.04452
1710.8,0.05700
1687.65,0.04598
1664.51,0.04746
1641.36,0.06470
1618.22,0.06368
1595.07,0.05977
1571.93,0.06376
1548.78,0.07334
1525.64,0.06492
1502.49,0.05894
1479.35,0.05475
1456.2,0.04935
1433.06,0.05273
1409.91,0.04951
1386.77,0.04565
1363.62,0.04513
1340.48,0.04072
1317.33,0.03583
1294.19,0.03780
1271.04,0.07824
1247.9,0.06744
1224.75,0.05907
1201.61,0.05409
1178.46,0.04809
1155.32,0.04611
1132.17,0.05016
1109.03,0.05631
1085.88,0.05165
1062.74,0.06922
1039.59,0.06874
1016.45,0.07132
993.304,0.06964
970.159,0.07057
947.014,0.06844
923.869,0.06444
900.724,0.06004
877.579,0.05488
854.434,0.05842
831.289,0.07478
808.144,0.07182
784.999,0.06465
761.854,0.05926
738.709,0.06726
715.565,0.06057
692.42,0.06369
669.275,0.06596
646.13,0.05932
622.985,0.05804
599.84,0.05859