File: 01_Data/Engineered_Wood_Furniture/FTIR/IS/Engineered_Wood_Furniture_IS_T_221005_R3.dpt
7497.03,0.02467
7473.89,0.02929
7450.74,0.01868
7427.6,0.02637
7404.45,0.03238
7381.31,0.02991
7358.16,0.03279
7335.02,0.02887
7311.87,0.02602
7288.73,0.02982
7265.58,0.02113
7242.44,0.02870
7219.29,0.02548
7196.15,0.02998
7173,0.03334
7149.86,0.02748
7126.71,0.01773
7103.57,0.02384
7080.42,0.01891
7057.28,0.02756
7034.13,0.01365
7010.99,0.02890
6987.84,0.02505
6964.7,0.02569
6941.55,0.02497
6918.41,0.02455
6895.26,0.02459
6872.12,0.02226
6848.97,0.02288
6825.83,0.02059
6802.68,0.02230
6779.54,0.02456
6756.39,0.02306
6733.25,0.01962
6710.1,0.02317
6686.96,0.02475
6663.82,0.01758
6640.67,0.02132
6617.53,0.02111
6594.38,0.01916
6571.24,0.02106
6548.09,0.02489
6524.95,0.02191
6501.8,0.02140
6478.66,0.02033
6455.51,0.02170
6432.37,0.01852
6409.22,0.02008
6386.08,0.02252
6362.93,0.01746
6339.79,0.02260
6316.64,0.02657
6293.5,0.02414
6270.35,0.02095
6247.21,0.02118
6224.06,0.02216
6200.92,0.02041
6177.77,0.02124
6154.63,0.01960
6131.48,0.02107
6108.34,0.02268
6085.19,0.02224
6062.05,0.02433
6038.9,0.02139
6015.76,0.02375
5992.61,0.02175
5969.47,0.01963
5946.32,0.01998
5923.18,0.02179
5900.03,0.02053
5876.89,0.02181
5853.74,0.01925
5830.6,0.02207
5807.45,0.02110
5784.31,0.02211
5761.16,0.02339
5738.02,0.02345
5714.87,0.02274
5691.73,0.02076
5668.58,0.02134
5645.44,0.02092
5622.29,0.02129
5599.15,0.02280
5576,0.02139
5552.86,0.02173
5529.71,0.02176
5506.57,0.02155
5483.42,0.02243
5460.28,0.02211
5437.13,0.02200
5413.99,0.02306
5390.84,0.02166
5367.7,0.02281
5344.55,0.02318
5321.41,0.02232
5298.26,0.02048
5275.12,0.02261
5251.97,0.02180
5228.83,0.02173
5205.68,0.02107
5182.54,0.02256
5159.39,0.02243
5136.25,0.02187
5113.1,0.02115
5089.96,0.02202
5066.81,0.02363
5043.67,0.02239
5020.52,0.02151
4997.38,0.02164
4974.23,0.02153
4951.09,0.02198
4927.94,0.02180
4904.8,0.02253
4881.65,0.02288
4858.51,0.02277
4835.36,0.02230
4812.22,0.02171
4789.07,0.02249
4765.93,0.02272
4742.78,0.02216
4719.64,0.02263
4696.49,0.02167
4673.35,0.02219
4650.2,0.02198
4627.06,0.02261
4603.92,0.02137
4580.77,0.02222
4557.63,0.02246
4534.48,0.02146
4511.34,0.02166
4488.19,0.02304
4465.05,0.02197
4441.9,0.02245
4418.76,0.02193
4395.61,0.02240
4372.47,0.02231
4349.32,0.02312
4326.18,0.02312
4303.03,0.02210
4279.89,0.02238
4256.74,0.02296
4233.6,0.02272
4210.45,0.02219
4187.31,0.02231
4164.16,0.02272
4141.02,0.02246
4117.87,0.02229
4094.73,0.02239
4071.58,0.02237
4048.44,0.02262
4025.29,0.02292
4002.15,0.02280
3979,0.02252
3955.86,0.02244
3932.71,0.02256
3909.57,0.02275
3886.42,0.02250
3863.28,0.02224
3840.13,0.02341
3816.99,0.02271
3793.84,0.02241
3770.7,0.02253
3747.55,0.02302
3724.41,0.02199
3701.26,0.02189
3678.12,0.02286
3654.97,0.02199
3631.83,0.02200
3608.68,0.02238
3585.54,0.02179
3562.39,0.02144
3539.25,0.02053
3516.1,0.02139
3492.96,0.02075
3469.81,0.02069
3446.67,0.02008
3423.52,0.02051
3400.38,0.02031
3377.23,0.02124
3354.09,0.02074
3330.94,0.02074
3307.8,0.02064
3284.65,0.01979
3261.51,0.02052
3238.36,0.02028
3215.22,0.02078
3192.07,0.02062
3168.93,0.02080
3145.78,0.02088
3122.64,0.02086
3099.49,0.02036
3076.35,0.02100
3053.2,0.02059
3030.06,0.02089
3006.91,0.02044
2983.77,0.01981
2960.62,0.01974
2937.48,0.01940
2914.33,0.02029
2891.19,0.02029
2868.04,0.02092
2844.9,0.02100
2821.75,0.02113
2798.61,0.02144
2775.46,0.02095
2752.32,0.02105
2729.17,0.02128
2706.03,0.02112
2682.88,0.02134
2659.74,0.02097
2636.59,0.02152
2613.45,0.02167
2590.3,0.02128
2567.16,0.02091
2544.02,0.02120
2520.87,0.02105
2497.73,0.02131
2474.58,0.02127
2451.44,0.02117
2428.29,0.02132
2405.15,0.02147
2382,0.02127
2358.86,0.02160
2335.71,0.02131
2312.57,0.02116
2289.42,0.02098
2266.28,0.02096
2243.13,0.02104
2219.99,0.02099
2196.84,0.02110
2173.7,0.02103
2150.55,0.02094
2127.41,0.02120
2104.26,0.02038
2081.12,0.02088
2057.97,0.02104
2034.83,0.02091
2011.68,0.02075
1988.54,0.02116
1965.39,0.02092
1942.25,0.02057
1919.1,0.02061
1895.96,0.02064
1872.81,0.02061
1849.67,0.02008
1826.52,0.01974
1803.38,0.01962
1780.23,0.01937
1757.09,0.01759
1733.94,0.01986
1710.8,0.02069
1687.65,0.01931
1664.51,0.01862
1641.36,0.01901
1618.22,0.01899
1595.07,0.01910
1571.93,0.01855
1548.78,0.01834
1525.64,0.01895
1502.49,0.01840
1479.35,0.01884
1456.2,0.01895
1433.06,0.01872
1409.91,0.01832
1386.77,0.01840
1363.62,0.01838
1340.48,0.01829
1317.33,0.01688
1294.19,0.01798
1271.04,0.01966
1247.9,0.01980
1224.75,0.01930
1201.61,0.01811
1178.46,0.01783
1155.32,0.01767
1132.17,0.01807
1109.03,0.01866
1085.88,0.01894
1062.74,0.01996
1039.59,0.01943
1016.45,0.01919
993.304,0.02070
970.159,0.02052
947.014,0.02011
923.869,0.01911
900.724,0.01927
877.579,0.01922
854.434,0.01882
831.289,0.01926
808.144,0.01943
784.999,0.01871
761.854,0.01788
738.709,0.01822
715.565,0.01757
692.42,0.01778
669.275,0.01781
646.13,0.01676
622.985,0.01573
599.84,0.01680