File: 01_Data/Engineered_Wood_Furniture/FTIR/IS/Engineered_Wood_Furniture_IS_S_221005_R1.dpt
7497.03,0.18164
7473.89,0.18354
7450.74,0.17488
7427.6,0.17597
7404.45,0.17299
7381.31,0.17845
7358.16,0.17045
7335.02,0.17513
7311.87,0.17351
7288.73,0.17564
7265.58,0.17428
7242.44,0.17844
7219.29,0.16938
7196.15,0.17255
7173,0.18237
7149.86,0.16795
7126.71,0.16994
7103.57,0.16545
7080.42,0.16408
7057.28,0.16474
7034.13,0.16271
7010.99,0.15768
6987.84,0.15890
6964.7,0.15964
6941.55,0.15709
6918.41,0.15607
6895.26,0.15542
6872.12,0.15759
6848.97,0.15828
6825.83,0.16174
6802.68,0.15761
6779.54,0.15625
6756.39,0.15520
6733.25,0.16090
6710.1,0.15554
6686.96,0.15738
6663.82,0.16048
6640.67,0.15735
6617.53,0.16097
6594.38,0.16119
6571.24,0.16431
6548.09,0.15548
6524.95,0.16443
6501.8,0.16425
6478.66,0.16142
6455.51,0.16193
6432.37,0.16423
6409.22,0.16834
6386.08,0.16541
6362.93,0.16717
6339.79,0.16950
6316.64,0.16766
6293.5,0.16768
6270.35,0.17089
6247.21,0.17258
6224.06,0.17447
6200.92,0.17365
6177.77,0.17467
6154.63,0.17448
6131.48,0.17576
6108.34,0.17656
6085.19,0.17605
6062.05,0.17465
6038.9,0.17390
6015.76,0.17060
5992.61,0.17336
5969.47,0.17289
5946.32,0.17579
5923.18,0.17257
5900.03,0.17084
5876.89,0.17137
5853.74,0.17220
5830.6,0.16969
5807.45,0.16923
5784.31,0.17129
5761.16,0.17068
5738.02,0.17375
5714.87,0.17358
5691.73,0.17426
5668.58,0.17435
5645.44,0.17463
5622.29,0.17630
5599.15,0.17676
5576,0.17676
5552.86,0.17741
5529.71,0.17926
5506.57,0.17993
5483.42,0.18062
5460.28,0.18090
5437.13,0.18188
5413.99,0.18409
5390.84,0.18437
5367.7,0.18361
5344.55,0.18302
5321.41,0.18307
5298.26,0.17681
5275.12,0.16742
5251.97,0.15792
5228.83,0.14924
5205.68,0.14637
5182.54,0.14658
5159.39,0.14714
5136.25,0.14887
5113.1,0.15197
5089.96,0.15382
5066.81,0.15624
5043.67,0.15802
5020.52,0.16094
4997.38,0.16056
4974.23,0.16185
4951.09,0.15956
4927.94,0.15584
4904.8,0.15320
4881.65,0.15106
4858.51,0.14987
4835.36,0.14892
4812.22,0.14774
4789.07,0.14829
4765.93,0.14745
4742.78,0.14778
4719.64,0.14709
4696.49,0.14696
4673.35,0.14652
4650.2,0.14906
4627.06,0.15104
4603.92,0.15285
4580.77,0.15328
4557.63,0.15423
4534.48,0.15534
4511.34,0.15584
4488.19,0.15321
4465.05,0.14692
4441.9,0.13809
4418.76,0.13465
4395.61,0.13357
4372.47,0.13314
4349.32,0.13167
4326.18,0.12810
4303.03,0.13102
4279.89,0.13078
4256.74,0.12912
4233.6,0.13232
4210.45,0.13340
4187.31,0.13327
4164.16,0.13437
4141.02,0.13172
4117.87,0.12986
4094.73,0.12623
4071.58,0.12262
4048.44,0.11940
4025.29,0.11678
4002.15,0.11668
3979,0.11759
3955.86,0.12010
3932.71,0.12233
3909.57,0.12509
3886.42,0.12818
3863.28,0.13102
3840.13,0.13345
3816.99,0.13427
3793.84,0.13268
3770.7,0.13159
3747.55,0.12913
3724.41,0.12389
3701.26,0.11363
3678.12,0.08908
3654.97,0.07731
3631.83,0.06696
3608.68,0.06100
3585.54,0.05655
3562.39,0.05507
3539.25,0.05306
3516.1,0.05160
3492.96,0.05179
3469.81,0.05086
3446.67,0.05137
3423.52,0.05157
3400.38,0.05170
3377.23,0.05126
3354.09,0.05125
3330.94,0.05165
3307.8,0.05178
3284.65,0.05322
3261.51,0.05331
3238.36,0.05406
3215.22,0.05555
3192.07,0.05657
3168.93,0.05699
3145.78,0.05823
3122.64,0.05922
3099.49,0.06018
3076.35,0.06004
3053.2,0.06117
3030.06,0.06070
3006.91,0.05849
2983.77,0.05581
2960.62,0.05262
2937.48,0.05186
2914.33,0.05585
2891.19,0.05548
2868.04,0.05556
2844.9,0.05928
2821.75,0.06487
2798.61,0.06842
2775.46,0.07099
2752.32,0.07226
2729.17,0.07338
2706.03,0.07528
2682.88,0.07713
2659.74,0.07801
2636.59,0.07932
2613.45,0.08179
2590.3,0.08332
2567.16,0.08339
2544.02,0.08409
2520.87,0.08774
2497.73,0.09116
2474.58,0.09524
2451.44,0.09682
2428.29,0.09894
2405.15,0.10142
2382,0.10298
2358.86,0.10533
2335.71,0.10621
2312.57,0.10786
2289.42,0.10724
2266.28,0.10594
2243.13,0.10447
2219.99,0.10316
2196.84,0.10164
2173.7,0.09816
2150.55,0.09423
2127.41,0.09425
2104.26,0.09525
2081.12,0.09664
2057.97,0.09693
2034.83,0.09769
2011.68,0.10010
1988.54,0.09954
1965.39,0.09891
1942.25,0.10035
1919.1,0.10369
1895.96,0.10390
1872.81,0.10033
1849.67,0.09304
1826.52,0.08652
1803.38,0.07509
1780.23,0.05765
1757.09,0.03828
1733.94,0.04474
1710.8,0.05671
1687.65,0.04596
1664.51,0.04698
1641.36,0.06461
1618.22,0.06300
1595.07,0.05939
1571.93,0.06380
1548.78,0.07286
1525.64,0.06407
1502.49,0.05873
1479.35,0.05482
1456.2,0.04910
1433.06,0.05255
1409.91,0.04897
1386.77,0.04542
1363.62,0.04516
1340.48,0.04040
1317.33,0.03604
1294.19,0.03843
1271.04,0.07770
1247.9,0.06738
1224.75,0.05893
1201.61,0.05416
1178.46,0.04782
1155.32,0.04562
1132.17,0.05015
1109.03,0.05694
1085.88,0.05171
1062.74,0.06925
1039.59,0.06919
1016.45,0.07113
993.304,0.06898
970.159,0.07073
947.014,0.06842
923.869,0.06360
900.724,0.05964
877.579,0.05423
854.434,0.05808
831.289,0.07493
808.144,0.07066
784.999,0.06419
761.854,0.05899
738.709,0.06772
715.565,0.06050
692.42,0.06389
669.275,0.06584
646.13,0.05904
622.985,0.05658
599.84,0.05745