File: 01_Data/Engineered_Wood_Furniture/FTIR/IS/Engineered_Wood_Furniture_IS_S_221005_R5.dpt
7497.03,0.17439
7473.89,0.17148
7450.74,0.17100
7427.6,0.17376
7404.45,0.18085
7381.31,0.17409
7358.16,0.17351
7335.02,0.17409
7311.87,0.16492
7288.73,0.17407
7265.58,0.17276
7242.44,0.16638
7219.29,0.16937
7196.15,0.17272
7173,0.16933
7149.86,0.17093
7126.71,0.17025
7103.57,0.16557
7080.42,0.16417
7057.28,0.16297
7034.13,0.16652
7010.99,0.16055
6987.84,0.16364
6964.7,0.15542
6941.55,0.15170
6918.41,0.16160
6895.26,0.15393
6872.12,0.15797
6848.97,0.15592
6825.83,0.15804
6802.68,0.15974
6779.54,0.16017
6756.39,0.15933
6733.25,0.16070
6710.1,0.15956
6686.96,0.15829
6663.82,0.15542
6640.67,0.15561
6617.53,0.16264
6594.38,0.15836
6571.24,0.16544
6548.09,0.16313
6524.95,0.16273
6501.8,0.16080
6478.66,0.16018
6455.51,0.16283
6432.37,0.16652
6409.22,0.16840
6386.08,0.16429
6362.93,0.16419
6339.79,0.16951
6316.64,0.16497
6293.5,0.16775
6270.35,0.16801
6247.21,0.16983
6224.06,0.17204
6200.92,0.17532
6177.77,0.17512
6154.63,0.17382
6131.48,0.17724
6108.34,0.18146
6085.19,0.17643
6062.05,0.17453
6038.9,0.17358
6015.76,0.17502
5992.61,0.17330
5969.47,0.17486
5946.32,0.17385
5923.18,0.17310
5900.03,0.17400
5876.89,0.17329
5853.74,0.16986
5830.6,0.17072
5807.45,0.16941
5784.31,0.16987
5761.16,0.17291
5738.02,0.17346
5714.87,0.17550
5691.73,0.17541
5668.58,0.17494
5645.44,0.17476
5622.29,0.17546
5599.15,0.17504
5576,0.17827
5552.86,0.17952
5529.71,0.17864
5506.57,0.17860
5483.42,0.18021
5460.28,0.18069
5437.13,0.18292
5413.99,0.18475
5390.84,0.18378
5367.7,0.18402
5344.55,0.18324
5321.41,0.18000
5298.26,0.17681
5275.12,0.16871
5251.97,0.15980
5228.83,0.15295
5205.68,0.14884
5182.54,0.14658
5159.39,0.14849
5136.25,0.15150
5113.1,0.15267
5089.96,0.15587
5066.81,0.15680
5043.67,0.16009
5020.52,0.16106
4997.38,0.16185
4974.23,0.16202
4951.09,0.15967
4927.94,0.15704
4904.8,0.15344
4881.65,0.15029
4858.51,0.14939
4835.36,0.14886
4812.22,0.14854
4789.07,0.14759
4765.93,0.14807
4742.78,0.14874
4719.64,0.14829
4696.49,0.14701
4673.35,0.14712
4650.2,0.14948
4627.06,0.15094
4603.92,0.15227
4580.77,0.15391
4557.63,0.15474
4534.48,0.15599
4511.34,0.15538
4488.19,0.15353
4465.05,0.14709
4441.9,0.13798
4418.76,0.13405
4395.61,0.13426
4372.47,0.13332
4349.32,0.13234
4326.18,0.12985
4303.03,0.13130
4279.89,0.13048
4256.74,0.12847
4233.6,0.13185
4210.45,0.13396
4187.31,0.13422
4164.16,0.13466
4141.02,0.13247
4117.87,0.12999
4094.73,0.12650
4071.58,0.12348
4048.44,0.11913
4025.29,0.11706
4002.15,0.11691
3979,0.11796
3955.86,0.11981
3932.71,0.12256
3909.57,0.12550
3886.42,0.12894
3863.28,0.13094
3840.13,0.13399
3816.99,0.13431
3793.84,0.13478
3770.7,0.13225
3747.55,0.13073
3724.41,0.12580
3701.26,0.11501
3678.12,0.09017
3654.97,0.07827
3631.83,0.06892
3608.68,0.06179
3585.54,0.05863
3562.39,0.05501
3539.25,0.05325
3516.1,0.05217
3492.96,0.05169
3469.81,0.05168
3446.67,0.05126
3423.52,0.05155
3400.38,0.05093
3377.23,0.05107
3354.09,0.05147
3330.94,0.05207
3307.8,0.05212
3284.65,0.05220
3261.51,0.05317
3238.36,0.05447
3215.22,0.05591
3192.07,0.05681
3168.93,0.05718
3145.78,0.05842
3122.64,0.05983
3099.49,0.06021
3076.35,0.06016
3053.2,0.06188
3030.06,0.06090
3006.91,0.05895
2983.77,0.05560
2960.62,0.05287
2937.48,0.05187
2914.33,0.05550
2891.19,0.05565
2868.04,0.05602
2844.9,0.05958
2821.75,0.06531
2798.61,0.06900
2775.46,0.07124
2752.32,0.07231
2729.17,0.07318
2706.03,0.07585
2682.88,0.07693
2659.74,0.07834
2636.59,0.07951
2613.45,0.08202
2590.3,0.08383
2567.16,0.08342
2544.02,0.08391
2520.87,0.08835
2497.73,0.09131
2474.58,0.09522
2451.44,0.09713
2428.29,0.09896
2405.15,0.10132
2382,0.10390
2358.86,0.10606
2335.71,0.10679
2312.57,0.10807
2289.42,0.10825
2266.28,0.10650
2243.13,0.10473
2219.99,0.10419
2196.84,0.10254
2173.7,0.09890
2150.55,0.09490
2127.41,0.09472
2104.26,0.09593
2081.12,0.09725
2057.97,0.09770
2034.83,0.09882
2011.68,0.10096
1988.54,0.10035
1965.39,0.09984
1942.25,0.10108
1919.1,0.10424
1895.96,0.10443
1872.81,0.10114
1849.67,0.09354
1826.52,0.08701
1803.38,0.07481
1780.23,0.05769
1757.09,0.03811
1733.94,0.04443
1710.8,0.05684
1687.65,0.04598
1664.51,0.04740
1641.36,0.06472
1618.22,0.06300
1595.07,0.05953
1571.93,0.06410
1548.78,0.07311
1525.64,0.06428
1502.49,0.05860
1479.35,0.05477
1456.2,0.04917
1433.06,0.05254
1409.91,0.04890
1386.77,0.04534
1363.62,0.04503
1340.48,0.04041
1317.33,0.03585
1294.19,0.03763
1271.04,0.07740
1247.9,0.06703
1224.75,0.05815
1201.61,0.05410
1178.46,0.04701
1155.32,0.04551
1132.17,0.04978
1109.03,0.05644
1085.88,0.05167
1062.74,0.06894
1039.59,0.06931
1016.45,0.07145
993.304,0.06928
970.159,0.07045
947.014,0.06861
923.869,0.06413
900.724,0.05919
877.579,0.05468
854.434,0.05873
831.289,0.07476
808.144,0.07194
784.999,0.06496
761.854,0.05841
738.709,0.06810
715.565,0.06151
692.42,0.06400
669.275,0.06621
646.13,0.06017
622.985,0.05988
599.84,0.05911