File: 01_Data/Rug_Pad/FTIR/IS/Rug_Pad_IS_S_220908_R2.dpt
7497.03,0.50112
7473.89,0.49317
7450.74,0.50224
7427.6,0.49889
7404.45,0.50629
7381.31,0.49624
7358.16,0.49683
7335.02,0.49374
7311.87,0.48932
7288.73,0.48604
7265.58,0.48823
7242.44,0.47552
7219.29,0.48097
7196.15,0.47687
7173,0.47278
7149.86,0.47842
7126.71,0.47325
7103.57,0.47356
7080.42,0.46507
7057.28,0.46669
7034.13,0.46807
7010.99,0.46601
6987.84,0.47171
6964.7,0.46320
6941.55,0.46726
6918.41,0.46908
6895.26,0.47306
6872.12,0.47100
6848.97,0.47339
6825.83,0.47294
6802.68,0.47727
6779.54,0.47555
6756.39,0.48363
6733.25,0.47860
6710.1,0.47964
6686.96,0.48038
6663.82,0.48423
6640.67,0.48605
6617.53,0.48441
6594.38,0.49111
6571.24,0.49112
6548.09,0.48912
6524.95,0.49104
6501.8,0.49294
6478.66,0.49527
6455.51,0.49217
6432.37,0.49029
6409.22,0.49414
6386.08,0.49313
6362.93,0.49200
6339.79,0.49316
6316.64,0.49339
6293.5,0.49341
6270.35,0.49421
6247.21,0.49391
6224.06,0.49873
6200.92,0.49615
6177.77,0.49535
6154.63,0.49431
6131.48,0.48946
6108.34,0.48477
6085.19,0.48793
6062.05,0.48411
6038.9,0.48102
6015.76,0.47156
5992.61,0.46607
5969.47,0.45847
5946.32,0.44949
5923.18,0.43306
5900.03,0.40296
5876.89,0.38641
5853.74,0.37106
5830.6,0.34940
5807.45,0.35249
5784.31,0.36828
5761.16,0.38276
5738.02,0.38185
5714.87,0.38246
5691.73,0.37774
5668.58,0.38364
5645.44,0.39077
5622.29,0.38619
5599.15,0.40307
5576,0.42489
5552.86,0.43542
5529.71,0.44228
5506.57,0.44314
5483.42,0.44612
5460.28,0.44705
5437.13,0.44671
5413.99,0.44584
5390.84,0.44689
5367.7,0.44774
5344.55,0.44852
5321.41,0.44711
5298.26,0.44713
5275.12,0.44506
5251.97,0.43660
5228.83,0.43033
5205.68,0.42615
5182.54,0.42252
5159.39,0.42361
5136.25,0.42698
5113.1,0.42894
5089.96,0.43106
5066.81,0.43374
5043.67,0.43512
5020.52,0.43506
4997.38,0.43569
4974.23,0.43342
4951.09,0.43135
4927.94,0.42908
4904.8,0.42789
4881.65,0.42609
4858.51,0.42512
4835.36,0.42219
4812.22,0.42044
4789.07,0.41847
4765.93,0.41657
4742.78,0.41531
4719.64,0.40669
4696.49,0.39996
4673.35,0.40050
4650.2,0.39240
4627.06,0.38012
4603.92,0.38111
4580.77,0.38673
4557.63,0.39196
4534.48,0.38988
4511.34,0.38365
4488.19,0.38128
4465.05,0.37078
4441.9,0.34682
4418.76,0.30819
4395.61,0.27411
4372.47,0.25214
4349.32,0.23326
4326.18,0.22411
4303.03,0.23471
4279.89,0.23266
4256.74,0.23536
4233.6,0.24296
4210.45,0.25657
4187.31,0.26444
4164.16,0.26566
4141.02,0.27542
4117.87,0.28157
4094.73,0.27875
4071.58,0.26341
4048.44,0.26483
4025.29,0.27169
4002.15,0.27236
3979,0.27048
3955.86,0.26727
3932.71,0.27246
3909.57,0.28440
3886.42,0.29024
3863.28,0.30002
3840.13,0.30846
3816.99,0.31251
3793.84,0.31666
3770.7,0.31535
3747.55,0.31341
3724.41,0.30943
3701.26,0.29428
3678.12,0.25234
3654.97,0.21383
3631.83,0.17271
3608.68,0.13658
3585.54,0.11473
3562.39,0.09839
3539.25,0.08706
3516.1,0.07925
3492.96,0.07313
3469.81,0.06792
3446.67,0.06394
3423.52,0.06125
3400.38,0.05867
3377.23,0.05769
3354.09,0.05651
3330.94,0.05647
3307.8,0.05539
3284.65,0.05715
3261.51,0.05903
3238.36,0.06350
3215.22,0.06802
3192.07,0.07098
3168.93,0.07523
3145.78,0.07908
3122.64,0.08073
3099.49,0.08176
3076.35,0.07841
3053.2,0.07412
3030.06,0.06090
3006.91,0.05842
2983.77,0.04090
2960.62,0.02975
2937.48,0.02890
2914.33,0.03066
2891.19,0.03664
2868.04,0.03690
2844.9,0.03954
2821.75,0.07521
2798.61,0.09872
2775.46,0.11839
2752.32,0.12694
2729.17,0.11278
2706.03,0.13905
2682.88,0.14080
2659.74,0.14181
2636.59,0.12948
2613.45,0.12005
2590.3,0.11015
2567.16,0.10595
2544.02,0.09416
2520.87,0.07492
2497.73,0.09993
2474.58,0.15309
2451.44,0.18426
2428.29,0.20132
2405.15,0.21109
2382,0.22378
2358.86,0.22977
2335.71,0.23236
2312.57,0.23569
2289.42,0.23964
2266.28,0.23391
2243.13,0.19748
2219.99,0.22900
2196.84,0.22478
2173.7,0.21543
2150.55,0.20296
2127.41,0.21482
2104.26,0.22889
2081.12,0.22695
2057.97,0.22251
2034.83,0.21924
2011.68,0.22754
1988.54,0.23211
1965.39,0.22252
1942.25,0.22103
1919.1,0.22244
1895.96,0.20829
1872.81,0.19195
1849.67,0.17475
1826.52,0.11628
1803.38,0.07035
1780.23,0.09265
1757.09,0.07087
1733.94,0.04033
1710.8,0.04464
1687.65,0.04696
1664.51,0.03643
1641.36,0.03889
1618.22,0.04323
1595.07,0.04761
1571.93,0.05706
1548.78,0.05935
1525.64,0.06036
1502.49,0.05237
1479.35,0.04198
1456.2,0.03366
1433.06,0.03557
1409.91,0.03843
1386.77,0.03976
1363.62,0.04372
1340.48,0.05100
1317.33,0.05055
1294.19,0.05301
1271.04,0.05058
1247.9,0.04580
1224.75,0.04369
1201.61,0.04087
1178.46,0.03867
1155.32,0.03743
1132.17,0.03772
1109.03,0.04033
1085.88,0.03699
1062.74,0.04254
1039.59,0.04083
1016.45,0.04315
993.304,0.04617
970.159,0.04637
947.014,0.06191
923.869,0.06328
900.724,0.07000
877.579,0.03830
854.434,0.05369
831.289,0.04970
808.144,0.05714
784.999,0.06236
761.854,0.05108
738.709,0.04681
715.565,0.03269
692.42,0.05168
669.275,0.05083
646.13,0.04693
622.985,0.04220
599.84,0.03721