File: 01_Data/Rug_Pad/FTIR/IS/Rug_Pad_IS_S_220908_R5.dpt
7497.03,0.51141
7473.89,0.50812
7450.74,0.50582
7427.6,0.49231
7404.45,0.49949
7381.31,0.49829
7358.16,0.48784
7335.02,0.49195
7311.87,0.49142
7288.73,0.47409
7265.58,0.48596
7242.44,0.48055
7219.29,0.47639
7196.15,0.47421
7173,0.47183
7149.86,0.47041
7126.71,0.47533
7103.57,0.46910
7080.42,0.46566
7057.28,0.46125
7034.13,0.46565
7010.99,0.47291
6987.84,0.47528
6964.7,0.46847
6941.55,0.46634
6918.41,0.47298
6895.26,0.47570
6872.12,0.46805
6848.97,0.47528
6825.83,0.47243
6802.68,0.47831
6779.54,0.47967
6756.39,0.47474
6733.25,0.48764
6710.1,0.48180
6686.96,0.48534
6663.82,0.48244
6640.67,0.48703
6617.53,0.49025
6594.38,0.48953
6571.24,0.48991
6548.09,0.49363
6524.95,0.49054
6501.8,0.49524
6478.66,0.49079
6455.51,0.49361
6432.37,0.49815
6409.22,0.49266
6386.08,0.49344
6362.93,0.49435
6339.79,0.49491
6316.64,0.49145
6293.5,0.49382
6270.35,0.49430
6247.21,0.49396
6224.06,0.49549
6200.92,0.49442
6177.77,0.49359
6154.63,0.49676
6131.48,0.49258
6108.34,0.48795
6085.19,0.48698
6062.05,0.48245
6038.9,0.47952
6015.76,0.47229
5992.61,0.46819
5969.47,0.45739
5946.32,0.44750
5923.18,0.43347
5900.03,0.40569
5876.89,0.38877
5853.74,0.37165
5830.6,0.34888
5807.45,0.35358
5784.31,0.36766
5761.16,0.38222
5738.02,0.38255
5714.87,0.38083
5691.73,0.38185
5668.58,0.38380
5645.44,0.39238
5622.29,0.38530
5599.15,0.40179
5576,0.42468
5552.86,0.43626
5529.71,0.44055
5506.57,0.44467
5483.42,0.44649
5460.28,0.44538
5437.13,0.44823
5413.99,0.44613
5390.84,0.44641
5367.7,0.44872
5344.55,0.44970
5321.41,0.44763
5298.26,0.44934
5275.12,0.44735
5251.97,0.44031
5228.83,0.43661
5205.68,0.43223
5182.54,0.42901
5159.39,0.43089
5136.25,0.43225
5113.1,0.43458
5089.96,0.43523
5066.81,0.43722
5043.67,0.43724
5020.52,0.43827
4997.38,0.43849
4974.23,0.43677
4951.09,0.43369
4927.94,0.43135
4904.8,0.42825
4881.65,0.42656
4858.51,0.42531
4835.36,0.42288
4812.22,0.42128
4789.07,0.41883
4765.93,0.41751
4742.78,0.41419
4719.64,0.40742
4696.49,0.40154
4673.35,0.39944
4650.2,0.39330
4627.06,0.37965
4603.92,0.38194
4580.77,0.38637
4557.63,0.39381
4534.48,0.38986
4511.34,0.38323
4488.19,0.38110
4465.05,0.37051
4441.9,0.34657
4418.76,0.30888
4395.61,0.27352
4372.47,0.25186
4349.32,0.23217
4326.18,0.22424
4303.03,0.23395
4279.89,0.23328
4256.74,0.23501
4233.6,0.24293
4210.45,0.25691
4187.31,0.26506
4164.16,0.26448
4141.02,0.27628
4117.87,0.28291
4094.73,0.27931
4071.58,0.26436
4048.44,0.26614
4025.29,0.27233
4002.15,0.27308
3979,0.27086
3955.86,0.26795
3932.71,0.27263
3909.57,0.28569
3886.42,0.29222
3863.28,0.30125
3840.13,0.30986
3816.99,0.31426
3793.84,0.31836
3770.7,0.31693
3747.55,0.31698
3724.41,0.31332
3701.26,0.29883
3678.12,0.25899
3654.97,0.22272
3631.83,0.18235
3608.68,0.14454
3585.54,0.12157
3562.39,0.10335
3539.25,0.09121
3516.1,0.08272
3492.96,0.07574
3469.81,0.07058
3446.67,0.06629
3423.52,0.06238
3400.38,0.06055
3377.23,0.05930
3354.09,0.05719
3330.94,0.05713
3307.8,0.05670
3284.65,0.05737
3261.51,0.06173
3238.36,0.06597
3215.22,0.06895
3192.07,0.07246
3168.93,0.07669
3145.78,0.08054
3122.64,0.08346
3099.49,0.08290
3076.35,0.08005
3053.2,0.07563
3030.06,0.06164
3006.91,0.05900
2983.77,0.04130
2960.62,0.02958
2937.48,0.02900
2914.33,0.03074
2891.19,0.03617
2868.04,0.03696
2844.9,0.03976
2821.75,0.07524
2798.61,0.09948
2775.46,0.11891
2752.32,0.12782
2729.17,0.11358
2706.03,0.13947
2682.88,0.14200
2659.74,0.14209
2636.59,0.12996
2613.45,0.12018
2590.3,0.11077
2567.16,0.10630
2544.02,0.09392
2520.87,0.07440
2497.73,0.10019
2474.58,0.15370
2451.44,0.18500
2428.29,0.20221
2405.15,0.21200
2382,0.22480
2358.86,0.23176
2335.71,0.23347
2312.57,0.23726
2289.42,0.24171
2266.28,0.23575
2243.13,0.19934
2219.99,0.23119
2196.84,0.22724
2173.7,0.21744
2150.55,0.20508
2127.41,0.21712
2104.26,0.23189
2081.12,0.23009
2057.97,0.22570
2034.83,0.22130
2011.68,0.22991
1988.54,0.23407
1965.39,0.22443
1942.25,0.22248
1919.1,0.22444
1895.96,0.20953
1872.81,0.19303
1849.67,0.17559
1826.52,0.11650
1803.38,0.07040
1780.23,0.09303
1757.09,0.07056
1733.94,0.04011
1710.8,0.04447
1687.65,0.04739
1664.51,0.03710
1641.36,0.03950
1618.22,0.04373
1595.07,0.04774
1571.93,0.05743
1548.78,0.05958
1525.64,0.06070
1502.49,0.05229
1479.35,0.04208
1456.2,0.03434
1433.06,0.03558
1409.91,0.03842
1386.77,0.03931
1363.62,0.04365
1340.48,0.05104
1317.33,0.05088
1294.19,0.05317
1271.04,0.05066
1247.9,0.04510
1224.75,0.04352
1201.61,0.04053
1178.46,0.03916
1155.32,0.03758
1132.17,0.03778
1109.03,0.03973
1085.88,0.03679
1062.74,0.04239
1039.59,0.04053
1016.45,0.04295
993.304,0.04601
970.159,0.04671
947.014,0.06184
923.869,0.06313
900.724,0.07084
877.579,0.03831
854.434,0.05391
831.289,0.05005
808.144,0.05888
784.999,0.06424
761.854,0.05209
738.709,0.04805
715.565,0.03238
692.42,0.05376
669.275,0.05283
646.13,0.04873
622.985,0.04377
599.84,0.03622