File: 01_Data/Rug_Pad/FTIR/IS/Rug_Pad_IS_S_220908_R4.dpt
7497.03,0.50990
7473.89,0.49952
7450.74,0.50424
7427.6,0.49825
7404.45,0.50407
7381.31,0.49273
7358.16,0.48770
7335.02,0.48916
7311.87,0.47928
7288.73,0.48501
7265.58,0.48187
7242.44,0.47982
7219.29,0.47131
7196.15,0.47005
7173,0.46745
7149.86,0.47418
7126.71,0.47122
7103.57,0.47102
7080.42,0.47598
7057.28,0.46802
7034.13,0.46946
7010.99,0.47036
6987.84,0.47191
6964.7,0.47216
6941.55,0.47027
6918.41,0.46421
6895.26,0.47427
6872.12,0.47108
6848.97,0.46941
6825.83,0.47955
6802.68,0.47799
6779.54,0.47866
6756.39,0.48405
6733.25,0.47732
6710.1,0.48254
6686.96,0.48392
6663.82,0.48312
6640.67,0.49053
6617.53,0.48720
6594.38,0.49075
6571.24,0.49229
6548.09,0.49129
6524.95,0.49347
6501.8,0.49630
6478.66,0.49154
6455.51,0.48953
6432.37,0.49718
6409.22,0.49557
6386.08,0.49894
6362.93,0.49226
6339.79,0.49611
6316.64,0.49595
6293.5,0.49529
6270.35,0.49761
6247.21,0.49571
6224.06,0.49577
6200.92,0.49386
6177.77,0.49731
6154.63,0.49436
6131.48,0.49228
6108.34,0.48577
6085.19,0.48767
6062.05,0.48397
6038.9,0.48155
6015.76,0.47261
5992.61,0.46942
5969.47,0.45842
5946.32,0.45126
5923.18,0.43321
5900.03,0.40527
5876.89,0.38641
5853.74,0.37297
5830.6,0.34813
5807.45,0.35415
5784.31,0.36819
5761.16,0.38302
5738.02,0.38377
5714.87,0.37963
5691.73,0.38179
5668.58,0.38457
5645.44,0.39383
5622.29,0.38816
5599.15,0.40381
5576,0.42500
5552.86,0.43400
5529.71,0.44200
5506.57,0.44619
5483.42,0.44881
5460.28,0.44865
5437.13,0.44762
5413.99,0.44819
5390.84,0.44809
5367.7,0.44792
5344.55,0.44961
5321.41,0.44757
5298.26,0.44953
5275.12,0.44758
5251.97,0.44093
5228.83,0.43473
5205.68,0.43005
5182.54,0.42804
5159.39,0.42998
5136.25,0.43117
5113.1,0.43285
5089.96,0.43597
5066.81,0.43559
5043.67,0.43793
5020.52,0.43873
4997.38,0.43859
4974.23,0.43614
4951.09,0.43266
4927.94,0.43137
4904.8,0.42953
4881.65,0.42680
4858.51,0.42534
4835.36,0.42429
4812.22,0.42305
4789.07,0.41958
4765.93,0.41711
4742.78,0.41513
4719.64,0.40803
4696.49,0.40211
4673.35,0.40034
4650.2,0.39309
4627.06,0.38093
4603.92,0.38276
4580.77,0.38732
4557.63,0.39316
4534.48,0.38967
4511.34,0.38519
4488.19,0.38208
4465.05,0.37144
4441.9,0.34747
4418.76,0.30907
4395.61,0.27425
4372.47,0.25258
4349.32,0.23351
4326.18,0.22455
4303.03,0.23464
4279.89,0.23413
4256.74,0.23579
4233.6,0.24332
4210.45,0.25722
4187.31,0.26504
4164.16,0.26539
4141.02,0.27628
4117.87,0.28287
4094.73,0.27926
4071.58,0.26484
4048.44,0.26617
4025.29,0.27247
4002.15,0.27290
3979,0.27117
3955.86,0.26850
3932.71,0.27259
3909.57,0.28496
3886.42,0.29205
3863.28,0.30158
3840.13,0.30894
3816.99,0.31476
3793.84,0.31807
3770.7,0.31752
3747.55,0.31662
3724.41,0.31307
3701.26,0.29853
3678.12,0.25782
3654.97,0.22063
3631.83,0.17998
3608.68,0.14283
3585.54,0.11996
3562.39,0.10292
3539.25,0.08988
3516.1,0.08195
3492.96,0.07550
3469.81,0.06986
3446.67,0.06545
3423.52,0.06217
3400.38,0.05968
3377.23,0.05842
3354.09,0.05772
3330.94,0.05597
3307.8,0.05667
3284.65,0.05789
3261.51,0.06139
3238.36,0.06491
3215.22,0.06871
3192.07,0.07243
3168.93,0.07664
3145.78,0.08045
3122.64,0.08276
3099.49,0.08329
3076.35,0.07952
3053.2,0.07527
3030.06,0.06142
3006.91,0.05860
2983.77,0.04104
2960.62,0.02951
2937.48,0.02895
2914.33,0.03100
2891.19,0.03671
2868.04,0.03742
2844.9,0.03995
2821.75,0.07505
2798.61,0.09912
2775.46,0.11942
2752.32,0.12789
2729.17,0.11397
2706.03,0.13986
2682.88,0.14150
2659.74,0.14208
2636.59,0.12960
2613.45,0.12061
2590.3,0.11082
2567.16,0.10607
2544.02,0.09453
2520.87,0.07476
2497.73,0.10001
2474.58,0.15359
2451.44,0.18535
2428.29,0.20193
2405.15,0.21198
2382,0.22512
2358.86,0.23185
2335.71,0.23385
2312.57,0.23696
2289.42,0.24155
2266.28,0.23566
2243.13,0.19893
2219.99,0.23088
2196.84,0.22722
2173.7,0.21739
2150.55,0.20449
2127.41,0.21724
2104.26,0.23179
2081.12,0.23045
2057.97,0.22491
2034.83,0.22146
2011.68,0.22947
1988.54,0.23376
1965.39,0.22410
1942.25,0.22249
1919.1,0.22420
1895.96,0.20942
1872.81,0.19311
1849.67,0.17544
1826.52,0.11696
1803.38,0.07087
1780.23,0.09277
1757.09,0.07081
1733.94,0.04068
1710.8,0.04459
1687.65,0.04728
1664.51,0.03687
1641.36,0.03942
1618.22,0.04335
1595.07,0.04795
1571.93,0.05778
1548.78,0.05958
1525.64,0.06036
1502.49,0.05232
1479.35,0.04234
1456.2,0.03395
1433.06,0.03533
1409.91,0.03847
1386.77,0.03951
1363.62,0.04361
1340.48,0.05097
1317.33,0.05038
1294.19,0.05304
1271.04,0.05033
1247.9,0.04557
1224.75,0.04342
1201.61,0.04085
1178.46,0.03900
1155.32,0.03741
1132.17,0.03781
1109.03,0.03991
1085.88,0.03670
1062.74,0.04218
1039.59,0.04043
1016.45,0.04266
993.304,0.04614
970.159,0.04713
947.014,0.06172
923.869,0.06323
900.724,0.07076
877.579,0.03802
854.434,0.05403
831.289,0.04921
808.144,0.05752
784.999,0.06345
761.854,0.05186
738.709,0.04801
715.565,0.03295
692.42,0.05339
669.275,0.05219
646.13,0.04696
622.985,0.04255
599.84,0.03718