File: 01_Data/Rug_Pad/FTIR/IS/Rug_Pad_IS_S_220908_R7.dpt
7497.03,0.49824
7473.89,0.50598
7450.74,0.49800
7427.6,0.50768
7404.45,0.49347
7381.31,0.50794
7358.16,0.49482
7335.02,0.49470
7311.87,0.49219
7288.73,0.49363
7265.58,0.48290
7242.44,0.48485
7219.29,0.47665
7196.15,0.47555
7173,0.47459
7149.86,0.47684
7126.71,0.46586
7103.57,0.47161
7080.42,0.46327
7057.28,0.46881
7034.13,0.46275
7010.99,0.46917
6987.84,0.47434
6964.7,0.47156
6941.55,0.46829
6918.41,0.47415
6895.26,0.47600
6872.12,0.47611
6848.97,0.47914
6825.83,0.47875
6802.68,0.47762
6779.54,0.48418
6756.39,0.48027
6733.25,0.48021
6710.1,0.47962
6686.96,0.48716
6663.82,0.48944
6640.67,0.49124
6617.53,0.48908
6594.38,0.49056
6571.24,0.48950
6548.09,0.49324
6524.95,0.48853
6501.8,0.49484
6478.66,0.48985
6455.51,0.49330
6432.37,0.49503
6409.22,0.49217
6386.08,0.49424
6362.93,0.49309
6339.79,0.48939
6316.64,0.49413
6293.5,0.49136
6270.35,0.49694
6247.21,0.49590
6224.06,0.49449
6200.92,0.49529
6177.77,0.49450
6154.63,0.49611
6131.48,0.49300
6108.34,0.48824
6085.19,0.48500
6062.05,0.48164
6038.9,0.47876
6015.76,0.47214
5992.61,0.46676
5969.47,0.46084
5946.32,0.44821
5923.18,0.43177
5900.03,0.40382
5876.89,0.38686
5853.74,0.37077
5830.6,0.34840
5807.45,0.35307
5784.31,0.36724
5761.16,0.38052
5738.02,0.38154
5714.87,0.38034
5691.73,0.37866
5668.58,0.38425
5645.44,0.39012
5622.29,0.38529
5599.15,0.40308
5576,0.42499
5552.86,0.43572
5529.71,0.44310
5506.57,0.44507
5483.42,0.44735
5460.28,0.44702
5437.13,0.44762
5413.99,0.44818
5390.84,0.44821
5367.7,0.44725
5344.55,0.45001
5321.41,0.44938
5298.26,0.44867
5275.12,0.44866
5251.97,0.44224
5228.83,0.43863
5205.68,0.43520
5182.54,0.43332
5159.39,0.43248
5136.25,0.43484
5113.1,0.43587
5089.96,0.43720
5066.81,0.43931
5043.67,0.43980
5020.52,0.44018
4997.38,0.43926
4974.23,0.43736
4951.09,0.43448
4927.94,0.42999
4904.8,0.42890
4881.65,0.42663
4858.51,0.42497
4835.36,0.42291
4812.22,0.42261
4789.07,0.41923
4765.93,0.41688
4742.78,0.41402
4719.64,0.40739
4696.49,0.40159
4673.35,0.40075
4650.2,0.39349
4627.06,0.38115
4603.92,0.38192
4580.77,0.38732
4557.63,0.39297
4534.48,0.38891
4511.34,0.38412
4488.19,0.38168
4465.05,0.37037
4441.9,0.34659
4418.76,0.30906
4395.61,0.27387
4372.47,0.25125
4349.32,0.23277
4326.18,0.22406
4303.03,0.23427
4279.89,0.23358
4256.74,0.23443
4233.6,0.24298
4210.45,0.25656
4187.31,0.26470
4164.16,0.26553
4141.02,0.27599
4117.87,0.28256
4094.73,0.27936
4071.58,0.26361
4048.44,0.26597
4025.29,0.27268
4002.15,0.27299
3979,0.27119
3955.86,0.26800
3932.71,0.27275
3909.57,0.28547
3886.42,0.29201
3863.28,0.30157
3840.13,0.31007
3816.99,0.31475
3793.84,0.31917
3770.7,0.31795
3747.55,0.31848
3724.41,0.31464
3701.26,0.30002
3678.12,0.26059
3654.97,0.22577
3631.83,0.18597
3608.68,0.14734
3585.54,0.12394
3562.39,0.10504
3539.25,0.09323
3516.1,0.08425
3492.96,0.07736
3469.81,0.07136
3446.67,0.06735
3423.52,0.06366
3400.38,0.06082
3377.23,0.06014
3354.09,0.05799
3330.94,0.05749
3307.8,0.05728
3284.65,0.05848
3261.51,0.06253
3238.36,0.06605
3215.22,0.07035
3192.07,0.07375
3168.93,0.07828
3145.78,0.08193
3122.64,0.08320
3099.49,0.08444
3076.35,0.07990
3053.2,0.07609
3030.06,0.06154
3006.91,0.05900
2983.77,0.04121
2960.62,0.02985
2937.48,0.02919
2914.33,0.03082
2891.19,0.03690
2868.04,0.03732
2844.9,0.03965
2821.75,0.07563
2798.61,0.09992
2775.46,0.11949
2752.32,0.12839
2729.17,0.11385
2706.03,0.14022
2682.88,0.14133
2659.74,0.14233
2636.59,0.13017
2613.45,0.12005
2590.3,0.11069
2567.16,0.10607
2544.02,0.09444
2520.87,0.07486
2497.73,0.10040
2474.58,0.15407
2451.44,0.18511
2428.29,0.20256
2405.15,0.21213
2382,0.22522
2358.86,0.23199
2335.71,0.23368
2312.57,0.23758
2289.42,0.24242
2266.28,0.23668
2243.13,0.19955
2219.99,0.23259
2196.84,0.22865
2173.7,0.21868
2150.55,0.20540
2127.41,0.21836
2104.26,0.23319
2081.12,0.23138
2057.97,0.22614
2034.83,0.22247
2011.68,0.23046
1988.54,0.23473
1965.39,0.22488
1942.25,0.22344
1919.1,0.22469
1895.96,0.21012
1872.81,0.19331
1849.67,0.17576
1826.52,0.11719
1803.38,0.07051
1780.23,0.09303
1757.09,0.07079
1733.94,0.04027
1710.8,0.04448
1687.65,0.04707
1664.51,0.03710
1641.36,0.03944
1618.22,0.04352
1595.07,0.04788
1571.93,0.05800
1548.78,0.05951
1525.64,0.06048
1502.49,0.05267
1479.35,0.04187
1456.2,0.03356
1433.06,0.03556
1409.91,0.03834
1386.77,0.03932
1363.62,0.04379
1340.48,0.05082
1317.33,0.05032
1294.19,0.05291
1271.04,0.05028
1247.9,0.04536
1224.75,0.04330
1201.61,0.04072
1178.46,0.03916
1155.32,0.03767
1132.17,0.03733
1109.03,0.04000
1085.88,0.03618
1062.74,0.04250
1039.59,0.04092
1016.45,0.04325
993.304,0.04620
970.159,0.04641
947.014,0.06223
923.869,0.06333
900.724,0.07084
877.579,0.03790
854.434,0.05432
831.289,0.05036
808.144,0.05811
784.999,0.06472
761.854,0.05175
738.709,0.04766
715.565,0.03340
692.42,0.05343
669.275,0.05191
646.13,0.04764
622.985,0.04586
599.84,0.04000