File: 01_Data/Rug_Pad/FTIR/IS/Rug_Pad_IS_T_220908_R4.dpt
7497.03,0.02658
7473.89,0.03343
7450.74,0.03189
7427.6,0.02380
7404.45,0.02545
7381.31,0.02709
7358.16,0.01474
7335.02,0.02761
7311.87,0.02656
7288.73,0.02274
7265.58,0.02216
7242.44,0.01968
7219.29,0.02461
7196.15,0.02817
7173,0.02747
7149.86,0.02679
7126.71,0.02155
7103.57,0.03148
7080.42,0.02586
7057.28,0.02548
7034.13,0.02308
7010.99,0.02454
6987.84,0.02738
6964.7,0.02239
6941.55,0.01817
6918.41,0.02536
6895.26,0.01909
6872.12,0.02134
6848.97,0.02305
6825.83,0.02107
6802.68,0.02366
6779.54,0.02708
6756.39,0.02607
6733.25,0.02520
6710.1,0.02118
6686.96,0.02776
6663.82,0.02538
6640.67,0.02307
6617.53,0.02148
6594.38,0.01706
6571.24,0.02474
6548.09,0.02505
6524.95,0.01903
6501.8,0.02401
6478.66,0.02497
6455.51,0.02110
6432.37,0.01884
6409.22,0.02299
6386.08,0.02029
6362.93,0.02182
6339.79,0.02424
6316.64,0.02570
6293.5,0.02472
6270.35,0.02248
6247.21,0.02285
6224.06,0.02336
6200.92,0.02021
6177.77,0.02480
6154.63,0.02001
6131.48,0.02129
6108.34,0.02318
6085.19,0.02236
6062.05,0.02124
6038.9,0.02036
6015.76,0.02265
5992.61,0.02276
5969.47,0.02077
5946.32,0.02025
5923.18,0.02364
5900.03,0.01968
5876.89,0.02207
5853.74,0.02332
5830.6,0.02444
5807.45,0.02168
5784.31,0.02128
5761.16,0.02299
5738.02,0.02095
5714.87,0.02137
5691.73,0.02226
5668.58,0.02241
5645.44,0.02006
5622.29,0.01986
5599.15,0.02257
5576,0.02149
5552.86,0.02238
5529.71,0.02133
5506.57,0.02166
5483.42,0.02224
5460.28,0.02175
5437.13,0.02111
5413.99,0.02138
5390.84,0.02142
5367.7,0.02198
5344.55,0.02243
5321.41,0.02270
5298.26,0.02326
5275.12,0.02175
5251.97,0.02201
5228.83,0.02172
5205.68,0.02210
5182.54,0.02252
5159.39,0.02230
5136.25,0.02171
5113.1,0.02443
5089.96,0.02259
5066.81,0.02135
5043.67,0.02176
5020.52,0.02296
4997.38,0.02302
4974.23,0.02067
4951.09,0.02156
4927.94,0.02258
4904.8,0.02240
4881.65,0.02093
4858.51,0.02257
4835.36,0.02239
4812.22,0.02307
4789.07,0.02282
4765.93,0.02203
4742.78,0.02128
4719.64,0.02058
4696.49,0.02267
4673.35,0.02182
4650.2,0.02188
4627.06,0.02167
4603.92,0.02249
4580.77,0.02218
4557.63,0.02217
4534.48,0.02165
4511.34,0.02290
4488.19,0.02253
4465.05,0.02168
4441.9,0.02145
4418.76,0.02310
4395.61,0.02169
4372.47,0.02214
4349.32,0.02142
4326.18,0.02133
4303.03,0.02227
4279.89,0.02277
4256.74,0.02227
4233.6,0.02301
4210.45,0.02204
4187.31,0.02236
4164.16,0.02296
4141.02,0.02301
4117.87,0.02181
4094.73,0.02263
4071.58,0.02228
4048.44,0.02245
4025.29,0.02236
4002.15,0.02249
3979,0.02231
3955.86,0.02189
3932.71,0.02198
3909.57,0.02216
3886.42,0.02202
3863.28,0.02276
3840.13,0.02263
3816.99,0.02217
3793.84,0.02250
3770.7,0.02250
3747.55,0.02222
3724.41,0.02236
3701.26,0.02229
3678.12,0.02212
3654.97,0.02185
3631.83,0.02187
3608.68,0.02118
3585.54,0.02163
3562.39,0.02114
3539.25,0.02081
3516.1,0.02023
3492.96,0.02072
3469.81,0.02069
3446.67,0.02012
3423.52,0.02046
3400.38,0.01995
3377.23,0.01948
3354.09,0.02067
3330.94,0.02065
3307.8,0.02054
3284.65,0.02025
3261.51,0.02055
3238.36,0.02029
3215.22,0.02036
3192.07,0.02020
3168.93,0.02057
3145.78,0.02076
3122.64,0.02039
3099.49,0.02032
3076.35,0.02043
3053.2,0.02012
3030.06,0.02016
3006.91,0.02022
2983.77,0.01995
2960.62,0.01920
2937.48,0.01946
2914.33,0.01991
2891.19,0.01984
2868.04,0.02020
2844.9,0.02062
2821.75,0.02068
2798.61,0.02062
2775.46,0.02052
2752.32,0.02007
2729.17,0.02136
2706.03,0.02127
2682.88,0.02107
2659.74,0.02099
2636.59,0.02083
2613.45,0.02094
2590.3,0.02088
2567.16,0.02071
2544.02,0.02100
2520.87,0.02160
2497.73,0.02135
2474.58,0.02085
2451.44,0.02122
2428.29,0.02123
2405.15,0.02087
2382,0.02090
2358.86,0.02082
2335.71,0.02093
2312.57,0.02102
2289.42,0.02069
2266.28,0.02083
2243.13,0.02089
2219.99,0.02084
2196.84,0.02088
2173.7,0.02071
2150.55,0.02047
2127.41,0.02071
2104.26,0.02073
2081.12,0.02069
2057.97,0.02075
2034.83,0.02065
2011.68,0.02054
1988.54,0.02038
1965.39,0.02041
1942.25,0.02056
1919.1,0.02026
1895.96,0.02031
1872.81,0.02023
1849.67,0.01972
1826.52,0.01975
1803.38,0.01930
1780.23,0.01868
1757.09,0.01733
1733.94,0.01945
1710.8,0.02040
1687.65,0.01932
1664.51,0.01843
1641.36,0.01828
1618.22,0.01867
1595.07,0.01868
1571.93,0.01829
1548.78,0.01799
1525.64,0.01846
1502.49,0.01865
1479.35,0.01805
1456.2,0.01845
1433.06,0.01877
1409.91,0.01811
1386.77,0.01794
1363.62,0.01811
1340.48,0.01762
1317.33,0.01687
1294.19,0.01746
1271.04,0.01928
1247.9,0.02001
1224.75,0.01934
1201.61,0.01808
1178.46,0.01810
1155.32,0.01748
1132.17,0.01752
1109.03,0.01876
1085.88,0.01753
1062.74,0.01929
1039.59,0.01946
1016.45,0.01955
993.304,0.02135
970.159,0.01978
947.014,0.01982
923.869,0.01918
900.724,0.01871
877.579,0.01916
854.434,0.01916
831.289,0.01862
808.144,0.01918
784.999,0.01935
761.854,0.01801
738.709,0.01835
715.565,0.01750
692.42,0.01830
669.275,0.01763
646.13,0.01708
622.985,0.01553
599.84,0.01314