File: 01_Data/Rug_Pad/FTIR/IS/Rug_Pad_IS_S_220908_R6.dpt
7497.03,0.50480
7473.89,0.50987
7450.74,0.49623
7427.6,0.49843
7404.45,0.50207
7381.31,0.50114
7358.16,0.49468
7335.02,0.49080
7311.87,0.48530
7288.73,0.47879
7265.58,0.48252
7242.44,0.47998
7219.29,0.47997
7196.15,0.47057
7173,0.47191
7149.86,0.46906
7126.71,0.47141
7103.57,0.48104
7080.42,0.47280
7057.28,0.46582
7034.13,0.46792
7010.99,0.46393
6987.84,0.46702
6964.7,0.46749
6941.55,0.46752
6918.41,0.47074
6895.26,0.47636
6872.12,0.47266
6848.97,0.47027
6825.83,0.47783
6802.68,0.47775
6779.54,0.48159
6756.39,0.47913
6733.25,0.48518
6710.1,0.48042
6686.96,0.48146
6663.82,0.49146
6640.67,0.48934
6617.53,0.48713
6594.38,0.49007
6571.24,0.48912
6548.09,0.49362
6524.95,0.49237
6501.8,0.49049
6478.66,0.49315
6455.51,0.49339
6432.37,0.49588
6409.22,0.49274
6386.08,0.49595
6362.93,0.48895
6339.79,0.49279
6316.64,0.49969
6293.5,0.49600
6270.35,0.49595
6247.21,0.49581
6224.06,0.49673
6200.92,0.49561
6177.77,0.50022
6154.63,0.49519
6131.48,0.49434
6108.34,0.48379
6085.19,0.48688
6062.05,0.48288
6038.9,0.47692
6015.76,0.47355
5992.61,0.46647
5969.47,0.45930
5946.32,0.44775
5923.18,0.43424
5900.03,0.40371
5876.89,0.38674
5853.74,0.37185
5830.6,0.34938
5807.45,0.35328
5784.31,0.36929
5761.16,0.38063
5738.02,0.38308
5714.87,0.38070
5691.73,0.37953
5668.58,0.38281
5645.44,0.38925
5622.29,0.38663
5599.15,0.40259
5576,0.42453
5552.86,0.43524
5529.71,0.44053
5506.57,0.44644
5483.42,0.44508
5460.28,0.44744
5437.13,0.44727
5413.99,0.44816
5390.84,0.44715
5367.7,0.44909
5344.55,0.44830
5321.41,0.44465
5298.26,0.44983
5275.12,0.44691
5251.97,0.44309
5228.83,0.43713
5205.68,0.43239
5182.54,0.43121
5159.39,0.43140
5136.25,0.43226
5113.1,0.43440
5089.96,0.43695
5066.81,0.43715
5043.67,0.43887
5020.52,0.43840
4997.38,0.43944
4974.23,0.43676
4951.09,0.43284
4927.94,0.42975
4904.8,0.43008
4881.65,0.42657
4858.51,0.42500
4835.36,0.42373
4812.22,0.42102
4789.07,0.41804
4765.93,0.41589
4742.78,0.41396
4719.64,0.40755
4696.49,0.40159
4673.35,0.39973
4650.2,0.39296
4627.06,0.38070
4603.92,0.38180
4580.77,0.38696
4557.63,0.39193
4534.48,0.38808
4511.34,0.38318
4488.19,0.38124
4465.05,0.36995
4441.9,0.34662
4418.76,0.30883
4395.61,0.27357
4372.47,0.25232
4349.32,0.23325
4326.18,0.22424
4303.03,0.23353
4279.89,0.23288
4256.74,0.23508
4233.6,0.24280
4210.45,0.25644
4187.31,0.26389
4164.16,0.26511
4141.02,0.27646
4117.87,0.28323
4094.73,0.27924
4071.58,0.26372
4048.44,0.26531
4025.29,0.27213
4002.15,0.27276
3979,0.27036
3955.86,0.26736
3932.71,0.27175
3909.57,0.28551
3886.42,0.29227
3863.28,0.30086
3840.13,0.30968
3816.99,0.31400
3793.84,0.31889
3770.7,0.31789
3747.55,0.31684
3724.41,0.31395
3701.26,0.29937
3678.12,0.26066
3654.97,0.22495
3631.83,0.18442
3608.68,0.14551
3585.54,0.12249
3562.39,0.10451
3539.25,0.09242
3516.1,0.08335
3492.96,0.07658
3469.81,0.07075
3446.67,0.06586
3423.52,0.06302
3400.38,0.06144
3377.23,0.05963
3354.09,0.05797
3330.94,0.05709
3307.8,0.05712
3284.65,0.05858
3261.51,0.06134
3238.36,0.06665
3215.22,0.06950
3192.07,0.07345
3168.93,0.07777
3145.78,0.08099
3122.64,0.08377
3099.49,0.08362
3076.35,0.08029
3053.2,0.07613
3030.06,0.06156
3006.91,0.05873
2983.77,0.04114
2960.62,0.02975
2937.48,0.02889
2914.33,0.03082
2891.19,0.03621
2868.04,0.03733
2844.9,0.03935
2821.75,0.07537
2798.61,0.09918
2775.46,0.11905
2752.32,0.12818
2729.17,0.11335
2706.03,0.14004
2682.88,0.14176
2659.74,0.14215
2636.59,0.13030
2613.45,0.12037
2590.3,0.11035
2567.16,0.10643
2544.02,0.09420
2520.87,0.07462
2497.73,0.09975
2474.58,0.15366
2451.44,0.18507
2428.29,0.20204
2405.15,0.21169
2382,0.22426
2358.86,0.23122
2335.71,0.23404
2312.57,0.23695
2289.42,0.24199
2266.28,0.23625
2243.13,0.19945
2219.99,0.23199
2196.84,0.22777
2173.7,0.21806
2150.55,0.20546
2127.41,0.21768
2104.26,0.23245
2081.12,0.23078
2057.97,0.22580
2034.83,0.22206
2011.68,0.23013
1988.54,0.23415
1965.39,0.22451
1942.25,0.22250
1919.1,0.22403
1895.96,0.20980
1872.81,0.19300
1849.67,0.17544
1826.52,0.11681
1803.38,0.07069
1780.23,0.09281
1757.09,0.07067
1733.94,0.04012
1710.8,0.04471
1687.65,0.04702
1664.51,0.03712
1641.36,0.03913
1618.22,0.04369
1595.07,0.04760
1571.93,0.05744
1548.78,0.05965
1525.64,0.06036
1502.49,0.05233
1479.35,0.04195
1456.2,0.03415
1433.06,0.03546
1409.91,0.03880
1386.77,0.03960
1363.62,0.04333
1340.48,0.05104
1317.33,0.05073
1294.19,0.05328
1271.04,0.05044
1247.9,0.04518
1224.75,0.04355
1201.61,0.04066
1178.46,0.03901
1155.32,0.03707
1132.17,0.03750
1109.03,0.04016
1085.88,0.03740
1062.74,0.04245
1039.59,0.04037
1016.45,0.04287
993.304,0.04610
970.159,0.04697
947.014,0.06188
923.869,0.06365
900.724,0.07099
877.579,0.03866
854.434,0.05418
831.289,0.05001
808.144,0.05835
784.999,0.06413
761.854,0.05195
738.709,0.04849
715.565,0.03379
692.42,0.05302
669.275,0.05260
646.13,0.04849
622.985,0.04463
599.84,0.03829