File: 01_Data/Rug_Pad/FTIR/IS/Rug_Pad_IS_S_220908_R1.dpt
7497.03,0.49964
7473.89,0.50906
7450.74,0.50177
7427.6,0.50162
7404.45,0.49913
7381.31,0.49600
7358.16,0.49315
7335.02,0.48573
7311.87,0.48287
7288.73,0.48210
7265.58,0.48470
7242.44,0.47752
7219.29,0.47352
7196.15,0.47069
7173,0.47727
7149.86,0.47460
7126.71,0.47819
7103.57,0.46718
7080.42,0.46971
7057.28,0.46860
7034.13,0.46273
7010.99,0.46101
6987.84,0.45935
6964.7,0.46331
6941.55,0.46676
6918.41,0.47199
6895.26,0.47538
6872.12,0.47191
6848.97,0.47078
6825.83,0.47118
6802.68,0.47381
6779.54,0.47644
6756.39,0.47948
6733.25,0.47661
6710.1,0.47795
6686.96,0.48105
6663.82,0.48000
6640.67,0.48040
6617.53,0.48529
6594.38,0.48581
6571.24,0.48717
6548.09,0.48736
6524.95,0.48952
6501.8,0.49079
6478.66,0.49134
6455.51,0.49232
6432.37,0.49239
6409.22,0.49306
6386.08,0.48991
6362.93,0.49166
6339.79,0.49006
6316.64,0.48793
6293.5,0.49393
6270.35,0.49343
6247.21,0.49432
6224.06,0.49274
6200.92,0.49546
6177.77,0.49366
6154.63,0.49136
6131.48,0.49017
6108.34,0.48393
6085.19,0.48478
6062.05,0.48076
6038.9,0.47859
6015.76,0.47023
5992.61,0.46672
5969.47,0.45632
5946.32,0.44587
5923.18,0.43405
5900.03,0.40158
5876.89,0.38332
5853.74,0.36943
5830.6,0.34530
5807.45,0.35276
5784.31,0.36574
5761.16,0.37881
5738.02,0.38125
5714.87,0.38033
5691.73,0.38042
5668.58,0.38367
5645.44,0.39135
5622.29,0.38524
5599.15,0.40086
5576,0.42209
5552.86,0.43441
5529.71,0.43998
5506.57,0.44179
5483.42,0.44542
5460.28,0.44583
5437.13,0.44432
5413.99,0.44545
5390.84,0.44511
5367.7,0.44786
5344.55,0.44592
5321.41,0.44384
5298.26,0.44358
5275.12,0.44184
5251.97,0.43437
5228.83,0.42586
5205.68,0.42139
5182.54,0.41761
5159.39,0.41957
5136.25,0.42023
5113.1,0.42352
5089.96,0.42613
5066.81,0.42909
5043.67,0.42955
5020.52,0.43052
4997.38,0.43230
4974.23,0.43118
4951.09,0.42937
4927.94,0.42570
4904.8,0.42646
4881.65,0.42430
4858.51,0.42170
4835.36,0.42041
4812.22,0.41931
4789.07,0.41521
4765.93,0.41392
4742.78,0.41217
4719.64,0.40456
4696.49,0.40016
4673.35,0.39756
4650.2,0.39099
4627.06,0.37789
4603.92,0.37981
4580.77,0.38455
4557.63,0.39040
4534.48,0.38738
4511.34,0.38180
4488.19,0.37998
4465.05,0.36851
4441.9,0.34498
4418.76,0.30741
4395.61,0.27243
4372.47,0.25030
4349.32,0.23218
4326.18,0.22306
4303.03,0.23280
4279.89,0.23238
4256.74,0.23396
4233.6,0.24232
4210.45,0.25597
4187.31,0.26282
4164.16,0.26379
4141.02,0.27429
4117.87,0.28071
4094.73,0.27685
4071.58,0.26197
4048.44,0.26377
4025.29,0.26999
4002.15,0.27076
3979,0.26850
3955.86,0.26647
3932.71,0.27038
3909.57,0.28233
3886.42,0.28906
3863.28,0.29798
3840.13,0.30632
3816.99,0.31077
3793.84,0.31468
3770.7,0.31194
3747.55,0.31100
3724.41,0.30676
3701.26,0.28974
3678.12,0.24669
3654.97,0.20663
3631.83,0.16576
3608.68,0.13069
3585.54,0.11086
3562.39,0.09487
3539.25,0.08466
3516.1,0.07630
3492.96,0.07115
3469.81,0.06591
3446.67,0.06219
3423.52,0.05869
3400.38,0.05790
3377.23,0.05607
3354.09,0.05515
3330.94,0.05440
3307.8,0.05451
3284.65,0.05633
3261.51,0.05889
3238.36,0.06297
3215.22,0.06701
3192.07,0.06996
3168.93,0.07416
3145.78,0.07738
3122.64,0.07972
3099.49,0.08005
3076.35,0.07707
3053.2,0.07362
3030.06,0.06022
3006.91,0.05814
2983.77,0.04043
2960.62,0.02958
2937.48,0.02898
2914.33,0.03064
2891.19,0.03630
2868.04,0.03671
2844.9,0.03932
2821.75,0.07463
2798.61,0.09783
2775.46,0.11719
2752.32,0.12597
2729.17,0.11242
2706.03,0.13803
2682.88,0.13967
2659.74,0.14038
2636.59,0.12869
2613.45,0.11948
2590.3,0.10960
2567.16,0.10477
2544.02,0.09337
2520.87,0.07401
2497.73,0.09960
2474.58,0.15230
2451.44,0.18317
2428.29,0.20034
2405.15,0.20970
2382,0.22174
2358.86,0.23046
2335.71,0.23203
2312.57,0.23374
2289.42,0.23723
2266.28,0.23103
2243.13,0.19553
2219.99,0.22623
2196.84,0.22224
2173.7,0.21232
2150.55,0.20014
2127.41,0.21229
2104.26,0.22605
2081.12,0.22413
2057.97,0.21985
2034.83,0.21661
2011.68,0.22504
1988.54,0.22945
1965.39,0.22042
1942.25,0.21881
1919.1,0.22053
1895.96,0.20636
1872.81,0.19028
1849.67,0.17320
1826.52,0.11594
1803.38,0.07007
1780.23,0.09228
1757.09,0.07068
1733.94,0.03992
1710.8,0.04397
1687.65,0.04683
1664.51,0.03622
1641.36,0.03868
1618.22,0.04270
1595.07,0.04759
1571.93,0.05700
1548.78,0.05902
1525.64,0.06042
1502.49,0.05226
1479.35,0.04181
1456.2,0.03403
1433.06,0.03515
1409.91,0.03852
1386.77,0.03922
1363.62,0.04374
1340.48,0.05069
1317.33,0.05037
1294.19,0.05264
1271.04,0.05034
1247.9,0.04502
1224.75,0.04331
1201.61,0.04114
1178.46,0.03872
1155.32,0.03752
1132.17,0.03748
1109.03,0.03980
1085.88,0.03658
1062.74,0.04266
1039.59,0.04034
1016.45,0.04288
993.304,0.04629
970.159,0.04663
947.014,0.06109
923.869,0.06286
900.724,0.06914
877.579,0.03798
854.434,0.05365
831.289,0.04919
808.144,0.05640
784.999,0.06181
761.854,0.05061
738.709,0.04693
715.565,0.03279
692.42,0.05205
669.275,0.05037
646.13,0.04743
622.985,0.04380
599.84,0.03613