File: 01_Data/Rug_Pad/FTIR/IS/Rug_Pad_IS_S_220908_R8.dpt
7497.03,0.49005
7473.89,0.50897
7450.74,0.50435
7427.6,0.49652
7404.45,0.50447
7381.31,0.50290
7358.16,0.49462
7335.02,0.49314
7311.87,0.49228
7288.73,0.48646
7265.58,0.47728
7242.44,0.47550
7219.29,0.47765
7196.15,0.47588
7173,0.47277
7149.86,0.46864
7126.71,0.47620
7103.57,0.47342
7080.42,0.47057
7057.28,0.46037
7034.13,0.46896
7010.99,0.46793
6987.84,0.46768
6964.7,0.46575
6941.55,0.47050
6918.41,0.46609
6895.26,0.47193
6872.12,0.47887
6848.97,0.47418
6825.83,0.47892
6802.68,0.48018
6779.54,0.47654
6756.39,0.47737
6733.25,0.47717
6710.1,0.48245
6686.96,0.48432
6663.82,0.49163
6640.67,0.48698
6617.53,0.49056
6594.38,0.48890
6571.24,0.49081
6548.09,0.49165
6524.95,0.49446
6501.8,0.49050
6478.66,0.49604
6455.51,0.49762
6432.37,0.49556
6409.22,0.49566
6386.08,0.49191
6362.93,0.49612
6339.79,0.49307
6316.64,0.49433
6293.5,0.49459
6270.35,0.49605
6247.21,0.49395
6224.06,0.49505
6200.92,0.49633
6177.77,0.49757
6154.63,0.49618
6131.48,0.49225
6108.34,0.48588
6085.19,0.48771
6062.05,0.48328
6038.9,0.47897
6015.76,0.47210
5992.61,0.46585
5969.47,0.45853
5946.32,0.44637
5923.18,0.43486
5900.03,0.40442
5876.89,0.38783
5853.74,0.36964
5830.6,0.34642
5807.45,0.35220
5784.31,0.36876
5761.16,0.38112
5738.02,0.38409
5714.87,0.37967
5691.73,0.37935
5668.58,0.38538
5645.44,0.39254
5622.29,0.38668
5599.15,0.40201
5576,0.42446
5552.86,0.43606
5529.71,0.44187
5506.57,0.44577
5483.42,0.44763
5460.28,0.44970
5437.13,0.44743
5413.99,0.44735
5390.84,0.44750
5367.7,0.44664
5344.55,0.44880
5321.41,0.44640
5298.26,0.44877
5275.12,0.44850
5251.97,0.44263
5228.83,0.43836
5205.68,0.43557
5182.54,0.43360
5159.39,0.43380
5136.25,0.43530
5113.1,0.43676
5089.96,0.43850
5066.81,0.43938
5043.67,0.43886
5020.52,0.43977
4997.38,0.43985
4974.23,0.43720
4951.09,0.43469
4927.94,0.43032
4904.8,0.42930
4881.65,0.42710
4858.51,0.42601
4835.36,0.42316
4812.22,0.42097
4789.07,0.41992
4765.93,0.41648
4742.78,0.41465
4719.64,0.40860
4696.49,0.40257
4673.35,0.40012
4650.2,0.39313
4627.06,0.38096
4603.92,0.38191
4580.77,0.38733
4557.63,0.39320
4534.48,0.38943
4511.34,0.38388
4488.19,0.38140
4465.05,0.37058
4441.9,0.34639
4418.76,0.30840
4395.61,0.27305
4372.47,0.25126
4349.32,0.23313
4326.18,0.22393
4303.03,0.23422
4279.89,0.23307
4256.74,0.23440
4233.6,0.24295
4210.45,0.25656
4187.31,0.26495
4164.16,0.26561
4141.02,0.27650
4117.87,0.28260
4094.73,0.27969
4071.58,0.26423
4048.44,0.26613
4025.29,0.27240
4002.15,0.27324
3979,0.27117
3955.86,0.26887
3932.71,0.27273
3909.57,0.28607
3886.42,0.29179
3863.28,0.30170
3840.13,0.31021
3816.99,0.31518
3793.84,0.31971
3770.7,0.31841
3747.55,0.31759
3724.41,0.31474
3701.26,0.30146
3678.12,0.26195
3654.97,0.22677
3631.83,0.18765
3608.68,0.14820
3585.54,0.12448
3562.39,0.10656
3539.25,0.09344
3516.1,0.08455
3492.96,0.07750
3469.81,0.07146
3446.67,0.06676
3423.52,0.06349
3400.38,0.06151
3377.23,0.05926
3354.09,0.05871
3330.94,0.05787
3307.8,0.05778
3284.65,0.05911
3261.51,0.06177
3238.36,0.06657
3215.22,0.06989
3192.07,0.07365
3168.93,0.07771
3145.78,0.08150
3122.64,0.08453
3099.49,0.08441
3076.35,0.08045
3053.2,0.07675
3030.06,0.06175
3006.91,0.05930
2983.77,0.04151
2960.62,0.02979
2937.48,0.02915
2914.33,0.03107
2891.19,0.03682
2868.04,0.03714
2844.9,0.03935
2821.75,0.07533
2798.61,0.09957
2775.46,0.11966
2752.32,0.12838
2729.17,0.11339
2706.03,0.14040
2682.88,0.14223
2659.74,0.14264
2636.59,0.13027
2613.45,0.12035
2590.3,0.11108
2567.16,0.10620
2544.02,0.09444
2520.87,0.07481
2497.73,0.10036
2474.58,0.15386
2451.44,0.18575
2428.29,0.20207
2405.15,0.21178
2382,0.22492
2358.86,0.23223
2335.71,0.23442
2312.57,0.23752
2289.42,0.24269
2266.28,0.23741
2243.13,0.20014
2219.99,0.23276
2196.84,0.22872
2173.7,0.21879
2150.55,0.20586
2127.41,0.21867
2104.26,0.23368
2081.12,0.23202
2057.97,0.22689
2034.83,0.22221
2011.68,0.23100
1988.54,0.23497
1965.39,0.22533
1942.25,0.22316
1919.1,0.22503
1895.96,0.21019
1872.81,0.19345
1849.67,0.17568
1826.52,0.11678
1803.38,0.07055
1780.23,0.09301
1757.09,0.07074
1733.94,0.03994
1710.8,0.04478
1687.65,0.04722
1664.51,0.03717
1641.36,0.03951
1618.22,0.04408
1595.07,0.04744
1571.93,0.05740
1548.78,0.05987
1525.64,0.06087
1502.49,0.05249
1479.35,0.04208
1456.2,0.03393
1433.06,0.03564
1409.91,0.03843
1386.77,0.03922
1363.62,0.04376
1340.48,0.05110
1317.33,0.05067
1294.19,0.05265
1271.04,0.05030
1247.9,0.04545
1224.75,0.04373
1201.61,0.04137
1178.46,0.03931
1155.32,0.03785
1132.17,0.03770
1109.03,0.04037
1085.88,0.03728
1062.74,0.04223
1039.59,0.04008
1016.45,0.04243
993.304,0.04606
970.159,0.04706
947.014,0.06204
923.869,0.06340
900.724,0.07059
877.579,0.03813
854.434,0.05381
831.289,0.04962
808.144,0.05826
784.999,0.06464
761.854,0.05255
738.709,0.04823
715.565,0.03302
692.42,0.05342
669.275,0.05213
646.13,0.04940
622.985,0.04254
599.84,0.03945