File: 01_Data/Rug_Pad/FTIR/IS/Rug_Pad_IS_S_220908_R3.dpt
7497.03,0.49724
7473.89,0.50496
7450.74,0.49604
7427.6,0.50126
7404.45,0.49110
7381.31,0.50309
7358.16,0.48147
7335.02,0.49086
7311.87,0.48150
7288.73,0.47521
7265.58,0.48341
7242.44,0.47496
7219.29,0.47833
7196.15,0.46897
7173,0.47609
7149.86,0.47073
7126.71,0.46965
7103.57,0.47058
7080.42,0.46592
7057.28,0.46092
7034.13,0.46279
7010.99,0.47095
6987.84,0.47012
6964.7,0.47032
6941.55,0.46737
6918.41,0.47231
6895.26,0.46847
6872.12,0.47154
6848.97,0.47257
6825.83,0.47788
6802.68,0.47955
6779.54,0.47733
6756.39,0.48289
6733.25,0.47947
6710.1,0.48369
6686.96,0.48416
6663.82,0.48769
6640.67,0.48689
6617.53,0.48739
6594.38,0.48961
6571.24,0.48975
6548.09,0.49568
6524.95,0.48803
6501.8,0.49588
6478.66,0.49044
6455.51,0.49139
6432.37,0.49179
6409.22,0.49627
6386.08,0.48900
6362.93,0.49158
6339.79,0.49375
6316.64,0.49106
6293.5,0.49275
6270.35,0.49848
6247.21,0.49281
6224.06,0.49375
6200.92,0.49338
6177.77,0.49578
6154.63,0.49493
6131.48,0.49081
6108.34,0.48772
6085.19,0.48634
6062.05,0.48360
6038.9,0.48031
6015.76,0.47192
5992.61,0.46815
5969.47,0.45855
5946.32,0.44755
5923.18,0.43529
5900.03,0.40329
5876.89,0.38371
5853.74,0.37302
5830.6,0.34778
5807.45,0.35345
5784.31,0.36619
5761.16,0.38142
5738.02,0.38017
5714.87,0.37792
5691.73,0.38095
5668.58,0.38380
5645.44,0.39091
5622.29,0.38682
5599.15,0.40202
5576,0.42379
5552.86,0.43486
5529.71,0.44190
5506.57,0.44462
5483.42,0.44627
5460.28,0.44713
5437.13,0.44750
5413.99,0.44790
5390.84,0.44699
5367.7,0.44829
5344.55,0.44826
5321.41,0.44575
5298.26,0.44805
5275.12,0.44580
5251.97,0.43844
5228.83,0.43335
5205.68,0.42845
5182.54,0.42702
5159.39,0.42646
5136.25,0.42793
5113.1,0.43037
5089.96,0.43192
5066.81,0.43350
5043.67,0.43590
5020.52,0.43607
4997.38,0.43696
4974.23,0.43546
4951.09,0.43161
4927.94,0.42938
4904.8,0.42804
4881.65,0.42629
4858.51,0.42352
4835.36,0.42252
4812.22,0.42028
4789.07,0.41771
4765.93,0.41687
4742.78,0.41438
4719.64,0.40735
4696.49,0.40141
4673.35,0.39958
4650.2,0.39301
4627.06,0.38138
4603.92,0.38108
4580.77,0.38617
4557.63,0.39200
4534.48,0.38882
4511.34,0.38398
4488.19,0.38068
4465.05,0.37052
4441.9,0.34587
4418.76,0.30899
4395.61,0.27370
4372.47,0.25253
4349.32,0.23296
4326.18,0.22353
4303.03,0.23456
4279.89,0.23339
4256.74,0.23465
4233.6,0.24286
4210.45,0.25657
4187.31,0.26431
4164.16,0.26508
4141.02,0.27546
4117.87,0.28248
4094.73,0.27900
4071.58,0.26324
4048.44,0.26513
4025.29,0.27172
4002.15,0.27211
3979,0.27067
3955.86,0.26682
3932.71,0.27165
3909.57,0.28510
3886.42,0.29125
3863.28,0.29971
3840.13,0.30820
3816.99,0.31361
3793.84,0.31717
3770.7,0.31589
3747.55,0.31475
3724.41,0.31106
3701.26,0.29657
3678.12,0.25566
3654.97,0.21782
3631.83,0.17636
3608.68,0.14000
3585.54,0.11730
3562.39,0.10079
3539.25,0.08898
3516.1,0.08036
3492.96,0.07388
3469.81,0.06864
3446.67,0.06490
3423.52,0.06237
3400.38,0.05982
3377.23,0.05795
3354.09,0.05713
3330.94,0.05648
3307.8,0.05592
3284.65,0.05704
3261.51,0.06073
3238.36,0.06498
3215.22,0.06791
3192.07,0.07250
3168.93,0.07603
3145.78,0.07974
3122.64,0.08179
3099.49,0.08215
3076.35,0.07919
3053.2,0.07498
3030.06,0.06118
3006.91,0.05914
2983.77,0.04067
2960.62,0.02992
2937.48,0.02909
2914.33,0.03011
2891.19,0.03685
2868.04,0.03690
2844.9,0.03934
2821.75,0.07521
2798.61,0.09867
2775.46,0.11857
2752.32,0.12734
2729.17,0.11366
2706.03,0.13963
2682.88,0.14125
2659.74,0.14211
2636.59,0.13003
2613.45,0.12027
2590.3,0.11093
2567.16,0.10580
2544.02,0.09432
2520.87,0.07423
2497.73,0.10009
2474.58,0.15333
2451.44,0.18482
2428.29,0.20165
2405.15,0.21122
2382,0.22392
2358.86,0.23098
2335.71,0.23255
2312.57,0.23584
2289.42,0.24057
2266.28,0.23470
2243.13,0.19829
2219.99,0.23014
2196.84,0.22578
2173.7,0.21616
2150.55,0.20357
2127.41,0.21573
2104.26,0.23021
2081.12,0.22813
2057.97,0.22372
2034.83,0.21977
2011.68,0.22843
1988.54,0.23231
1965.39,0.22348
1942.25,0.22127
1919.1,0.22339
1895.96,0.20893
1872.81,0.19219
1849.67,0.17486
1826.52,0.11647
1803.38,0.07043
1780.23,0.09263
1757.09,0.07036
1733.94,0.04039
1710.8,0.04433
1687.65,0.04716
1664.51,0.03640
1641.36,0.03890
1618.22,0.04358
1595.07,0.04766
1571.93,0.05767
1548.78,0.05923
1525.64,0.06058
1502.49,0.05200
1479.35,0.04199
1456.2,0.03396
1433.06,0.03559
1409.91,0.03847
1386.77,0.03910
1363.62,0.04352
1340.48,0.05096
1317.33,0.05036
1294.19,0.05293
1271.04,0.05049
1247.9,0.04546
1224.75,0.04384
1201.61,0.04081
1178.46,0.03883
1155.32,0.03711
1132.17,0.03746
1109.03,0.03995
1085.88,0.03669
1062.74,0.04216
1039.59,0.03993
1016.45,0.04230
993.304,0.04624
970.159,0.04678
947.014,0.06193
923.869,0.06307
900.724,0.07054
877.579,0.03789
854.434,0.05409
831.289,0.04967
808.144,0.05828
784.999,0.06402
761.854,0.05127
738.709,0.04667
715.565,0.03295
692.42,0.05248
669.275,0.05154
646.13,0.04697
622.985,0.04188
599.84,0.03552