File: 01_Data/OSB/Cone/OSB_HRRPUA_25.csv
Time after Ignition,OSB_R1,OSB_R2,OSB_R3,Mean,Std. Dev.
0.0,11.8,13.0,11.3,12.0,0.9
3.25,56.1,48.7,58.0,54.3,4.9
6.5,127.9,102.2,125.9,118.7,14.3
9.75,177.0,143.7,177.0,165.9,19.2
13.0,205.1,170.8,204.2,193.4,19.5
16.25,214.8,183.9,225.5,208.1,21.6
19.5,222.9,188.4,237.1,216.2,25.0
22.75,219.0,197.0,246.5,220.8,24.8
26.0,221.5,202.1,248.8,224.1,23.5
29.25,217.4,202.6,250.4,223.5,24.5
32.5,216.9,203.4,248.2,222.8,23.0
35.75,215.9,201.3,250.3,222.5,25.2
39.0,210.2,196.2,238.6,215.0,21.6
42.25,210.8,188.8,231.0,210.2,21.1
45.5,206.9,183.2,227.4,205.8,22.1
48.75,212.2,185.3,221.8,206.4,18.9
52.0,207.1,184.1,219.3,203.5,17.9
55.25,204.6,181.6,212.1,199.4,15.9
58.5,200.8,175.1,217.0,197.6,21.1
61.75,193.6,172.5,215.7,193.9,21.6
65.0,194.8,169.5,211.3,191.9,21.1
68.25,194.9,164.7,206.3,188.7,21.5
71.5,189.8,160.7,208.5,186.3,24.1
74.75,184.0,160.6,202.9,182.5,21.2
78.0,183.1,154.3,195.6,177.6,21.2
81.25,179.1,154.1,193.2,175.5,19.8
84.5,181.7,152.4,182.9,172.4,17.3
87.75,182.8,149.1,184.1,172.0,19.8
91.0,173.6,150.7,179.6,168.0,15.3
94.25,170.1,146.7,174.2,163.7,14.8
97.5,165.6,144.3,169.9,159.9,13.7
100.75,160.0,143.7,168.2,157.3,12.5
104.0,158.9,141.0,164.6,154.9,12.3
107.25,156.6,140.5,163.6,153.6,11.8
110.5,153.1,136.4,163.0,150.8,13.5
113.75,157.0,132.7,158.8,149.5,14.6
117.0,154.4,135.1,152.3,147.3,10.6
120.25,150.8,131.9,151.8,144.8,11.2
123.5,152.1,130.6,151.4,144.7,12.2
126.75,147.7,125.0,146.9,139.9,12.9
130.0,147.5,125.1,142.5,138.4,11.8
133.25,145.2,124.5,146.4,138.7,12.3
136.5,144.0,124.3,142.9,137.1,11.1
139.75,138.4,121.6,142.3,134.1,11.0
143.0,134.1,119.0,135.6,129.5,9.2
146.25,130.7,118.9,135.7,128.4,8.6
149.5,132.5,117.6,134.6,128.3,9.3
152.75,130.8,116.0,133.7,126.8,9.5
156.0,130.4,114.3,134.4,126.4,10.6
159.25,126.4,112.1,134.8,124.4,11.5
162.5,125.1,112.5,131.9,123.2,9.8
165.75,124.7,110.9,128.9,121.5,9.4
169.0,123.2,111.8,129.0,121.3,8.7
172.25,123.9,109.1,126.5,119.9,9.4
175.5,118.8,106.0,127.3,117.4,10.7
178.75,116.9,107.2,125.7,116.6,9.2
182.0,117.1,104.9,123.8,115.3,9.6
185.25,116.9,104.1,121.5,114.2,9.0
188.5,114.5,102.7,122.7,113.3,10.1
191.75,110.6,99.6,120.2,110.1,10.3
195.0,111.1,98.9,118.9,109.6,10.1
198.25,109.5,99.2,118.7,109.1,9.8
201.5,111.7,97.2,116.3,108.4,9.9
204.75,111.2,96.8,117.4,108.5,10.5
208.0,111.3,96.1,114.1,107.2,9.7
211.25,112.8,96.8,116.2,108.6,10.4
214.5,112.6,94.4,116.6,107.9,11.8
217.75,110.0,93.3,113.2,105.5,10.7
221.0,111.2,93.0,113.1,105.8,11.1
224.25,110.1,93.4,111.0,104.8,9.9
227.5,109.2,92.1,111.0,104.1,10.4
230.75,108.7,90.7,110.5,103.3,10.9
234.0,109.8,88.9,108.9,102.5,11.8
237.25,105.3,88.6,108.6,100.8,10.7
240.5,106.1,89.0,109.6,101.6,11.0
243.75,106.0,89.3,107.3,100.9,10.0
247.0,107.8,90.0,105.5,101.1,9.7
250.25,105.7,88.5,107.5,100.6,10.5
253.5,102.9,87.1,105.4,98.5,9.9
256.75,104.7,88.5,106.7,100.0,10.0
260.0,105.1,88.6,105.9,99.9,9.8
263.25,104.6,85.8,105.5,98.6,11.1
266.5,103.5,85.1,106.2,98.3,11.5
269.75,103.3,84.8,102.7,97.0,10.5
273.0,103.2,84.4,101.8,96.5,10.5
276.25,101.7,85.8,102.7,96.8,9.5
279.5,101.0,84.9,101.9,95.9,9.6
282.75,100.9,84.5,102.5,96.0,10.0
286.0,101.4,83.4,100.9,95.2,10.3
289.25,99.8,82.1,100.3,94.1,10.3
292.5,99.7,81.9,97.9,93.2,9.8
295.75,100.2,79.5,100.0,93.2,11.9
299.0,98.5,79.5,97.7,91.9,10.8
302.25,97.9,79.3,98.3,91.8,10.9
305.5,98.4,77.7,98.3,91.5,11.9
308.75,98.6,77.0,96.3,90.7,11.9
312.0,98.2,77.4,95.5,90.4,11.3
315.25,99.3,77.5,97.4,91.4,12.1
318.5,95.7,76.6,96.1,89.5,11.1
321.75,96.6,74.6,95.3,88.8,12.3
325.0,95.7,74.7,96.6,89.0,12.4
328.25,97.8,74.1,95.9,89.3,13.2
331.5,95.2,73.0,95.8,88.0,13.0
334.75,96.0,74.5,97.0,89.2,12.7
338.0,96.5,74.1,97.0,89.2,13.1
341.25,95.6,73.0,96.5,88.4,13.3
344.5,93.5,73.5,94.5,87.2,11.9
347.75,93.9,74.5,95.5,88.0,11.7
351.0,95.9,72.4,93.8,87.3,13.0
354.25,93.3,72.4,95.3,87.0,12.7
357.5,92.4,72.5,95.8,86.9,12.6
360.75,94.0,72.0,96.3,87.4,13.4
364.0,93.1,72.0,97.2,87.5,13.5
367.25,92.8,70.5,96.4,86.6,14.0
370.5,94.3,69.9,96.1,86.8,14.6
373.75,93.5,70.4,95.8,86.6,14.0
377.0,91.4,70.3,94.4,85.4,13.1
380.25,92.8,69.6,95.1,85.8,14.1
383.5,91.3,70.8,96.0,86.0,13.4
386.75,93.6,70.5,94.6,86.2,13.6
390.0,92.1,69.1,96.1,85.8,14.5
393.25,91.2,67.6,95.2,84.7,14.9
396.5,91.5,68.8,95.5,85.2,14.4
399.75,92.8,67.5,94.0,84.8,15.0
403.0,91.8,67.5,93.7,84.3,14.6
406.25,92.6,67.7,93.9,84.7,14.7
409.5,91.7,67.2,93.9,84.3,14.8
412.75,92.4,67.5,94.8,84.9,15.1
416.0,90.5,67.8,94.6,84.3,14.4
419.25,92.6,67.7,96.0,85.4,15.5
422.5,93.8,66.8,94.5,85.1,15.8
425.75,91.8,66.7,94.4,84.3,15.3
429.0,92.5,66.7,96.6,85.3,16.2
432.25,92.4,65.8,95.9,84.7,16.4
435.5,92.4,64.8,95.3,84.2,16.8
438.75,92.2,64.4,92.9,83.2,16.3
442.0,92.1,64.4,92.7,83.1,16.2
445.25,93.9,63.8,93.7,83.8,17.3
448.5,92.5,63.6,95.5,83.9,17.6
451.75,93.5,64.2,94.9,84.2,17.4
455.0,91.8,65.0,93.3,83.4,15.9
458.25,91.7,64.6,96.3,84.2,17.2
461.5,93.2,65.5,96.7,85.1,17.1
464.75,93.6,65.2,96.6,85.1,17.4
468.0,92.1,65.8,97.1,85.0,16.8
471.25,91.1,65.9,98.9,85.3,17.2
474.5,92.0,65.9,97.8,85.2,17.0
477.75,91.6,66.6,97.9,85.4,16.6
481.0,93.8,66.2,97.6,85.9,17.2
484.25,95.0,65.0,99.5,86.5,18.8
487.5,92.7,65.5,99.4,85.9,18.0
490.75,94.2,66.0,98.3,86.2,17.6
494.0,94.4,64.6,99.7,86.2,18.9
497.25,95.9,65.7,100.9,87.5,19.0
500.5,93.9,66.5,102.9,87.8,19.0
503.75,96.6,65.5,101.5,87.9,19.5
507.0,97.5,65.3,102.7,88.5,20.3
510.25,97.1,66.9,102.7,88.9,19.2
513.5,98.0,66.5,103.6,89.3,20.0
516.75,97.0,66.6,103.2,88.9,19.6
520.0,98.0,65.6,102.9,88.8,20.2
523.25,98.8,66.3,102.0,89.0,19.8
526.5,102.2,66.8,103.2,90.7,20.7
529.75,103.2,65.0,105.2,91.1,22.7
533.0,104.3,65.7,104.5,91.5,22.3
536.25,104.8,66.0,105.5,92.1,22.6
539.5,102.3,64.0,105.7,90.7,23.2
542.75,104.1,63.3,106.6,91.4,24.3
546.0,106.5,63.4,107.0,92.3,25.0
549.25,106.6,64.5,106.7,92.6,24.3
552.5,107.3,65.6,105.4,92.8,23.5
555.75,107.2,65.0,109.7,94.0,25.1
559.0,109.8,65.6,111.9,95.8,26.1
562.25,109.5,65.2,112.3,95.7,26.4
565.5,112.7,66.1,113.5,97.4,27.1
568.75,111.0,66.0,112.2,96.4,26.3
572.0,114.7,66.3,112.1,97.7,27.2
575.25,115.7,67.2,116.6,99.8,28.3
578.5,115.1,67.2,114.6,99.0,27.5
581.75,116.2,67.6,116.2,100.0,28.1
585.0,117.6,67.1,119.9,101.5,29.8
588.25,120.5,67.1,119.8,102.5,30.7
591.5,119.9,70.2,121.8,104.0,29.3
594.75,120.8,70.4,122.6,104.6,29.6
598.0,122.8,70.4,127.0,106.7,31.6
601.25,123.0,69.2,126.7,106.3,32.2
604.5,125.3,70.4,127.0,107.6,32.2
607.75,123.0,70.3,128.5,107.3,32.2
611.0,127.8,69.9,131.2,109.6,34.4
614.25,127.0,71.2,131.4,109.9,33.6
617.5,131.4,68.4,132.9,110.9,36.8
620.75,133.5,68.9,135.0,112.5,37.7
624.0,134.0,70.0,137.9,113.9,38.1
627.25,137.7,71.4,139.9,116.3,38.9
630.5,137.6,71.0,138.1,115.6,38.6
633.75,138.6,69.9,139.3,115.9,39.9
637.0,140.2,70.9,138.7,116.6,39.6
640.25,144.5,71.5,141.5,119.2,41.3
643.5,143.7,70.7,140.4,118.2,41.2
646.75,146.0,71.7,144.2,120.6,42.4
650.0,146.0,71.7,145.1,120.9,42.6
653.25,151.1,74.4,147.9,124.4,43.4
656.5,153.0,74.8,143.6,123.8,42.7
659.75,151.3,74.2,147.2,124.2,43.4
663.0,157.3,74.2,147.2,126.2,45.3
666.25,158.0,75.3,148.5,127.3,45.3
669.5,158.9,74.2,149.6,127.6,46.4
672.75,161.2,75.6,151.2,129.3,46.8
676.0,164.3,75.4,150.4,130.0,47.8
679.25,166.6,75.3,149.3,130.4,48.5
682.5,168.4,76.8,154.3,133.2,49.3
685.75,168.7,76.4,154.1,133.1,49.6
689.0,171.9,77.4,154.6,134.7,50.3
692.25,175.7,78.4,155.7,136.6,51.4
695.5,178.1,78.7,155.9,137.6,52.2
698.75,179.6,79.5,158.6,139.2,52.8
702.0,179.8,78.0,159.2,139.0,53.8
705.25,183.2,77.9,161.0,140.7,55.5
708.5,182.2,79.0,161.6,140.9,54.6
711.75,187.6,78.8,163.3,143.2,57.1
715.0,188.3,81.1,160.9,143.4,55.7
718.25,191.4,81.7,162.4,145.2,56.8
721.5,187.8,82.1,162.3,144.1,55.2
724.75,190.1,82.9,164.4,145.8,55.9
728.0,192.0,84.6,163.9,146.9,55.7
731.25,193.5,86.0,166.1,148.5,55.8
734.5,193.0,85.9,170.5,149.8,56.5
737.75,192.4,87.2,164.2,147.9,54.4
741.0,198.0,86.9,165.9,150.3,57.2
744.25,192.1,86.9,167.3,148.8,55.0
747.5,196.5,87.5,164.9,149.6,56.1
750.75,196.0,88.3,166.0,150.1,55.5
754.0,197.5,91.6,166.7,151.9,54.5
757.25,199.0,93.1,168.2,153.4,54.5
760.5,203.3,94.7,169.5,155.8,55.6
763.75,201.9,96.2,167.8,155.3,54.0
767.0,206.2,95.4,169.4,157.0,56.4
770.25,205.7,98.9,171.6,158.7,54.6
773.5,206.3,97.0,170.9,158.1,55.8
776.75,209.9,99.4,172.3,160.6,56.2
780.0,210.3,100.7,167.9,159.6,55.3
783.25,212.6,103.1,171.2,162.3,55.3
786.5,219.0,105.0,174.1,166.0,57.4
789.75,215.0,105.2,172.7,164.3,55.4
793.0,217.8,108.8,173.4,166.6,54.8
796.25,217.4,109.5,174.6,167.2,54.4
799.5,217.4,112.8,176.3,168.9,52.7
802.75,216.1,111.5,175.0,167.5,52.7
806.0,214.9,113.5,174.0,167.4,51.0
809.25,207.9,113.6,176.9,166.1,48.0
812.5,205.9,115.4,171.7,164.3,45.7
815.75,203.8,117.4,172.5,164.6,43.7
819.0,197.6,117.8,174.4,163.3,41.1
822.25,194.0,120.4,173.7,162.7,38.0
825.5,182.1,121.3,170.5,158.0,32.3
828.75,181.5,123.1,172.1,158.9,31.4
832.0,179.8,124.0,173.4,159.1,30.5
835.25,172.3,125.0,172.1,156.5,27.3
838.5,163.2,126.3,174.5,154.7,25.2
841.75,163.6,131.5,168.2,154.4,20.0
845.0,157.7,133.3,169.3,153.4,18.4
848.25,157.7,135.0,166.7,153.1,16.4
851.5,154.6,135.8,163.3,151.2,14.1
854.75,146.3,136.5,161.1,148.0,12.4
858.0,135.3,139.6,159.1,144.7,12.7
861.25,128.2,143.2,155.7,142.4,13.8
864.5,123.1,143.3,150.7,139.0,14.3
867.75,118.2,143.1,143.5,134.9,14.5
871.0,114.0,152.2,139.3,135.1,19.4
874.25,108.6,148.5,134.4,130.5,20.2
877.5,104.9,149.3,133.2,129.1,22.5
880.75,99.4,150.9,134.4,128.3,26.3
884.0,94.6,151.7,131.5,125.9,29.0
887.25,89.8,157.8,131.0,126.2,34.2
890.5,85.8,155.1,122.1,121.0,34.7
893.75,80.0,157.4,116.6,118.0,38.7
897.0,75.7,163.1,105.5,114.8,44.5
900.25,78.0,159.3,96.6,111.3,42.6
903.5,75.5,164.4,93.4,111.1,47.0
906.75,72.2,163.0,85.8,107.0,49.0
910.0,72.1,170.2,82.6,108.3,53.9
913.25,69.4,167.5,78.9,105.3,54.1
916.5,66.1,175.1,73.2,104.8,61.0
919.75,66.4,172.7,67.5,102.2,61.1
923.0,66.4,174.5,67.4,102.8,62.1
926.25,65.5,178.7,66.4,103.5,65.1
929.5,64.7,179.4,66.2,103.4,65.8
932.75,62.6,181.8,65.9,103.4,67.9
936.0,61.5,185.6,64.2,103.7,70.9
936.5,61.7,185.7,63.7,103.7,71.0