File: 01_Data/OSB/Cone/OSB_HRRPUA_50.csv
Time after Ignition,OSB_R1,OSB_R2,OSB_R3,Mean,Std. Dev.
0.0,23.9,6.4,8.9,13.1,9.5
2.75,98.1,58.7,54.5,70.5,24.1
5.5,170.6,133.0,133.2,145.6,21.6
8.25,228.6,185.2,184.4,199.4,25.3
11.0,259.4,215.4,216.4,230.4,25.1
13.75,273.3,235.1,237.2,248.5,21.5
16.5,274.4,244.7,246.0,255.0,16.8
19.25,274.6,246.6,259.6,260.3,14.0
22.0,274.3,253.0,263.9,263.7,10.7
24.75,280.0,257.3,265.1,267.5,11.5
27.5,271.0,258.6,270.7,266.8,7.1
30.25,275.2,257.8,269.9,267.7,8.9
33.0,282.0,259.4,269.1,270.2,11.3
35.75,269.3,257.1,269.9,265.4,7.2
38.5,270.8,256.0,271.9,266.2,8.9
41.25,265.9,263.1,266.1,265.1,1.7
44.0,260.8,265.0,269.9,265.2,4.5
46.75,256.9,259.4,263.4,259.9,3.3
49.5,258.0,258.9,268.6,261.8,5.9
52.25,257.1,260.1,264.5,260.5,3.7
55.0,259.3,261.4,261.3,260.7,1.2
57.75,260.9,255.2,259.6,258.6,3.0
60.5,262.7,252.7,253.0,256.1,5.7
63.25,260.2,251.4,251.8,254.5,5.0
66.0,259.9,251.2,252.4,254.5,4.7
68.75,260.2,247.5,245.9,251.2,7.9
71.5,252.4,247.5,243.4,247.8,4.5
74.25,254.5,245.4,243.0,247.6,6.1
77.0,252.7,243.3,238.8,244.9,7.1
79.75,247.9,239.4,237.5,241.6,5.5
82.5,246.5,232.2,232.4,237.0,8.2
85.25,239.3,232.4,236.6,236.1,3.5
88.0,243.3,230.2,224.9,232.8,9.5
90.75,233.9,228.4,223.3,228.6,5.3
93.5,234.3,224.5,223.7,227.5,5.9
96.25,229.0,221.2,218.4,222.9,5.5
99.0,226.2,218.3,219.6,221.4,4.2
101.75,226.5,217.7,215.7,220.0,5.7
104.5,219.1,216.8,215.1,217.0,2.0
107.25,218.9,212.3,212.4,214.5,3.8
110.0,217.4,209.6,209.6,212.2,4.5
112.75,213.2,209.4,207.6,210.1,2.8
115.5,215.2,203.9,204.4,207.9,6.4
118.25,211.9,205.8,201.1,206.3,5.4
121.0,210.2,204.3,199.1,204.6,5.6
123.75,204.2,199.8,192.9,199.0,5.7
126.5,203.1,199.6,193.1,198.6,5.1
129.25,200.5,200.6,192.5,197.8,4.6
132.0,201.8,195.6,190.2,195.9,5.8
134.75,200.1,197.2,184.3,193.9,8.4
137.5,192.7,200.6,183.3,192.2,8.7
140.25,194.1,193.7,180.0,189.3,8.0
143.0,186.8,194.8,178.8,186.8,8.0
145.75,188.3,190.4,179.5,186.0,5.8
148.5,187.2,191.3,180.0,186.2,5.7
151.25,183.9,191.4,178.7,184.7,6.4
154.0,183.2,190.9,176.3,183.5,7.3
156.75,179.3,188.2,173.4,180.3,7.5
159.5,179.3,189.2,175.9,181.5,6.9
162.25,178.5,181.6,172.2,177.4,4.8
165.0,180.5,186.8,172.0,179.8,7.5
167.75,176.6,181.3,169.5,175.8,5.9
170.5,175.8,179.4,170.6,175.3,4.4
173.25,175.4,177.2,166.9,173.2,5.5
176.0,175.7,177.0,166.4,173.0,5.8
178.75,172.3,176.1,163.7,170.7,6.3
181.5,173.8,175.7,165.2,171.6,5.6
184.25,168.9,173.7,166.0,169.5,3.9
187.0,166.9,173.7,162.2,167.6,5.8
189.75,168.7,172.1,163.3,168.0,4.4
192.5,166.2,170.1,157.4,164.6,6.5
195.25,169.1,169.9,159.5,166.2,5.8
198.0,162.9,171.8,159.3,164.7,6.4
200.75,163.6,168.9,160.9,164.5,4.1
203.5,161.1,167.6,158.9,162.5,4.5
206.25,160.8,168.1,157.9,162.2,5.2
209.0,159.4,165.7,156.1,160.4,4.9
211.75,159.7,168.0,153.8,160.5,7.1
214.5,158.4,169.7,152.4,160.1,8.8
217.25,156.6,168.3,152.1,159.0,8.4
220.0,157.0,169.0,151.3,159.1,9.0
222.75,153.3,164.1,152.2,156.5,6.6
225.5,154.5,169.5,147.9,157.3,11.0
228.25,153.7,167.9,146.9,156.2,10.7
231.0,154.5,163.1,148.7,155.4,7.3
233.75,155.1,164.9,146.0,155.3,9.4
236.5,151.5,166.0,145.2,154.2,10.7
239.25,154.0,167.7,144.9,155.5,11.5
242.0,152.5,163.9,145.7,154.0,9.2
244.75,149.6,164.5,145.2,153.1,10.1
247.5,151.3,163.1,140.6,151.7,11.3
250.25,150.9,162.3,145.4,152.9,8.6
253.0,149.6,162.6,142.9,151.7,10.0
255.75,149.6,161.5,144.2,151.8,8.9
258.5,148.8,164.2,141.8,151.6,11.5
261.25,148.6,161.9,142.8,151.1,9.8
264.0,148.9,160.7,141.5,150.4,9.7
266.75,148.0,161.3,138.3,149.2,11.6
269.5,147.4,158.3,139.5,148.4,9.5
272.25,146.8,159.7,136.5,147.7,11.6
275.0,148.0,158.5,137.5,148.0,10.5
277.75,146.7,161.4,135.7,148.0,12.9
280.5,147.5,157.2,138.7,147.8,9.3
283.25,146.0,158.2,139.2,147.8,9.6
286.0,146.7,158.5,136.8,147.3,10.9
288.75,148.2,158.1,138.9,148.4,9.6
291.5,146.7,156.8,137.9,147.1,9.4
294.25,145.9,159.8,136.8,147.5,11.6
297.0,143.0,157.3,137.6,146.0,10.2
299.75,142.6,158.4,134.4,145.1,12.2
302.5,141.7,156.3,136.2,144.8,10.4
305.25,141.8,158.7,136.2,145.6,11.7
308.0,143.1,154.5,136.6,144.7,9.1
310.75,144.0,158.1,133.9,145.3,12.1
313.5,143.8,154.1,133.5,143.8,10.3
316.25,142.3,149.9,131.7,141.3,9.1
319.0,143.1,154.5,133.3,143.6,10.6
321.75,143.2,154.3,133.8,143.7,10.3
324.5,143.4,158.6,132.8,144.9,13.0
327.25,142.0,158.3,132.8,144.4,12.9
330.0,141.6,155.0,132.5,143.0,11.3
332.75,142.2,154.2,130.5,142.3,11.9
335.5,141.6,156.6,131.6,143.2,12.6
338.25,141.9,156.0,135.9,144.6,10.3
341.0,143.0,157.5,133.6,144.7,12.0
343.75,144.7,157.4,134.2,145.4,11.6
346.5,146.1,156.8,132.7,145.2,12.1
349.25,144.0,155.8,133.1,144.3,11.4
352.0,143.8,157.5,135.4,145.5,11.1
354.75,144.2,154.0,132.8,143.7,10.6
357.5,148.1,157.2,135.6,147.0,10.9
360.25,145.5,158.0,134.6,146.0,11.7
363.0,145.0,159.0,133.8,146.0,12.6
365.75,143.8,160.2,135.3,146.4,12.6
368.5,147.6,157.6,135.4,146.9,11.1
371.25,146.7,157.5,132.2,145.5,12.7
374.0,144.5,159.9,136.8,147.1,11.8
376.75,148.6,157.4,135.9,147.3,10.8
379.5,149.4,161.7,134.7,148.6,13.5
382.25,148.5,163.3,135.5,149.1,13.9
385.0,145.9,162.5,138.1,148.9,12.5
387.75,150.2,161.8,140.1,150.7,10.9
390.5,147.8,164.8,137.7,150.1,13.7
393.25,150.9,162.1,138.7,150.6,11.7
396.0,149.3,161.6,139.1,150.0,11.3
398.75,150.3,164.1,140.3,151.6,11.9
401.5,152.0,163.5,140.6,152.0,11.4
404.25,150.5,162.7,143.9,152.3,9.5
407.0,152.0,163.2,142.4,152.5,10.4
409.75,152.9,163.1,138.8,151.6,12.2
412.5,151.7,163.4,141.9,152.3,10.8
415.25,153.1,163.4,143.2,153.2,10.1
418.0,155.6,166.6,144.2,155.5,11.2
420.75,156.5,162.6,145.6,154.9,8.6
423.5,154.4,164.6,148.7,155.9,8.1
426.25,155.6,162.9,149.6,156.0,6.7
429.0,153.6,164.4,147.2,155.1,8.7
431.75,155.4,161.8,153.2,156.8,4.5
434.5,158.2,164.0,148.2,156.8,8.0
437.25,156.0,163.0,152.2,157.1,5.5
440.0,158.3,163.8,153.3,158.5,5.2
442.75,158.1,164.5,159.5,160.7,3.3
445.5,161.2,166.8,157.5,161.9,4.7
448.25,157.3,165.3,158.7,160.4,4.3
451.0,159.3,165.1,160.8,161.7,3.0
453.75,159.9,165.2,160.7,161.9,2.9
456.5,159.9,168.8,161.9,163.6,4.6
459.25,160.9,166.9,162.7,163.5,3.1
462.0,160.6,166.1,161.0,162.6,3.0
464.75,162.0,164.8,165.0,163.9,1.7
467.5,163.2,168.9,165.7,165.9,2.8
470.25,163.9,167.0,164.6,165.2,1.6
473.0,165.1,167.0,168.4,166.8,1.7
475.75,162.8,165.8,171.6,166.7,4.4
478.5,164.5,167.8,171.7,168.0,3.6
481.25,167.5,166.7,171.1,168.4,2.3
484.0,165.7,165.9,173.0,168.2,4.2
486.75,167.0,167.6,171.8,168.8,2.6
489.5,168.6,166.9,174.1,169.8,3.8
492.25,168.6,169.2,173.9,170.6,2.9
495.0,168.2,169.1,174.3,170.5,3.3
497.75,171.6,168.3,175.6,171.8,3.7
500.5,173.4,166.7,174.4,171.5,4.2
503.25,172.0,171.1,180.4,174.5,5.1
506.0,172.3,175.1,178.5,175.3,3.1
508.75,174.5,171.0,181.6,175.7,5.4
511.5,177.3,172.1,181.1,176.9,4.5
514.25,176.4,174.7,182.0,177.7,3.8
517.0,175.9,174.2,183.2,177.8,4.8
519.75,176.9,173.9,182.4,177.7,4.3
522.5,180.2,176.1,183.8,180.1,3.8
525.25,180.6,177.2,179.6,179.1,1.7
528.0,178.8,177.8,182.3,179.6,2.4
530.75,177.3,175.7,183.0,178.7,3.8
533.5,177.3,178.7,186.3,180.8,4.8
536.25,184.2,176.5,186.8,182.5,5.4
539.0,186.2,180.5,189.3,185.3,4.4
541.75,183.9,180.0,189.8,184.6,5.0
544.5,185.5,180.1,190.9,185.5,5.4
547.25,187.4,180.8,187.6,185.3,3.9
550.0,186.3,182.1,190.6,186.3,4.3
552.75,190.7,187.2,195.6,191.2,4.2
555.5,194.1,188.1,196.4,192.9,4.3
558.25,194.7,187.9,195.7,192.8,4.2
561.0,197.6,186.9,199.1,194.6,6.6
563.75,198.5,190.0,200.0,196.2,5.4
566.5,197.9,193.0,203.8,198.2,5.4
569.25,198.9,189.8,203.5,197.4,7.0
572.0,202.0,191.6,205.5,199.7,7.2
574.75,200.4,192.3,205.0,199.2,6.4
577.5,200.5,192.9,209.6,201.0,8.4
580.25,201.7,196.3,213.5,203.8,8.8
583.0,203.4,195.0,208.7,202.4,6.9
585.75,202.7,190.5,212.0,201.7,10.8
588.5,203.8,196.3,215.4,205.2,9.6
591.25,204.7,198.5,214.1,205.8,7.8
594.0,205.5,197.4,214.4,205.8,8.5
596.75,206.7,196.7,213.8,205.7,8.6
599.5,204.6,199.2,208.1,204.0,4.5
602.25,199.8,194.9,212.9,202.5,9.3
605.0,202.7,193.8,209.8,202.1,8.0
607.75,201.5,195.4,209.5,202.1,7.1
610.5,198.6,195.4,208.4,200.8,6.8
613.25,201.4,196.7,214.5,204.2,9.3
616.0,198.4,197.2,208.1,201.2,6.0
618.75,196.3,190.9,205.0,197.4,7.1
621.5,193.7,192.0,201.5,195.7,5.1
624.25,194.4,187.0,203.5,195.0,8.3
627.0,186.9,187.2,200.8,191.6,8.0
629.75,181.6,181.6,200.4,187.9,10.9
632.5,177.6,178.2,196.6,184.1,10.8
635.25,171.9,175.8,191.6,179.8,10.4
638.0,164.8,171.3,193.2,176.4,14.9
640.75,160.2,166.2,187.5,171.3,14.4
643.5,151.3,156.1,182.9,163.4,17.1
646.25,143.1,154.3,178.7,158.7,18.2
649.0,135.8,144.8,174.3,151.6,20.1
651.75,128.3,137.9,167.2,144.5,20.3
654.5,118.5,126.0,161.1,135.2,22.8
657.25,112.1,121.2,154.3,129.2,22.2
660.0,106.0,114.4,149.3,123.2,22.9
662.75,99.0,105.1,143.7,115.9,24.3
665.5,94.0,98.0,133.9,108.6,22.0
668.25,90.9,92.2,125.2,102.8,19.5
671.0,81.7,89.4,117.0,96.0,18.6
673.75,77.6,86.9,109.4,91.3,16.4
676.5,72.6,81.0,106.7,86.8,17.7
679.25,67.5,75.3,103.7,82.2,19.1
682.0,65.7,73.9,101.8,80.5,18.9
684.75,62.8,71.9,96.4,77.0,17.4
687.5,60.2,69.8,95.8,75.3,18.4
690.25,60.0,69.5,92.3,73.9,16.6
693.0,59.6,67.2,90.8,72.5,16.3
695.75,59.3,65.4,86.3,70.3,14.2
698.5,57.4,62.7,86.3,68.8,15.4
701.25,55.9,61.1,85.9,67.6,16.0
704.0,56.2,61.6,85.5,67.8,15.6
706.75,56.1,60.9,83.6,66.9,14.7
709.5,54.9,58.8,81.0,64.9,14.1
712.25,54.6,58.7,80.1,64.5,13.6
715.0,54.8,58.0,,56.4,2.3
717.75,54.1,57.9,,56.0,2.7
720.5,53.7,58.1,,55.9,3.1
723.25,53.4,58.6,,56.0,3.6
726.0,53.6,,,53.6,
728.75,53.5,,,53.5,
731.5,55.1,,,55.1,
734.25,56.1,,,56.1,
737.0,56.8,,,56.8,
739.75,55.0,,,55.0,
742.5,53.5,,,53.5,
745.25,53.4,,,53.4,
748.0,55.1,,,55.1,
750.75,55.4,,,55.4,
751.25,56.0,,,56.0,