File: 01_Data/PlasticA/FTIR/IS/PlasticA_IS_S_220906_R4.dpt
7497.03,0.71001
7473.89,0.71028
7450.74,0.70282
7427.6,0.69780
7404.45,0.69542
7381.31,0.69468
7358.16,0.69603
7335.02,0.68473
7311.87,0.67214
7288.73,0.65676
7265.58,0.64808
7242.44,0.62957
7219.29,0.63168
7196.15,0.62587
7173,0.61638
7149.86,0.61779
7126.71,0.60682
7103.57,0.59983
7080.42,0.59382
7057.28,0.60013
7034.13,0.60590
7010.99,0.60466
6987.84,0.60269
6964.7,0.61559
6941.55,0.61570
6918.41,0.62355
6895.26,0.63467
6872.12,0.63202
6848.97,0.63428
6825.83,0.63744
6802.68,0.64390
6779.54,0.64216
6756.39,0.64752
6733.25,0.64538
6710.1,0.64983
6686.96,0.65003
6663.82,0.65409
6640.67,0.65555
6617.53,0.65358
6594.38,0.65456
6571.24,0.65491
6548.09,0.65697
6524.95,0.65539
6501.8,0.65531
6478.66,0.65938
6455.51,0.66414
6432.37,0.65562
6409.22,0.65337
6386.08,0.65429
6362.93,0.64745
6339.79,0.64259
6316.64,0.64175
6293.5,0.64074
6270.35,0.63788
6247.21,0.62996
6224.06,0.61768
6200.92,0.60936
6177.77,0.58667
6154.63,0.54077
6131.48,0.47991
6108.34,0.44387
6085.19,0.46646
6062.05,0.47674
6038.9,0.43994
6015.76,0.35682
5992.61,0.30041
5969.47,0.27044
5946.32,0.26723
5923.18,0.28278
5900.03,0.28344
5876.89,0.29704
5853.74,0.29567
5830.6,0.29789
5807.45,0.29422
5784.31,0.30318
5761.16,0.33374
5738.02,0.33671
5714.87,0.31240
5691.73,0.30164
5668.58,0.30965
5645.44,0.32549
5622.29,0.34085
5599.15,0.34843
5576,0.35808
5552.86,0.36426
5529.71,0.36750
5506.57,0.37029
5483.42,0.37580
5460.28,0.37710
5437.13,0.37681
5413.99,0.37568
5390.84,0.37307
5367.7,0.37466
5344.55,0.38171
5321.41,0.38604
5298.26,0.38270
5275.12,0.36462
5251.97,0.34195
5228.83,0.35467
5205.68,0.37292
5182.54,0.37218
5159.39,0.36162
5136.25,0.35470
5113.1,0.37842
5089.96,0.38368
5066.81,0.38674
5043.67,0.38691
5020.52,0.38812
4997.38,0.38493
4974.23,0.37982
4951.09,0.37536
4927.94,0.37497
4904.8,0.37319
4881.65,0.36514
4858.51,0.36487
4835.36,0.36523
4812.22,0.36676
4789.07,0.35920
4765.93,0.33996
4742.78,0.32627
4719.64,0.27226
4696.49,0.25708
4673.35,0.17515
4650.2,0.19071
4627.06,0.16924
4603.92,0.16919
4580.77,0.18980
4557.63,0.21699
4534.48,0.23373
4511.34,0.22900
4488.19,0.21281
4465.05,0.21425
4441.9,0.19839
4418.76,0.18111
4395.61,0.15192
4372.47,0.12714
4349.32,0.11608
4326.18,0.11437
4303.03,0.11845
4279.89,0.11105
4256.74,0.10259
4233.6,0.10423
4210.45,0.10645
4187.31,0.11100
4164.16,0.11592
4141.02,0.11575
4117.87,0.11223
4094.73,0.10888
4071.58,0.09548
4048.44,0.08885
4025.29,0.09647
4002.15,0.11080
3979,0.11595
3955.86,0.11791
3932.71,0.11738
3909.57,0.11860
3886.42,0.12132
3863.28,0.12226
3840.13,0.12097
3816.99,0.11880
3793.84,0.12041
3770.7,0.12097
3747.55,0.12408
3724.41,0.11626
3701.26,0.10942
3678.12,0.09298
3654.97,0.08155
3631.83,0.08376
3608.68,0.08561
3585.54,0.08520
3562.39,0.08159
3539.25,0.07838
3516.1,0.08024
3492.96,0.08153
3469.81,0.08237
3446.67,0.08190
3423.52,0.08249
3400.38,0.08150
3377.23,0.08178
3354.09,0.08195
3330.94,0.07986
3307.8,0.06856
3284.65,0.07169
3261.51,0.07797
3238.36,0.07823
3215.22,0.07642
3192.07,0.07592
3168.93,0.07416
3145.78,0.07404
3122.64,0.07080
3099.49,0.06293
3076.35,0.06053
3053.2,0.06084
3030.06,0.05928
3006.91,0.05956
2983.77,0.05946
2960.62,0.05822
2937.48,0.05922
2914.33,0.06200
2891.19,0.06155
2868.04,0.06170
2844.9,0.06226
2821.75,0.06326
2798.61,0.06579
2775.46,0.06815
2752.32,0.06946
2729.17,0.06990
2706.03,0.06913
2682.88,0.06857
2659.74,0.06848
2636.59,0.06787
2613.45,0.06902
2590.3,0.06991
2567.16,0.06971
2544.02,0.06973
2520.87,0.06914
2497.73,0.06970
2474.58,0.07087
2451.44,0.07056
2428.29,0.07001
2405.15,0.06952
2382,0.06865
2358.86,0.06877
2335.71,0.06729
2312.57,0.06699
2289.42,0.06759
2266.28,0.06571
2243.13,0.05979
2219.99,0.06568
2196.84,0.06833
2173.7,0.06919
2150.55,0.06987
2127.41,0.06990
2104.26,0.06944
2081.12,0.06862
2057.97,0.06806
2034.83,0.06676
2011.68,0.06522
1988.54,0.06229
1965.39,0.06099
1942.25,0.06125
1919.1,0.06289
1895.96,0.06122
1872.81,0.06064
1849.67,0.06206
1826.52,0.06022
1803.38,0.05988
1780.23,0.06016
1757.09,0.05950
1733.94,0.06018
1710.8,0.06112
1687.65,0.06034
1664.51,0.06033
1641.36,0.05945
1618.22,0.06018
1595.07,0.05998
1571.93,0.06010
1548.78,0.05948
1525.64,0.05903
1502.49,0.05645
1479.35,0.05848
1456.2,0.05639
1433.06,0.06149
1409.91,0.06065
1386.77,0.05976
1363.62,0.05980
1340.48,0.05990
1317.33,0.05990
1294.19,0.05955
1271.04,0.06046
1247.9,0.06077
1224.75,0.05993
1201.61,0.06046
1178.46,0.06008
1155.32,0.05983
1132.17,0.05974
1109.03,0.05978
1085.88,0.05960
1062.74,0.06058
1039.59,0.05959
1016.45,0.06063
993.304,0.05893
970.159,0.05643
947.014,0.06128
923.869,0.05851
900.724,0.06095
877.579,0.05904
854.434,0.05787
831.289,0.05837
808.144,0.05558
784.999,0.05202
761.854,0.05533
738.709,0.05698
715.565,0.04779
692.42,0.07469
669.275,0.06443
646.13,0.06144
622.985,0.06057
599.84,0.05963