File: 01_Data/PlasticA/FTIR/IS/PlasticA_IS_S_220906_R8.dpt
7497.03,0.72094
7473.89,0.70832
7450.74,0.70120
7427.6,0.69359
7404.45,0.69131
7381.31,0.69087
7358.16,0.68899
7335.02,0.67948
7311.87,0.67115
7288.73,0.66229
7265.58,0.64382
7242.44,0.64584
7219.29,0.63172
7196.15,0.62654
7173,0.62157
7149.86,0.61821
7126.71,0.60181
7103.57,0.60419
7080.42,0.59510
7057.28,0.59677
7034.13,0.59719
7010.99,0.61015
6987.84,0.61159
6964.7,0.61875
6941.55,0.62387
6918.41,0.62846
6895.26,0.63056
6872.12,0.63858
6848.97,0.63891
6825.83,0.64096
6802.68,0.63962
6779.54,0.64798
6756.39,0.64218
6733.25,0.64135
6710.1,0.64876
6686.96,0.64823
6663.82,0.65812
6640.67,0.65653
6617.53,0.65051
6594.38,0.65715
6571.24,0.66176
6548.09,0.66047
6524.95,0.65567
6501.8,0.65931
6478.66,0.65744
6455.51,0.65943
6432.37,0.65902
6409.22,0.65811
6386.08,0.65477
6362.93,0.64894
6339.79,0.64440
6316.64,0.64381
6293.5,0.64314
6270.35,0.63456
6247.21,0.63032
6224.06,0.61790
6200.92,0.61022
6177.77,0.58580
6154.63,0.53713
6131.48,0.48226
6108.34,0.44194
6085.19,0.46456
6062.05,0.47694
6038.9,0.43948
6015.76,0.35709
5992.61,0.30430
5969.47,0.26783
5946.32,0.26548
5923.18,0.28327
5900.03,0.28447
5876.89,0.29609
5853.74,0.29672
5830.6,0.29705
5807.45,0.29413
5784.31,0.30508
5761.16,0.33404
5738.02,0.33864
5714.87,0.30905
5691.73,0.30200
5668.58,0.30883
5645.44,0.32461
5622.29,0.34116
5599.15,0.34874
5576,0.35936
5552.86,0.36561
5529.71,0.36849
5506.57,0.36839
5483.42,0.37759
5460.28,0.37631
5437.13,0.37655
5413.99,0.37801
5390.84,0.37306
5367.7,0.37554
5344.55,0.38468
5321.41,0.38787
5298.26,0.38471
5275.12,0.36630
5251.97,0.34622
5228.83,0.35742
5205.68,0.37233
5182.54,0.37304
5159.39,0.36218
5136.25,0.35575
5113.1,0.37902
5089.96,0.38697
5066.81,0.38803
5043.67,0.38806
5020.52,0.39033
4997.38,0.38473
4974.23,0.38059
4951.09,0.37628
4927.94,0.37627
4904.8,0.37536
4881.65,0.36478
4858.51,0.36561
4835.36,0.36560
4812.22,0.36715
4789.07,0.35850
4765.93,0.34130
4742.78,0.32652
4719.64,0.27314
4696.49,0.25646
4673.35,0.17533
4650.2,0.19047
4627.06,0.16927
4603.92,0.16945
4580.77,0.18902
4557.63,0.21767
4534.48,0.23526
4511.34,0.22950
4488.19,0.21370
4465.05,0.21502
4441.9,0.19943
4418.76,0.18113
4395.61,0.15181
4372.47,0.12787
4349.32,0.11493
4326.18,0.11441
4303.03,0.11768
4279.89,0.11166
4256.74,0.10247
4233.6,0.10387
4210.45,0.10596
4187.31,0.11167
4164.16,0.11568
4141.02,0.11611
4117.87,0.11306
4094.73,0.10880
4071.58,0.09513
4048.44,0.08922
4025.29,0.09577
4002.15,0.11054
3979,0.11555
3955.86,0.11833
3932.71,0.11731
3909.57,0.11836
3886.42,0.12205
3863.28,0.12254
3840.13,0.12094
3816.99,0.11838
3793.84,0.12017
3770.7,0.12248
3747.55,0.12297
3724.41,0.11695
3701.26,0.10990
3678.12,0.09524
3654.97,0.08326
3631.83,0.08458
3608.68,0.08703
3585.54,0.08657
3562.39,0.08179
3539.25,0.07964
3516.1,0.08073
3492.96,0.08206
3469.81,0.08303
3446.67,0.08305
3423.52,0.08212
3400.38,0.08164
3377.23,0.08202
3354.09,0.08138
3330.94,0.08087
3307.8,0.06875
3284.65,0.07165
3261.51,0.07758
3238.36,0.07811
3215.22,0.07666
3192.07,0.07490
3168.93,0.07476
3145.78,0.07394
3122.64,0.07032
3099.49,0.06357
3076.35,0.06074
3053.2,0.06073
3030.06,0.05910
3006.91,0.05911
2983.77,0.05945
2960.62,0.05877
2937.48,0.05910
2914.33,0.06225
2891.19,0.06221
2868.04,0.06196
2844.9,0.06255
2821.75,0.06370
2798.61,0.06583
2775.46,0.06769
2752.32,0.06954
2729.17,0.06957
2706.03,0.06913
2682.88,0.06850
2659.74,0.06847
2636.59,0.06836
2613.45,0.06947
2590.3,0.07007
2567.16,0.06962
2544.02,0.06965
2520.87,0.06883
2497.73,0.06962
2474.58,0.07099
2451.44,0.07062
2428.29,0.07019
2405.15,0.06952
2382,0.06873
2358.86,0.06849
2335.71,0.06668
2312.57,0.06680
2289.42,0.06759
2266.28,0.06566
2243.13,0.06001
2219.99,0.06597
2196.84,0.06793
2173.7,0.06944
2150.55,0.06979
2127.41,0.06996
2104.26,0.06967
2081.12,0.06902
2057.97,0.06800
2034.83,0.06711
2011.68,0.06544
1988.54,0.06252
1965.39,0.06150
1942.25,0.06138
1919.1,0.06267
1895.96,0.06086
1872.81,0.06080
1849.67,0.06226
1826.52,0.05993
1803.38,0.05981
1780.23,0.06020
1757.09,0.05923
1733.94,0.06000
1710.8,0.06098
1687.65,0.06024
1664.51,0.06041
1641.36,0.05933
1618.22,0.06016
1595.07,0.06071
1571.93,0.05982
1548.78,0.05897
1525.64,0.05889
1502.49,0.05672
1479.35,0.05873
1456.2,0.05555
1433.06,0.06128
1409.91,0.06046
1386.77,0.05988
1363.62,0.05985
1340.48,0.05999
1317.33,0.06007
1294.19,0.06013
1271.04,0.06026
1247.9,0.06029
1224.75,0.05995
1201.61,0.05990
1178.46,0.06061
1155.32,0.06020
1132.17,0.06045
1109.03,0.05968
1085.88,0.05927
1062.74,0.06004
1039.59,0.05992
1016.45,0.06102
993.304,0.05897
970.159,0.05671
947.014,0.06160
923.869,0.05924
900.724,0.06044
877.579,0.05862
854.434,0.05852
831.289,0.05797
808.144,0.05583
784.999,0.05227
761.854,0.05552
738.709,0.05757
715.565,0.04845
692.42,0.07509
669.275,0.06299
646.13,0.06045
622.985,0.05951
599.84,0.05932