File: 01_Data/PlasticA/FTIR/IS/PlasticA_IS_S_220906_R2.dpt
7497.03,0.70567
7473.89,0.71323
7450.74,0.71289
7427.6,0.70615
7404.45,0.69675
7381.31,0.69726
7358.16,0.69828
7335.02,0.68281
7311.87,0.66985
7288.73,0.66424
7265.58,0.65061
7242.44,0.65224
7219.29,0.64105
7196.15,0.63273
7173,0.62320
7149.86,0.62515
7126.71,0.60597
7103.57,0.60567
7080.42,0.60092
7057.28,0.60299
7034.13,0.59888
7010.99,0.61182
6987.84,0.61537
6964.7,0.61017
6941.55,0.61491
6918.41,0.62317
6895.26,0.62922
6872.12,0.63757
6848.97,0.64271
6825.83,0.63851
6802.68,0.64026
6779.54,0.64348
6756.39,0.64484
6733.25,0.64686
6710.1,0.65072
6686.96,0.64997
6663.82,0.65554
6640.67,0.65323
6617.53,0.65463
6594.38,0.66083
6571.24,0.65881
6548.09,0.66559
6524.95,0.65783
6501.8,0.66031
6478.66,0.65996
6455.51,0.65896
6432.37,0.65537
6409.22,0.65810
6386.08,0.65601
6362.93,0.65022
6339.79,0.64431
6316.64,0.64687
6293.5,0.64003
6270.35,0.63943
6247.21,0.62763
6224.06,0.62095
6200.92,0.61053
6177.77,0.58776
6154.63,0.53917
6131.48,0.48493
6108.34,0.44381
6085.19,0.46846
6062.05,0.47899
6038.9,0.43976
6015.76,0.36358
5992.61,0.30531
5969.47,0.26624
5946.32,0.26869
5923.18,0.28333
5900.03,0.28621
5876.89,0.29855
5853.74,0.29603
5830.6,0.29644
5807.45,0.29672
5784.31,0.30514
5761.16,0.33578
5738.02,0.34045
5714.87,0.31270
5691.73,0.30576
5668.58,0.30893
5645.44,0.32230
5622.29,0.34408
5599.15,0.34620
5576,0.35931
5552.86,0.36565
5529.71,0.36941
5506.57,0.36972
5483.42,0.37699
5460.28,0.37932
5437.13,0.37602
5413.99,0.37761
5390.84,0.37408
5367.7,0.37577
5344.55,0.38451
5321.41,0.38723
5298.26,0.38323
5275.12,0.36368
5251.97,0.34099
5228.83,0.35157
5205.68,0.37217
5182.54,0.37134
5159.39,0.36328
5136.25,0.35587
5113.1,0.37883
5089.96,0.38540
5066.81,0.38847
5043.67,0.38775
5020.52,0.38899
4997.38,0.38632
4974.23,0.38157
4951.09,0.37639
4927.94,0.37631
4904.8,0.37527
4881.65,0.36367
4858.51,0.36647
4835.36,0.36669
4812.22,0.36674
4789.07,0.36000
4765.93,0.34096
4742.78,0.32655
4719.64,0.27346
4696.49,0.25755
4673.35,0.17606
4650.2,0.19141
4627.06,0.16975
4603.92,0.16894
4580.77,0.18899
4557.63,0.21708
4534.48,0.23469
4511.34,0.22969
4488.19,0.21327
4465.05,0.21567
4441.9,0.19914
4418.76,0.18222
4395.61,0.15200
4372.47,0.12779
4349.32,0.11532
4326.18,0.11462
4303.03,0.11819
4279.89,0.11004
4256.74,0.10333
4233.6,0.10421
4210.45,0.10626
4187.31,0.11042
4164.16,0.11684
4141.02,0.11609
4117.87,0.11313
4094.73,0.10868
4071.58,0.09443
4048.44,0.08854
4025.29,0.09583
4002.15,0.11065
3979,0.11615
3955.86,0.11780
3932.71,0.11742
3909.57,0.11828
3886.42,0.12153
3863.28,0.12440
3840.13,0.12112
3816.99,0.11875
3793.84,0.12025
3770.7,0.12137
3747.55,0.12380
3724.41,0.11532
3701.26,0.10926
3678.12,0.09172
3654.97,0.08060
3631.83,0.08157
3608.68,0.08485
3585.54,0.08405
3562.39,0.07933
3539.25,0.07735
3516.1,0.07844
3492.96,0.08101
3469.81,0.08074
3446.67,0.08185
3423.52,0.08174
3400.38,0.08082
3377.23,0.08155
3354.09,0.08170
3330.94,0.07984
3307.8,0.06914
3284.65,0.07154
3261.51,0.07732
3238.36,0.07785
3215.22,0.07662
3192.07,0.07579
3168.93,0.07441
3145.78,0.07417
3122.64,0.07031
3099.49,0.06362
3076.35,0.06022
3053.2,0.06099
3030.06,0.05985
3006.91,0.05975
2983.77,0.05968
2960.62,0.05854
2937.48,0.05912
2914.33,0.06283
2891.19,0.06163
2868.04,0.06198
2844.9,0.06269
2821.75,0.06362
2798.61,0.06624
2775.46,0.06777
2752.32,0.06980
2729.17,0.06947
2706.03,0.06951
2682.88,0.06946
2659.74,0.06914
2636.59,0.06827
2613.45,0.06918
2590.3,0.06983
2567.16,0.07004
2544.02,0.06963
2520.87,0.06882
2497.73,0.06981
2474.58,0.07099
2451.44,0.07094
2428.29,0.07052
2405.15,0.06970
2382,0.06903
2358.86,0.06996
2335.71,0.06750
2312.57,0.06686
2289.42,0.06764
2266.28,0.06568
2243.13,0.06037
2219.99,0.06595
2196.84,0.06812
2173.7,0.06956
2150.55,0.07021
2127.41,0.06959
2104.26,0.06972
2081.12,0.06897
2057.97,0.06824
2034.83,0.06701
2011.68,0.06574
1988.54,0.06263
1965.39,0.06110
1942.25,0.06143
1919.1,0.06272
1895.96,0.06107
1872.81,0.06091
1849.67,0.06201
1826.52,0.06025
1803.38,0.06030
1780.23,0.06053
1757.09,0.05977
1733.94,0.06053
1710.8,0.06117
1687.65,0.06068
1664.51,0.06066
1641.36,0.05978
1618.22,0.06062
1595.07,0.06059
1571.93,0.05997
1548.78,0.05937
1525.64,0.05972
1502.49,0.05675
1479.35,0.05879
1456.2,0.05622
1433.06,0.06197
1409.91,0.06068
1386.77,0.06037
1363.62,0.06007
1340.48,0.06008
1317.33,0.06027
1294.19,0.06023
1271.04,0.06039
1247.9,0.06063
1224.75,0.05991
1201.61,0.06020
1178.46,0.06057
1155.32,0.05998
1132.17,0.06037
1109.03,0.05954
1085.88,0.06001
1062.74,0.06007
1039.59,0.06039
1016.45,0.06087
993.304,0.05955
970.159,0.05693
947.014,0.06152
923.869,0.05889
900.724,0.06014
877.579,0.06000
854.434,0.05868
831.289,0.05744
808.144,0.05604
784.999,0.05281
761.854,0.05609
738.709,0.05729
715.565,0.04862
692.42,0.07484
669.275,0.06309
646.13,0.06285
622.985,0.05961
599.84,0.06050