File: 01_Data/PlasticA/FTIR/IS/PlasticA_IS_S_220906_R3.dpt
7497.03,0.70626
7473.89,0.71839
7450.74,0.69438
7427.6,0.70407
7404.45,0.69957
7381.31,0.69984
7358.16,0.69029
7335.02,0.67852
7311.87,0.68160
7288.73,0.65872
7265.58,0.65652
7242.44,0.65232
7219.29,0.64428
7196.15,0.63183
7173,0.62587
7149.86,0.62421
7126.71,0.60414
7103.57,0.61353
7080.42,0.60300
7057.28,0.60399
7034.13,0.60880
7010.99,0.60988
6987.84,0.61595
6964.7,0.61851
6941.55,0.62215
6918.41,0.63064
6895.26,0.62671
6872.12,0.63429
6848.97,0.63812
6825.83,0.63676
6802.68,0.63356
6779.54,0.64305
6756.39,0.64242
6733.25,0.64837
6710.1,0.64715
6686.96,0.65042
6663.82,0.65614
6640.67,0.65530
6617.53,0.65200
6594.38,0.65940
6571.24,0.66030
6548.09,0.65938
6524.95,0.65791
6501.8,0.65592
6478.66,0.65507
6455.51,0.66080
6432.37,0.65818
6409.22,0.66095
6386.08,0.65414
6362.93,0.64410
6339.79,0.64794
6316.64,0.64366
6293.5,0.64027
6270.35,0.64038
6247.21,0.63074
6224.06,0.61923
6200.92,0.60715
6177.77,0.58380
6154.63,0.53884
6131.48,0.48270
6108.34,0.44493
6085.19,0.46319
6062.05,0.47746
6038.9,0.44045
6015.76,0.35781
5992.61,0.29999
5969.47,0.26834
5946.32,0.26990
5923.18,0.28330
5900.03,0.28515
5876.89,0.29870
5853.74,0.29850
5830.6,0.29692
5807.45,0.29444
5784.31,0.30609
5761.16,0.33642
5738.02,0.33913
5714.87,0.31291
5691.73,0.30475
5668.58,0.31026
5645.44,0.32483
5622.29,0.34345
5599.15,0.34581
5576,0.36007
5552.86,0.36726
5529.71,0.36940
5506.57,0.37166
5483.42,0.37774
5460.28,0.37885
5437.13,0.37690
5413.99,0.37620
5390.84,0.37440
5367.7,0.37775
5344.55,0.38337
5321.41,0.38802
5298.26,0.38279
5275.12,0.36426
5251.97,0.34229
5228.83,0.35105
5205.68,0.37110
5182.54,0.37290
5159.39,0.36246
5136.25,0.35467
5113.1,0.37819
5089.96,0.38543
5066.81,0.38864
5043.67,0.38749
5020.52,0.38870
4997.38,0.38647
4974.23,0.38052
4951.09,0.37687
4927.94,0.37761
4904.8,0.37470
4881.65,0.36419
4858.51,0.36610
4835.36,0.36526
4812.22,0.36661
4789.07,0.35765
4765.93,0.34156
4742.78,0.32778
4719.64,0.27386
4696.49,0.25772
4673.35,0.17566
4650.2,0.19086
4627.06,0.17007
4603.92,0.16930
4580.77,0.18856
4557.63,0.21786
4534.48,0.23448
4511.34,0.22931
4488.19,0.21331
4465.05,0.21444
4441.9,0.19817
4418.76,0.18169
4395.61,0.15165
4372.47,0.12810
4349.32,0.11609
4326.18,0.11391
4303.03,0.11809
4279.89,0.11152
4256.74,0.10392
4233.6,0.10317
4210.45,0.10692
4187.31,0.11117
4164.16,0.11560
4141.02,0.11596
4117.87,0.11268
4094.73,0.10845
4071.58,0.09482
4048.44,0.08909
4025.29,0.09616
4002.15,0.11061
3979,0.11625
3955.86,0.11787
3932.71,0.11790
3909.57,0.11844
3886.42,0.12189
3863.28,0.12327
3840.13,0.12123
3816.99,0.11862
3793.84,0.11988
3770.7,0.12158
3747.55,0.12399
3724.41,0.11598
3701.26,0.10931
3678.12,0.09302
3654.97,0.08215
3631.83,0.08254
3608.68,0.08526
3585.54,0.08626
3562.39,0.08135
3539.25,0.07756
3516.1,0.07884
3492.96,0.08140
3469.81,0.08229
3446.67,0.08150
3423.52,0.08243
3400.38,0.08192
3377.23,0.08109
3354.09,0.08170
3330.94,0.07980
3307.8,0.06866
3284.65,0.07163
3261.51,0.07801
3238.36,0.07854
3215.22,0.07672
3192.07,0.07652
3168.93,0.07425
3145.78,0.07404
3122.64,0.07025
3099.49,0.06401
3076.35,0.06091
3053.2,0.06085
3030.06,0.05933
3006.91,0.05966
2983.77,0.05892
2960.62,0.05822
2937.48,0.05914
2914.33,0.06235
2891.19,0.06196
2868.04,0.06211
2844.9,0.06299
2821.75,0.06369
2798.61,0.06619
2775.46,0.06822
2752.32,0.06947
2729.17,0.06914
2706.03,0.06933
2682.88,0.06831
2659.74,0.06818
2636.59,0.06795
2613.45,0.06949
2590.3,0.07010
2567.16,0.07007
2544.02,0.06983
2520.87,0.06892
2497.73,0.06977
2474.58,0.07092
2451.44,0.07074
2428.29,0.07072
2405.15,0.06947
2382,0.06894
2358.86,0.06945
2335.71,0.06741
2312.57,0.06695
2289.42,0.06740
2266.28,0.06552
2243.13,0.06014
2219.99,0.06584
2196.84,0.06830
2173.7,0.06918
2150.55,0.07007
2127.41,0.06977
2104.26,0.06916
2081.12,0.06886
2057.97,0.06824
2034.83,0.06673
2011.68,0.06580
1988.54,0.06274
1965.39,0.06129
1942.25,0.06132
1919.1,0.06300
1895.96,0.06081
1872.81,0.06096
1849.67,0.06196
1826.52,0.06035
1803.38,0.06004
1780.23,0.06026
1757.09,0.05962
1733.94,0.06019
1710.8,0.06128
1687.65,0.06061
1664.51,0.06073
1641.36,0.05983
1618.22,0.06057
1595.07,0.06023
1571.93,0.06017
1548.78,0.05918
1525.64,0.05915
1502.49,0.05674
1479.35,0.05862
1456.2,0.05616
1433.06,0.06162
1409.91,0.06061
1386.77,0.05992
1363.62,0.06031
1340.48,0.06046
1317.33,0.06016
1294.19,0.06020
1271.04,0.06056
1247.9,0.06014
1224.75,0.06023
1201.61,0.06012
1178.46,0.06020
1155.32,0.06057
1132.17,0.06021
1109.03,0.06018
1085.88,0.05921
1062.74,0.06007
1039.59,0.05985
1016.45,0.06114
993.304,0.05891
970.159,0.05664
947.014,0.06109
923.869,0.05918
900.724,0.06015
877.579,0.05921
854.434,0.05757
831.289,0.05745
808.144,0.05601
784.999,0.05298
761.854,0.05558
738.709,0.05779
715.565,0.04851
692.42,0.07484
669.275,0.06183
646.13,0.06216
622.985,0.06078
599.84,0.05984