File: 01_Data/PlasticA/FTIR/IS/PlasticA_IS_S_220906_R6.dpt
7497.03,0.71052
7473.89,0.71589
7450.74,0.70711
7427.6,0.69255
7404.45,0.70160
7381.31,0.70002
7358.16,0.69023
7335.02,0.68065
7311.87,0.68428
7288.73,0.65219
7265.58,0.64348
7242.44,0.64850
7219.29,0.62977
7196.15,0.62063
7173,0.61805
7149.86,0.61262
7126.71,0.60820
7103.57,0.60722
7080.42,0.60246
7057.28,0.59641
7034.13,0.59732
7010.99,0.59706
6987.84,0.60477
6964.7,0.61519
6941.55,0.61824
6918.41,0.62580
6895.26,0.62401
6872.12,0.63231
6848.97,0.63481
6825.83,0.63667
6802.68,0.63517
6779.54,0.64559
6756.39,0.64082
6733.25,0.64227
6710.1,0.64725
6686.96,0.64674
6663.82,0.64879
6640.67,0.65350
6617.53,0.65142
6594.38,0.65212
6571.24,0.65518
6548.09,0.65596
6524.95,0.65545
6501.8,0.65612
6478.66,0.65842
6455.51,0.66082
6432.37,0.65931
6409.22,0.65607
6386.08,0.65288
6362.93,0.64541
6339.79,0.64217
6316.64,0.64249
6293.5,0.63794
6270.35,0.63532
6247.21,0.62991
6224.06,0.61551
6200.92,0.60490
6177.77,0.57983
6154.63,0.53731
6131.48,0.48672
6108.34,0.43887
6085.19,0.46299
6062.05,0.47623
6038.9,0.43676
6015.76,0.35855
5992.61,0.29963
5969.47,0.26825
5946.32,0.26867
5923.18,0.28183
5900.03,0.28536
5876.89,0.29591
5853.74,0.29657
5830.6,0.29452
5807.45,0.29377
5784.31,0.30209
5761.16,0.33538
5738.02,0.33844
5714.87,0.30915
5691.73,0.30241
5668.58,0.30972
5645.44,0.32282
5622.29,0.34030
5599.15,0.34590
5576,0.35826
5552.86,0.36442
5529.71,0.36676
5506.57,0.36879
5483.42,0.37436
5460.28,0.37663
5437.13,0.37575
5413.99,0.37409
5390.84,0.37374
5367.7,0.37295
5344.55,0.38236
5321.41,0.38532
5298.26,0.38194
5275.12,0.36398
5251.97,0.34269
5228.83,0.35287
5205.68,0.37271
5182.54,0.37138
5159.39,0.36133
5136.25,0.35371
5113.1,0.37782
5089.96,0.38328
5066.81,0.38602
5043.67,0.38800
5020.52,0.38737
4997.38,0.38527
4974.23,0.37939
4951.09,0.37528
4927.94,0.37409
4904.8,0.37378
4881.65,0.36284
4858.51,0.36429
4835.36,0.36475
4812.22,0.36674
4789.07,0.35751
4765.93,0.33994
4742.78,0.32581
4719.64,0.27168
4696.49,0.25617
4673.35,0.17511
4650.2,0.19082
4627.06,0.16859
4603.92,0.16762
4580.77,0.18829
4557.63,0.21775
4534.48,0.23363
4511.34,0.22827
4488.19,0.21238
4465.05,0.21451
4441.9,0.19932
4418.76,0.18100
4395.61,0.15083
4372.47,0.12729
4349.32,0.11528
4326.18,0.11358
4303.03,0.11785
4279.89,0.11100
4256.74,0.10255
4233.6,0.10405
4210.45,0.10548
4187.31,0.11075
4164.16,0.11587
4141.02,0.11608
4117.87,0.11240
4094.73,0.10826
4071.58,0.09434
4048.44,0.08891
4025.29,0.09593
4002.15,0.11025
3979,0.11568
3955.86,0.11793
3932.71,0.11635
3909.57,0.11791
3886.42,0.12107
3863.28,0.12303
3840.13,0.12000
3816.99,0.11769
3793.84,0.12090
3770.7,0.12110
3747.55,0.12274
3724.41,0.11601
3701.26,0.10943
3678.12,0.09379
3654.97,0.08251
3631.83,0.08403
3608.68,0.08624
3585.54,0.08656
3562.39,0.08191
3539.25,0.07952
3516.1,0.08052
3492.96,0.08158
3469.81,0.08274
3446.67,0.08183
3423.52,0.08239
3400.38,0.08197
3377.23,0.08178
3354.09,0.08179
3330.94,0.08026
3307.8,0.06826
3284.65,0.07164
3261.51,0.07774
3238.36,0.07797
3215.22,0.07662
3192.07,0.07537
3168.93,0.07444
3145.78,0.07358
3122.64,0.07033
3099.49,0.06372
3076.35,0.06060
3053.2,0.06091
3030.06,0.05892
3006.91,0.05922
2983.77,0.05927
2960.62,0.05858
2937.48,0.05910
2914.33,0.06235
2891.19,0.06147
2868.04,0.06183
2844.9,0.06243
2821.75,0.06392
2798.61,0.06611
2775.46,0.06815
2752.32,0.06943
2729.17,0.06918
2706.03,0.06900
2682.88,0.06829
2659.74,0.06822
2636.59,0.06790
2613.45,0.06877
2590.3,0.06959
2567.16,0.06972
2544.02,0.06900
2520.87,0.06874
2497.73,0.06911
2474.58,0.07076
2451.44,0.07040
2428.29,0.07031
2405.15,0.06925
2382,0.06860
2358.86,0.06852
2335.71,0.06664
2312.57,0.06688
2289.42,0.06732
2266.28,0.06566
2243.13,0.06000
2219.99,0.06562
2196.84,0.06805
2173.7,0.06923
2150.55,0.06965
2127.41,0.06977
2104.26,0.06938
2081.12,0.06885
2057.97,0.06792
2034.83,0.06669
2011.68,0.06523
1988.54,0.06249
1965.39,0.06082
1942.25,0.06155
1919.1,0.06249
1895.96,0.06087
1872.81,0.06028
1849.67,0.06181
1826.52,0.05997
1803.38,0.05957
1780.23,0.06022
1757.09,0.05904
1733.94,0.06024
1710.8,0.06070
1687.65,0.06014
1664.51,0.06019
1641.36,0.05933
1618.22,0.06011
1595.07,0.06045
1571.93,0.05975
1548.78,0.05873
1525.64,0.05895
1502.49,0.05645
1479.35,0.05847
1456.2,0.05553
1433.06,0.06132
1409.91,0.06037
1386.77,0.05971
1363.62,0.06015
1340.48,0.05960
1317.33,0.05982
1294.19,0.05995
1271.04,0.06063
1247.9,0.06037
1224.75,0.06007
1201.61,0.05985
1178.46,0.06035
1155.32,0.06040
1132.17,0.06006
1109.03,0.05914
1085.88,0.05913
1062.74,0.05975
1039.59,0.06033
1016.45,0.06060
993.304,0.05932
970.159,0.05681
947.014,0.06145
923.869,0.05925
900.724,0.06014
877.579,0.05944
854.434,0.05780
831.289,0.05732
808.144,0.05569
784.999,0.05300
761.854,0.05554
738.709,0.05678
715.565,0.04812
692.42,0.07436
669.275,0.06393
646.13,0.06163
622.985,0.06075
599.84,0.06074