File: 01_Data/PlasticA/FTIR/IS/PlasticA_IS_S_220906_R7.dpt
7497.03,0.70534
7473.89,0.71898
7450.74,0.70888
7427.6,0.69642
7404.45,0.69430
7381.31,0.70517
7358.16,0.68980
7335.02,0.67548
7311.87,0.68075
7288.73,0.66283
7265.58,0.64464
7242.44,0.64121
7219.29,0.62721
7196.15,0.62380
7173,0.62232
7149.86,0.61895
7126.71,0.60619
7103.57,0.59503
7080.42,0.59934
7057.28,0.59778
7034.13,0.60563
7010.99,0.60977
6987.84,0.60715
6964.7,0.61079
6941.55,0.61445
6918.41,0.62226
6895.26,0.62722
6872.12,0.63249
6848.97,0.63380
6825.83,0.63625
6802.68,0.63474
6779.54,0.64040
6756.39,0.64277
6733.25,0.64733
6710.1,0.64848
6686.96,0.64911
6663.82,0.65711
6640.67,0.65939
6617.53,0.65144
6594.38,0.66002
6571.24,0.65841
6548.09,0.65516
6524.95,0.65225
6501.8,0.66408
6478.66,0.65695
6455.51,0.65779
6432.37,0.65709
6409.22,0.65730
6386.08,0.65473
6362.93,0.64497
6339.79,0.64608
6316.64,0.64213
6293.5,0.64071
6270.35,0.63505
6247.21,0.62677
6224.06,0.61889
6200.92,0.60822
6177.77,0.58373
6154.63,0.53848
6131.48,0.48096
6108.34,0.44272
6085.19,0.46608
6062.05,0.47719
6038.9,0.43915
6015.76,0.35989
5992.61,0.30148
5969.47,0.26903
5946.32,0.26793
5923.18,0.28041
5900.03,0.28522
5876.89,0.29696
5853.74,0.29621
5830.6,0.29719
5807.45,0.29492
5784.31,0.30279
5761.16,0.33416
5738.02,0.33952
5714.87,0.31242
5691.73,0.30182
5668.58,0.30841
5645.44,0.32352
5622.29,0.34443
5599.15,0.34493
5576,0.35740
5552.86,0.36397
5529.71,0.36857
5506.57,0.37068
5483.42,0.37596
5460.28,0.37691
5437.13,0.37614
5413.99,0.37543
5390.84,0.37369
5367.7,0.37638
5344.55,0.38367
5321.41,0.38639
5298.26,0.38420
5275.12,0.36513
5251.97,0.34459
5228.83,0.35401
5205.68,0.37221
5182.54,0.37206
5159.39,0.36196
5136.25,0.35438
5113.1,0.37950
5089.96,0.38521
5066.81,0.38711
5043.67,0.38864
5020.52,0.38832
4997.38,0.38543
4974.23,0.37977
4951.09,0.37725
4927.94,0.37656
4904.8,0.37308
4881.65,0.36467
4858.51,0.36469
4835.36,0.36649
4812.22,0.36700
4789.07,0.35806
4765.93,0.34021
4742.78,0.32592
4719.64,0.27354
4696.49,0.25703
4673.35,0.17518
4650.2,0.19088
4627.06,0.16958
4603.92,0.16839
4580.77,0.18956
4557.63,0.21762
4534.48,0.23431
4511.34,0.22882
4488.19,0.21353
4465.05,0.21467
4441.9,0.19972
4418.76,0.18127
4395.61,0.15153
4372.47,0.12815
4349.32,0.11561
4326.18,0.11407
4303.03,0.11788
4279.89,0.11134
4256.74,0.10244
4233.6,0.10350
4210.45,0.10640
4187.31,0.11127
4164.16,0.11682
4141.02,0.11631
4117.87,0.11254
4094.73,0.10903
4071.58,0.09553
4048.44,0.08887
4025.29,0.09552
4002.15,0.11065
3979,0.11553
3955.86,0.11828
3932.71,0.11617
3909.57,0.11798
3886.42,0.12208
3863.28,0.12248
3840.13,0.12000
3816.99,0.11787
3793.84,0.12019
3770.7,0.12182
3747.55,0.12389
3724.41,0.11597
3701.26,0.10934
3678.12,0.09416
3654.97,0.08286
3631.83,0.08443
3608.68,0.08689
3585.54,0.08682
3562.39,0.08224
3539.25,0.07927
3516.1,0.08081
3492.96,0.08178
3469.81,0.08346
3446.67,0.08231
3423.52,0.08166
3400.38,0.08206
3377.23,0.08159
3354.09,0.08114
3330.94,0.08003
3307.8,0.06910
3284.65,0.07133
3261.51,0.07785
3238.36,0.07832
3215.22,0.07731
3192.07,0.07571
3168.93,0.07487
3145.78,0.07436
3122.64,0.07068
3099.49,0.06334
3076.35,0.06055
3053.2,0.06022
3030.06,0.05894
3006.91,0.05950
2983.77,0.05896
2960.62,0.05836
2937.48,0.05918
2914.33,0.06216
2891.19,0.06204
2868.04,0.06156
2844.9,0.06241
2821.75,0.06390
2798.61,0.06565
2775.46,0.06772
2752.32,0.06929
2729.17,0.06951
2706.03,0.06923
2682.88,0.06833
2659.74,0.06799
2636.59,0.06804
2613.45,0.06952
2590.3,0.06980
2567.16,0.06982
2544.02,0.06975
2520.87,0.06882
2497.73,0.06971
2474.58,0.07094
2451.44,0.07062
2428.29,0.07054
2405.15,0.06971
2382,0.06880
2358.86,0.06814
2335.71,0.06694
2312.57,0.06664
2289.42,0.06745
2266.28,0.06634
2243.13,0.05978
2219.99,0.06596
2196.84,0.06789
2173.7,0.06954
2150.55,0.06939
2127.41,0.06968
2104.26,0.06941
2081.12,0.06873
2057.97,0.06788
2034.83,0.06668
2011.68,0.06543
1988.54,0.06255
1965.39,0.06115
1942.25,0.06137
1919.1,0.06256
1895.96,0.06105
1872.81,0.06044
1849.67,0.06175
1826.52,0.06006
1803.38,0.05993
1780.23,0.06027
1757.09,0.05996
1733.94,0.05977
1710.8,0.06129
1687.65,0.06000
1664.51,0.06025
1641.36,0.05992
1618.22,0.06006
1595.07,0.06036
1571.93,0.05994
1548.78,0.05910
1525.64,0.05915
1502.49,0.05658
1479.35,0.05890
1456.2,0.05584
1433.06,0.06148
1409.91,0.06029
1386.77,0.05950
1363.62,0.05981
1340.48,0.06009
1317.33,0.06005
1294.19,0.06029
1271.04,0.06057
1247.9,0.06036
1224.75,0.06009
1201.61,0.06038
1178.46,0.06009
1155.32,0.06003
1132.17,0.06028
1109.03,0.05999
1085.88,0.05966
1062.74,0.06024
1039.59,0.05967
1016.45,0.06070
993.304,0.05908
970.159,0.05718
947.014,0.06158
923.869,0.05887
900.724,0.06050
877.579,0.05923
854.434,0.05764
831.289,0.05735
808.144,0.05632
784.999,0.05303
761.854,0.05537
738.709,0.05710
715.565,0.04711
692.42,0.07463
669.275,0.06399
646.13,0.06005
622.985,0.05963
599.84,0.05836