File: 01_Data/PlasticA/FTIR/IS/PlasticA_IS_T_220906_R4.dpt
7497.03,0.02362
7473.89,0.02820
7450.74,0.02348
7427.6,0.02966
7404.45,0.03208
7381.31,0.02879
7358.16,0.02146
7335.02,0.02037
7311.87,0.02511
7288.73,0.02227
7265.58,0.01706
7242.44,0.01797
7219.29,0.02112
7196.15,0.02598
7173,0.03000
7149.86,0.01575
7126.71,0.03075
7103.57,0.02446
7080.42,0.02298
7057.28,0.02110
7034.13,0.02361
7010.99,0.02078
6987.84,0.02309
6964.7,0.02702
6941.55,0.02294
6918.41,0.02098
6895.26,0.02344
6872.12,0.02370
6848.97,0.02372
6825.83,0.02474
6802.68,0.02460
6779.54,0.02423
6756.39,0.02044
6733.25,0.02805
6710.1,0.02506
6686.96,0.02364
6663.82,0.02471
6640.67,0.02889
6617.53,0.02492
6594.38,0.02341
6571.24,0.01611
6548.09,0.02822
6524.95,0.02435
6501.8,0.02438
6478.66,0.02096
6455.51,0.02222
6432.37,0.02440
6409.22,0.02778
6386.08,0.02265
6362.93,0.02218
6339.79,0.02090
6316.64,0.02232
6293.5,0.02330
6270.35,0.01886
6247.21,0.02145
6224.06,0.02095
6200.92,0.02582
6177.77,0.02015
6154.63,0.02183
6131.48,0.01870
6108.34,0.02114
6085.19,0.02404
6062.05,0.02173
6038.9,0.02223
6015.76,0.02505
5992.61,0.02132
5969.47,0.01979
5946.32,0.02206
5923.18,0.01997
5900.03,0.02265
5876.89,0.02141
5853.74,0.02245
5830.6,0.02119
5807.45,0.01938
5784.31,0.02326
5761.16,0.02274
5738.02,0.02158
5714.87,0.02066
5691.73,0.02052
5668.58,0.02267
5645.44,0.02296
5622.29,0.02385
5599.15,0.02130
5576,0.02080
5552.86,0.02138
5529.71,0.02309
5506.57,0.02157
5483.42,0.02220
5460.28,0.02207
5437.13,0.02151
5413.99,0.02237
5390.84,0.02124
5367.7,0.02462
5344.55,0.02228
5321.41,0.02197
5298.26,0.02234
5275.12,0.02215
5251.97,0.02035
5228.83,0.02253
5205.68,0.02296
5182.54,0.02205
5159.39,0.02211
5136.25,0.02177
5113.1,0.02160
5089.96,0.02173
5066.81,0.02121
5043.67,0.02169
5020.52,0.02198
4997.38,0.02222
4974.23,0.02230
4951.09,0.02213
4927.94,0.02221
4904.8,0.02018
4881.65,0.02132
4858.51,0.02207
4835.36,0.02314
4812.22,0.02217
4789.07,0.02162
4765.93,0.02203
4742.78,0.02211
4719.64,0.02161
4696.49,0.02294
4673.35,0.02351
4650.2,0.02206
4627.06,0.02246
4603.92,0.02229
4580.77,0.02180
4557.63,0.02115
4534.48,0.02302
4511.34,0.02165
4488.19,0.02171
4465.05,0.02259
4441.9,0.02273
4418.76,0.02176
4395.61,0.02274
4372.47,0.02265
4349.32,0.02228
4326.18,0.02180
4303.03,0.02228
4279.89,0.02312
4256.74,0.02318
4233.6,0.02204
4210.45,0.02257
4187.31,0.02269
4164.16,0.02214
4141.02,0.02223
4117.87,0.02255
4094.73,0.02253
4071.58,0.02234
4048.44,0.02273
4025.29,0.02248
4002.15,0.02183
3979,0.02293
3955.86,0.02268
3932.71,0.02249
3909.57,0.02158
3886.42,0.02253
3863.28,0.02251
3840.13,0.02292
3816.99,0.02270
3793.84,0.02243
3770.7,0.02290
3747.55,0.02238
3724.41,0.02241
3701.26,0.02240
3678.12,0.02281
3654.97,0.02176
3631.83,0.02183
3608.68,0.02142
3585.54,0.02084
3562.39,0.02096
3539.25,0.02118
3516.1,0.02039
3492.96,0.02095
3469.81,0.02131
3446.67,0.02092
3423.52,0.02112
3400.38,0.02083
3377.23,0.02075
3354.09,0.02080
3330.94,0.02069
3307.8,0.02102
3284.65,0.02018
3261.51,0.02024
3238.36,0.02083
3215.22,0.02078
3192.07,0.02068
3168.93,0.02095
3145.78,0.02076
3122.64,0.02088
3099.49,0.02094
3076.35,0.02033
3053.2,0.02076
3030.06,0.02070
3006.91,0.02049
2983.77,0.02001
2960.62,0.01961
2937.48,0.01984
2914.33,0.02031
2891.19,0.02013
2868.04,0.02022
2844.9,0.02066
2821.75,0.02036
2798.61,0.02094
2775.46,0.02099
2752.32,0.02140
2729.17,0.02108
2706.03,0.02097
2682.88,0.02066
2659.74,0.02125
2636.59,0.02149
2613.45,0.02104
2590.3,0.02062
2567.16,0.02126
2544.02,0.02117
2520.87,0.02117
2497.73,0.02094
2474.58,0.02093
2451.44,0.02118
2428.29,0.02092
2405.15,0.02105
2382,0.02129
2358.86,0.02113
2335.71,0.02130
2312.57,0.02102
2289.42,0.02105
2266.28,0.02090
2243.13,0.02111
2219.99,0.02092
2196.84,0.02061
2173.7,0.02102
2150.55,0.02082
2127.41,0.02056
2104.26,0.02104
2081.12,0.02085
2057.97,0.02060
2034.83,0.02091
2011.68,0.02053
1988.54,0.02029
1965.39,0.02037
1942.25,0.02063
1919.1,0.02058
1895.96,0.02068
1872.81,0.02048
1849.67,0.02016
1826.52,0.01996
1803.38,0.01981
1780.23,0.01870
1757.09,0.01757
1733.94,0.01960
1710.8,0.02029
1687.65,0.01923
1664.51,0.01876
1641.36,0.01828
1618.22,0.01848
1595.07,0.01888
1571.93,0.01807
1548.78,0.01799
1525.64,0.01860
1502.49,0.01898
1479.35,0.01844
1456.2,0.01899
1433.06,0.01872
1409.91,0.01855
1386.77,0.01799
1363.62,0.01842
1340.48,0.01782
1317.33,0.01723
1294.19,0.01762
1271.04,0.01874
1247.9,0.02003
1224.75,0.01889
1201.61,0.01825
1178.46,0.01819
1155.32,0.01757
1132.17,0.01796
1109.03,0.01876
1085.88,0.01872
1062.74,0.01973
1039.59,0.01979
1016.45,0.01895
993.304,0.02061
970.159,0.01989
947.014,0.01945
923.869,0.01885
900.724,0.01925
877.579,0.01918
854.434,0.01928
831.289,0.01835
808.144,0.01846
784.999,0.01851
761.854,0.01805
738.709,0.01916
715.565,0.01866
692.42,0.01946
669.275,0.01690
646.13,0.01687
622.985,0.01712
599.84,0.01523