File: 01_Data/ABS/FTIR/IS/ABS_IS_T_220906_R8.dpt
7497.03,0.01790
7473.89,0.01904
7450.74,0.02999
7427.6,0.02263
7404.45,0.02334
7381.31,0.03010
7358.16,0.02079
7335.02,0.02997
7311.87,0.01538
7288.73,0.02788
7265.58,0.02213
7242.44,0.02406
7219.29,0.01839
7196.15,0.02332
7173,0.02148
7149.86,0.02276
7126.71,0.02662
7103.57,0.02573
7080.42,0.03043
7057.28,0.02553
7034.13,0.02709
7010.99,0.01900
6987.84,0.02189
6964.7,0.02318
6941.55,0.02656
6918.41,0.02149
6895.26,0.02140
6872.12,0.02717
6848.97,0.02372
6825.83,0.02455
6802.68,0.02541
6779.54,0.02346
6756.39,0.02161
6733.25,0.02425
6710.1,0.03010
6686.96,0.01900
6663.82,0.01781
6640.67,0.02514
6617.53,0.02718
6594.38,0.02260
6571.24,0.02651
6548.09,0.02196
6524.95,0.02324
6501.8,0.02105
6478.66,0.01883
6455.51,0.02265
6432.37,0.02070
6409.22,0.02222
6386.08,0.02301
6362.93,0.02711
6339.79,0.02166
6316.64,0.02501
6293.5,0.02293
6270.35,0.02450
6247.21,0.02314
6224.06,0.01766
6200.92,0.02454
6177.77,0.02034
6154.63,0.02178
6131.48,0.02382
6108.34,0.02078
6085.19,0.01997
6062.05,0.01862
6038.9,0.02309
6015.76,0.02002
5992.61,0.02062
5969.47,0.02118
5946.32,0.02224
5923.18,0.02418
5900.03,0.02137
5876.89,0.02201
5853.74,0.02176
5830.6,0.02083
5807.45,0.02303
5784.31,0.02128
5761.16,0.02289
5738.02,0.02177
5714.87,0.02397
5691.73,0.02033
5668.58,0.02096
5645.44,0.02214
5622.29,0.02168
5599.15,0.02158
5576,0.02189
5552.86,0.02135
5529.71,0.02138
5506.57,0.02285
5483.42,0.02285
5460.28,0.02126
5437.13,0.02259
5413.99,0.02228
5390.84,0.02375
5367.7,0.02134
5344.55,0.02256
5321.41,0.02106
5298.26,0.02190
5275.12,0.02226
5251.97,0.02154
5228.83,0.02391
5205.68,0.02359
5182.54,0.02264
5159.39,0.02169
5136.25,0.02124
5113.1,0.02193
5089.96,0.02175
5066.81,0.02265
5043.67,0.02233
5020.52,0.02238
4997.38,0.02086
4974.23,0.02261
4951.09,0.02245
4927.94,0.02294
4904.8,0.02224
4881.65,0.02211
4858.51,0.02307
4835.36,0.02248
4812.22,0.02233
4789.07,0.02107
4765.93,0.02118
4742.78,0.02220
4719.64,0.02280
4696.49,0.02232
4673.35,0.02192
4650.2,0.02210
4627.06,0.02246
4603.92,0.02247
4580.77,0.02253
4557.63,0.02218
4534.48,0.02307
4511.34,0.02339
4488.19,0.02243
4465.05,0.02190
4441.9,0.02276
4418.76,0.02303
4395.61,0.02128
4372.47,0.02227
4349.32,0.02206
4326.18,0.02218
4303.03,0.02247
4279.89,0.02226
4256.74,0.02280
4233.6,0.02285
4210.45,0.02238
4187.31,0.02273
4164.16,0.02285
4141.02,0.02185
4117.87,0.02229
4094.73,0.02311
4071.58,0.02249
4048.44,0.02301
4025.29,0.02291
4002.15,0.02242
3979,0.02312
3955.86,0.02241
3932.71,0.02314
3909.57,0.02304
3886.42,0.02289
3863.28,0.02269
3840.13,0.02333
3816.99,0.02292
3793.84,0.02302
3770.7,0.02264
3747.55,0.02292
3724.41,0.02314
3701.26,0.02246
3678.12,0.02339
3654.97,0.02226
3631.83,0.02243
3608.68,0.02180
3585.54,0.02128
3562.39,0.02095
3539.25,0.02165
3516.1,0.02156
3492.96,0.02138
3469.81,0.02138
3446.67,0.02113
3423.52,0.02094
3400.38,0.02032
3377.23,0.02059
3354.09,0.02008
3330.94,0.02058
3307.8,0.02006
3284.65,0.02055
3261.51,0.02083
3238.36,0.02079
3215.22,0.02092
3192.07,0.02014
3168.93,0.02092
3145.78,0.02103
3122.64,0.02099
3099.49,0.02092
3076.35,0.02049
3053.2,0.02071
3030.06,0.02053
3006.91,0.02080
2983.77,0.02072
2960.62,0.01917
2937.48,0.01966
2914.33,0.02065
2891.19,0.02093
2868.04,0.02060
2844.9,0.02146
2821.75,0.02081
2798.61,0.02105
2775.46,0.02124
2752.32,0.02136
2729.17,0.02116
2706.03,0.02116
2682.88,0.02180
2659.74,0.02165
2636.59,0.02136
2613.45,0.02147
2590.3,0.02172
2567.16,0.02142
2544.02,0.02076
2520.87,0.02133
2497.73,0.02065
2474.58,0.02136
2451.44,0.02112
2428.29,0.02153
2405.15,0.02101
2382,0.02148
2358.86,0.02136
2335.71,0.02099
2312.57,0.02128
2289.42,0.02116
2266.28,0.02114
2243.13,0.02114
2219.99,0.02115
2196.84,0.02129
2173.7,0.02058
2150.55,0.02100
2127.41,0.02097
2104.26,0.02099
2081.12,0.02093
2057.97,0.02114
2034.83,0.02086
2011.68,0.02067
1988.54,0.02081
1965.39,0.02102
1942.25,0.02089
1919.1,0.02062
1895.96,0.02084
1872.81,0.02074
1849.67,0.02031
1826.52,0.02017
1803.38,0.01972
1780.23,0.01906
1757.09,0.01776
1733.94,0.02016
1710.8,0.02075
1687.65,0.01953
1664.51,0.01858
1641.36,0.01871
1618.22,0.01919
1595.07,0.01900
1571.93,0.01832
1548.78,0.01874
1525.64,0.01886
1502.49,0.01867
1479.35,0.01844
1456.2,0.01888
1433.06,0.01937
1409.91,0.01841
1386.77,0.01832
1363.62,0.01839
1340.48,0.01810
1317.33,0.01718
1294.19,0.01799
1271.04,0.01951
1247.9,0.01992
1224.75,0.01942
1201.61,0.01808
1178.46,0.01823
1155.32,0.01739
1132.17,0.01760
1109.03,0.01883
1085.88,0.01812
1062.74,0.01985
1039.59,0.01953
1016.45,0.02008
993.304,0.02130
970.159,0.02022
947.014,0.02015
923.869,0.01920
900.724,0.01912
877.579,0.01958
854.434,0.01779
831.289,0.01910
808.144,0.01945
784.999,0.01828
761.854,0.01886
738.709,0.01868
715.565,0.01951
692.42,0.01852
669.275,0.01767
646.13,0.01521
622.985,0.01500
599.84,0.01529