File: 01_Data/ABS/FTIR/IS/ABS_IS_S_220906_R5.dpt
7497.03,0.69552
7473.89,0.70796
7450.74,0.70338
7427.6,0.69343
7404.45,0.69847
7381.31,0.68863
7358.16,0.68675
7335.02,0.68381
7311.87,0.67587
7288.73,0.65613
7265.58,0.64456
7242.44,0.63001
7219.29,0.63527
7196.15,0.61921
7173,0.61269
7149.86,0.61385
7126.71,0.60383
7103.57,0.60148
7080.42,0.59575
7057.28,0.59213
7034.13,0.59694
7010.99,0.60524
6987.84,0.61069
6964.7,0.60921
6941.55,0.62253
6918.41,0.62273
6895.26,0.62953
6872.12,0.63002
6848.97,0.63658
6825.83,0.63867
6802.68,0.63592
6779.54,0.63702
6756.39,0.63932
6733.25,0.64053
6710.1,0.64223
6686.96,0.64904
6663.82,0.64657
6640.67,0.65218
6617.53,0.65023
6594.38,0.64879
6571.24,0.65230
6548.09,0.65332
6524.95,0.65518
6501.8,0.64952
6478.66,0.64976
6455.51,0.65283
6432.37,0.65054
6409.22,0.65542
6386.08,0.64896
6362.93,0.63806
6339.79,0.64095
6316.64,0.64120
6293.5,0.63496
6270.35,0.63164
6247.21,0.62529
6224.06,0.61370
6200.92,0.60370
6177.77,0.57947
6154.63,0.53497
6131.48,0.48229
6108.34,0.43761
6085.19,0.45988
6062.05,0.47532
6038.9,0.43995
6015.76,0.35731
5992.61,0.30082
5969.47,0.26671
5946.32,0.26616
5923.18,0.28112
5900.03,0.28249
5876.89,0.29513
5853.74,0.29401
5830.6,0.29366
5807.45,0.29097
5784.31,0.30204
5761.16,0.33240
5738.02,0.33726
5714.87,0.30930
5691.73,0.30183
5668.58,0.30459
5645.44,0.32244
5622.29,0.34031
5599.15,0.34576
5576,0.35616
5552.86,0.36263
5529.71,0.36457
5506.57,0.36711
5483.42,0.37459
5460.28,0.37365
5437.13,0.37460
5413.99,0.37112
5390.84,0.37319
5367.7,0.37294
5344.55,0.37995
5321.41,0.38206
5298.26,0.37883
5275.12,0.36197
5251.97,0.33887
5228.83,0.35023
5205.68,0.36869
5182.54,0.37062
5159.39,0.35861
5136.25,0.35196
5113.1,0.37653
5089.96,0.38241
5066.81,0.38489
5043.67,0.38554
5020.52,0.38452
4997.38,0.38135
4974.23,0.37667
4951.09,0.37340
4927.94,0.37277
4904.8,0.37114
4881.65,0.36097
4858.51,0.36184
4835.36,0.36127
4812.22,0.36384
4789.07,0.35537
4765.93,0.33636
4742.78,0.32367
4719.64,0.27131
4696.49,0.25511
4673.35,0.17411
4650.2,0.18913
4627.06,0.16795
4603.92,0.16846
4580.77,0.18786
4557.63,0.21474
4534.48,0.23227
4511.34,0.22700
4488.19,0.21175
4465.05,0.21286
4441.9,0.19710
4418.76,0.17938
4395.61,0.15027
4372.47,0.12711
4349.32,0.11512
4326.18,0.11312
4303.03,0.11715
4279.89,0.11040
4256.74,0.10245
4233.6,0.10291
4210.45,0.10560
4187.31,0.11056
4164.16,0.11525
4141.02,0.11510
4117.87,0.11165
4094.73,0.10827
4071.58,0.09497
4048.44,0.08824
4025.29,0.09574
4002.15,0.11008
3979,0.11517
3955.86,0.11788
3932.71,0.11642
3909.57,0.11704
3886.42,0.12067
3863.28,0.12111
3840.13,0.11947
3816.99,0.11735
3793.84,0.11971
3770.7,0.12168
3747.55,0.12272
3724.41,0.11478
3701.26,0.10843
3678.12,0.09359
3654.97,0.08168
3631.83,0.08349
3608.68,0.08533
3585.54,0.08547
3562.39,0.08125
3539.25,0.07882
3516.1,0.07969
3492.96,0.08055
3469.81,0.08201
3446.67,0.08165
3423.52,0.08176
3400.38,0.08149
3377.23,0.08115
3354.09,0.08138
3330.94,0.07933
3307.8,0.06795
3284.65,0.07062
3261.51,0.07773
3238.36,0.07804
3215.22,0.07665
3192.07,0.07600
3168.93,0.07423
3145.78,0.07372
3122.64,0.07025
3099.49,0.06378
3076.35,0.06018
3053.2,0.06028
3030.06,0.05866
3006.91,0.05941
2983.77,0.05945
2960.62,0.05798
2937.48,0.05854
2914.33,0.06211
2891.19,0.06107
2868.04,0.06140
2844.9,0.06187
2821.75,0.06414
2798.61,0.06574
2775.46,0.06749
2752.32,0.06896
2729.17,0.06841
2706.03,0.06892
2682.88,0.06845
2659.74,0.06799
2636.59,0.06750
2613.45,0.06864
2590.3,0.06916
2567.16,0.06900
2544.02,0.06870
2520.87,0.06839
2497.73,0.06922
2474.58,0.07036
2451.44,0.06994
2428.29,0.06954
2405.15,0.06896
2382,0.06869
2358.86,0.06821
2335.71,0.06653
2312.57,0.06629
2289.42,0.06686
2266.28,0.06485
2243.13,0.05967
2219.99,0.06551
2196.84,0.06760
2173.7,0.06855
2150.55,0.06914
2127.41,0.06920
2104.26,0.06856
2081.12,0.06843
2057.97,0.06718
2034.83,0.06649
2011.68,0.06497
1988.54,0.06169
1965.39,0.06089
1942.25,0.06062
1919.1,0.06227
1895.96,0.06018
1872.81,0.06035
1849.67,0.06130
1826.52,0.05972
1803.38,0.05898
1780.23,0.05996
1757.09,0.05941
1733.94,0.05932
1710.8,0.06063
1687.65,0.05995
1664.51,0.05995
1641.36,0.05934
1618.22,0.05955
1595.07,0.06024
1571.93,0.05965
1548.78,0.05856
1525.64,0.05840
1502.49,0.05624
1479.35,0.05827
1456.2,0.05579
1433.06,0.06079
1409.91,0.06035
1386.77,0.05955
1363.62,0.05949
1340.48,0.05977
1317.33,0.05977
1294.19,0.05982
1271.04,0.05975
1247.9,0.06005
1224.75,0.06013
1201.61,0.05955
1178.46,0.05992
1155.32,0.05946
1132.17,0.05902
1109.03,0.05964
1085.88,0.05921
1062.74,0.06045
1039.59,0.05936
1016.45,0.06038
993.304,0.05850
970.159,0.05642
947.014,0.06121
923.869,0.05856
900.724,0.06057
877.579,0.05945
854.434,0.05773
831.289,0.05724
808.144,0.05557
784.999,0.05236
761.854,0.05484
738.709,0.05779
715.565,0.04708
692.42,0.07492
669.275,0.06359
646.13,0.06170
622.985,0.06184
599.84,0.05893