File: 01_Data/ABS/FTIR/IS/ABS_IS_T_220906_R5.dpt
7497.03,0.02281
7473.89,0.01532
7450.74,0.01972
7427.6,0.02826
7404.45,0.02501
7381.31,0.01063
7358.16,0.02172
7335.02,0.03130
7311.87,0.03040
7288.73,0.02030
7265.58,0.02227
7242.44,0.01711
7219.29,0.02514
7196.15,0.01603
7173,0.02783
7149.86,0.02128
7126.71,0.01759
7103.57,0.02450
7080.42,0.02334
7057.28,0.03035
7034.13,0.02704
7010.99,0.02468
6987.84,0.02082
6964.7,0.02746
6941.55,0.02372
6918.41,0.02197
6895.26,0.02473
6872.12,0.03270
6848.97,0.02249
6825.83,0.02400
6802.68,0.02552
6779.54,0.02701
6756.39,0.02477
6733.25,0.02077
6710.1,0.01952
6686.96,0.02178
6663.82,0.02101
6640.67,0.02411
6617.53,0.02543
6594.38,0.02138
6571.24,0.02116
6548.09,0.02377
6524.95,0.02336
6501.8,0.02290
6478.66,0.02184
6455.51,0.02489
6432.37,0.02475
6409.22,0.02267
6386.08,0.01908
6362.93,0.02419
6339.79,0.02118
6316.64,0.02088
6293.5,0.02258
6270.35,0.02138
6247.21,0.02117
6224.06,0.02008
6200.92,0.02371
6177.77,0.02089
6154.63,0.01979
6131.48,0.01986
6108.34,0.01965
6085.19,0.02163
6062.05,0.01929
6038.9,0.02429
6015.76,0.02170
5992.61,0.02058
5969.47,0.02068
5946.32,0.02211
5923.18,0.02211
5900.03,0.02061
5876.89,0.01804
5853.74,0.02153
5830.6,0.02360
5807.45,0.02139
5784.31,0.02162
5761.16,0.02250
5738.02,0.02184
5714.87,0.02113
5691.73,0.02178
5668.58,0.02228
5645.44,0.02265
5622.29,0.02361
5599.15,0.02430
5576,0.02308
5552.86,0.02011
5529.71,0.02244
5506.57,0.02259
5483.42,0.02170
5460.28,0.02270
5437.13,0.02358
5413.99,0.02280
5390.84,0.02255
5367.7,0.02189
5344.55,0.02214
5321.41,0.02085
5298.26,0.02184
5275.12,0.02214
5251.97,0.02146
5228.83,0.02199
5205.68,0.02083
5182.54,0.02172
5159.39,0.02292
5136.25,0.02236
5113.1,0.02223
5089.96,0.02167
5066.81,0.02159
5043.67,0.02179
5020.52,0.02304
4997.38,0.02204
4974.23,0.02204
4951.09,0.02194
4927.94,0.02267
4904.8,0.02256
4881.65,0.02152
4858.51,0.02186
4835.36,0.02208
4812.22,0.02323
4789.07,0.02200
4765.93,0.02304
4742.78,0.02291
4719.64,0.02241
4696.49,0.02377
4673.35,0.02373
4650.2,0.02312
4627.06,0.02277
4603.92,0.02203
4580.77,0.02268
4557.63,0.02348
4534.48,0.02232
4511.34,0.02227
4488.19,0.02262
4465.05,0.02270
4441.9,0.02315
4418.76,0.02269
4395.61,0.02267
4372.47,0.02244
4349.32,0.02342
4326.18,0.02263
4303.03,0.02282
4279.89,0.02338
4256.74,0.02263
4233.6,0.02309
4210.45,0.02267
4187.31,0.02253
4164.16,0.02250
4141.02,0.02281
4117.87,0.02293
4094.73,0.02254
4071.58,0.02311
4048.44,0.02312
4025.29,0.02282
4002.15,0.02254
3979,0.02283
3955.86,0.02264
3932.71,0.02216
3909.57,0.02231
3886.42,0.02216
3863.28,0.02264
3840.13,0.02291
3816.99,0.02329
3793.84,0.02279
3770.7,0.02320
3747.55,0.02403
3724.41,0.02283
3701.26,0.02246
3678.12,0.02315
3654.97,0.02255
3631.83,0.02299
3608.68,0.02191
3585.54,0.02208
3562.39,0.02151
3539.25,0.02208
3516.1,0.02145
3492.96,0.02095
3469.81,0.02183
3446.67,0.02082
3423.52,0.02077
3400.38,0.02059
3377.23,0.02138
3354.09,0.02055
3330.94,0.01999
3307.8,0.02097
3284.65,0.02091
3261.51,0.02105
3238.36,0.02059
3215.22,0.02136
3192.07,0.02188
3168.93,0.02085
3145.78,0.02138
3122.64,0.02119
3099.49,0.02085
3076.35,0.02114
3053.2,0.02080
3030.06,0.02085
3006.91,0.02117
2983.77,0.01991
2960.62,0.01988
2937.48,0.01957
2914.33,0.02060
2891.19,0.02053
2868.04,0.02049
2844.9,0.02125
2821.75,0.02170
2798.61,0.02144
2775.46,0.02158
2752.32,0.02137
2729.17,0.02138
2706.03,0.02173
2682.88,0.02214
2659.74,0.02115
2636.59,0.02138
2613.45,0.02157
2590.3,0.02145
2567.16,0.02174
2544.02,0.02133
2520.87,0.02143
2497.73,0.02136
2474.58,0.02119
2451.44,0.02128
2428.29,0.02169
2405.15,0.02158
2382,0.02166
2358.86,0.02117
2335.71,0.02155
2312.57,0.02148
2289.42,0.02126
2266.28,0.02123
2243.13,0.02118
2219.99,0.02098
2196.84,0.02134
2173.7,0.02124
2150.55,0.02124
2127.41,0.02100
2104.26,0.02127
2081.12,0.02153
2057.97,0.02105
2034.83,0.02094
2011.68,0.02090
1988.54,0.02129
1965.39,0.02098
1942.25,0.02091
1919.1,0.02084
1895.96,0.02091
1872.81,0.02084
1849.67,0.02066
1826.52,0.02073
1803.38,0.01988
1780.23,0.01932
1757.09,0.01796
1733.94,0.02017
1710.8,0.02062
1687.65,0.01967
1664.51,0.01878
1641.36,0.01859
1618.22,0.01896
1595.07,0.01907
1571.93,0.01854
1548.78,0.01851
1525.64,0.01948
1502.49,0.01853
1479.35,0.01902
1456.2,0.01912
1433.06,0.01860
1409.91,0.01869
1386.77,0.01834
1363.62,0.01840
1340.48,0.01805
1317.33,0.01733
1294.19,0.01788
1271.04,0.01961
1247.9,0.02012
1224.75,0.01926
1201.61,0.01828
1178.46,0.01767
1155.32,0.01771
1132.17,0.01780
1109.03,0.01918
1085.88,0.01838
1062.74,0.01931
1039.59,0.01971
1016.45,0.01957
993.304,0.02108
970.159,0.02097
947.014,0.02001
923.869,0.01928
900.724,0.01917
877.579,0.01926
854.434,0.01896
831.289,0.01861
808.144,0.01896
784.999,0.01828
761.854,0.01853
738.709,0.01876
715.565,0.01850
692.42,0.01877
669.275,0.01775
646.13,0.01632
622.985,0.01606
599.84,0.01506