File: 01_Data/ABS/FTIR/IS/ABS_IS_S_220906_R1.dpt
7497.03,0.70838
7473.89,0.71119
7450.74,0.69743
7427.6,0.70332
7404.45,0.70503
7381.31,0.69740
7358.16,0.68500
7335.02,0.67737
7311.87,0.67625
7288.73,0.65585
7265.58,0.65448
7242.44,0.64229
7219.29,0.63429
7196.15,0.62564
7173,0.62211
7149.86,0.61714
7126.71,0.61035
7103.57,0.59126
7080.42,0.59421
7057.28,0.59949
7034.13,0.59780
7010.99,0.60686
6987.84,0.60830
6964.7,0.61189
6941.55,0.61337
6918.41,0.62294
6895.26,0.62927
6872.12,0.63144
6848.97,0.63493
6825.83,0.63571
6802.68,0.63493
6779.54,0.64242
6756.39,0.64349
6733.25,0.64004
6710.1,0.64568
6686.96,0.65165
6663.82,0.64863
6640.67,0.65016
6617.53,0.65099
6594.38,0.65372
6571.24,0.65837
6548.09,0.65017
6524.95,0.65447
6501.8,0.65261
6478.66,0.65739
6455.51,0.65095
6432.37,0.65351
6409.22,0.65429
6386.08,0.64844
6362.93,0.64136
6339.79,0.63798
6316.64,0.64106
6293.5,0.63420
6270.35,0.63774
6247.21,0.62444
6224.06,0.61732
6200.92,0.60026
6177.77,0.58109
6154.63,0.53638
6131.48,0.48186
6108.34,0.44527
6085.19,0.46206
6062.05,0.47358
6038.9,0.43887
6015.76,0.35717
5992.61,0.30108
5969.47,0.26566
5946.32,0.26813
5923.18,0.28268
5900.03,0.28354
5876.89,0.29529
5853.74,0.29733
5830.6,0.29276
5807.45,0.29228
5784.31,0.30408
5761.16,0.33415
5738.02,0.33610
5714.87,0.30825
5691.73,0.30021
5668.58,0.30772
5645.44,0.32357
5622.29,0.34074
5599.15,0.34440
5576,0.35661
5552.86,0.36341
5529.71,0.36445
5506.57,0.36770
5483.42,0.37513
5460.28,0.37712
5437.13,0.37514
5413.99,0.37563
5390.84,0.37160
5367.7,0.37386
5344.55,0.38087
5321.41,0.38309
5298.26,0.37864
5275.12,0.35955
5251.97,0.33529
5228.83,0.34888
5205.68,0.36848
5182.54,0.36977
5159.39,0.35974
5136.25,0.35213
5113.1,0.37430
5089.96,0.38133
5066.81,0.38463
5043.67,0.38417
5020.52,0.38655
4997.38,0.38205
4974.23,0.37785
4951.09,0.37394
4927.94,0.37332
4904.8,0.37353
4881.65,0.36334
4858.51,0.36349
4835.36,0.36367
4812.22,0.36480
4789.07,0.35585
4765.93,0.33938
4742.78,0.32447
4719.64,0.27176
4696.49,0.25584
4673.35,0.17459
4650.2,0.18989
4627.06,0.16893
4603.92,0.16813
4580.77,0.18908
4557.63,0.21624
4534.48,0.23296
4511.34,0.22871
4488.19,0.21231
4465.05,0.21302
4441.9,0.19810
4418.76,0.18038
4395.61,0.15037
4372.47,0.12759
4349.32,0.11483
4326.18,0.11301
4303.03,0.11738
4279.89,0.11038
4256.74,0.10241
4233.6,0.10354
4210.45,0.10607
4187.31,0.11075
4164.16,0.11581
4141.02,0.11537
4117.87,0.11191
4094.73,0.10808
4071.58,0.09416
4048.44,0.08851
4025.29,0.09553
4002.15,0.11000
3979,0.11520
3955.86,0.11732
3932.71,0.11627
3909.57,0.11737
3886.42,0.12139
3863.28,0.12341
3840.13,0.12146
3816.99,0.11850
3793.84,0.11895
3770.7,0.12106
3747.55,0.12388
3724.41,0.11567
3701.26,0.10786
3678.12,0.09120
3654.97,0.07849
3631.83,0.08065
3608.68,0.08376
3585.54,0.08443
3562.39,0.07821
3539.25,0.07589
3516.1,0.07789
3492.96,0.07986
3469.81,0.08004
3446.67,0.08049
3423.52,0.08094
3400.38,0.07982
3377.23,0.08079
3354.09,0.08038
3330.94,0.07909
3307.8,0.06840
3284.65,0.07135
3261.51,0.07710
3238.36,0.07761
3215.22,0.07598
3192.07,0.07549
3168.93,0.07455
3145.78,0.07385
3122.64,0.06998
3099.49,0.06310
3076.35,0.06099
3053.2,0.06059
3030.06,0.05890
3006.91,0.05966
2983.77,0.05890
2960.62,0.05863
2937.48,0.05875
2914.33,0.06224
2891.19,0.06128
2868.04,0.06173
2844.9,0.06248
2821.75,0.06346
2798.61,0.06565
2775.46,0.06703
2752.32,0.06880
2729.17,0.06893
2706.03,0.06874
2682.88,0.06844
2659.74,0.06865
2636.59,0.06778
2613.45,0.06880
2590.3,0.06965
2567.16,0.06977
2544.02,0.06949
2520.87,0.06812
2497.73,0.06961
2474.58,0.07048
2451.44,0.07065
2428.29,0.07050
2405.15,0.06934
2382,0.06860
2358.86,0.07078
2335.71,0.06809
2312.57,0.06688
2289.42,0.06753
2266.28,0.06535
2243.13,0.06017
2219.99,0.06523
2196.84,0.06803
2173.7,0.06884
2150.55,0.06941
2127.41,0.06942
2104.26,0.06902
2081.12,0.06876
2057.97,0.06808
2034.83,0.06650
2011.68,0.06530
1988.54,0.06233
1965.39,0.06102
1942.25,0.06108
1919.1,0.06240
1895.96,0.06065
1872.81,0.06034
1849.67,0.06184
1826.52,0.06015
1803.38,0.05952
1780.23,0.06031
1757.09,0.05957
1733.94,0.06082
1710.8,0.06084
1687.65,0.06066
1664.51,0.06039
1641.36,0.05945
1618.22,0.06099
1595.07,0.06055
1571.93,0.05955
1548.78,0.05948
1525.64,0.05956
1502.49,0.05666
1479.35,0.05872
1456.2,0.05646
1433.06,0.06147
1409.91,0.06071
1386.77,0.05953
1363.62,0.06017
1340.48,0.06024
1317.33,0.05958
1294.19,0.05986
1271.04,0.06044
1247.9,0.05991
1224.75,0.05964
1201.61,0.05986
1178.46,0.06047
1155.32,0.06026
1132.17,0.05956
1109.03,0.05957
1085.88,0.05892
1062.74,0.05984
1039.59,0.05986
1016.45,0.06087
993.304,0.05866
970.159,0.05649
947.014,0.06140
923.869,0.05910
900.724,0.06106
877.579,0.05887
854.434,0.05783
831.289,0.05696
808.144,0.05555
784.999,0.05257
761.854,0.05575
738.709,0.05632
715.565,0.04843
692.42,0.07544
669.275,0.06357
646.13,0.06211
622.985,0.06007
599.84,0.05938