File: 01_Data/ABS/FTIR/IS/ABS_IS_T_220906_R7.dpt
7497.03,0.02889
7473.89,0.02857
7450.74,0.03229
7427.6,0.03161
7404.45,0.02569
7381.31,0.01811
7358.16,0.02275
7335.02,0.02833
7311.87,0.02500
7288.73,0.03012
7265.58,0.01735
7242.44,0.02457
7219.29,0.01861
7196.15,0.02327
7173,0.01995
7149.86,0.02858
7126.71,0.02437
7103.57,0.02502
7080.42,0.02308
7057.28,0.03133
7034.13,0.02213
7010.99,0.01636
6987.84,0.03027
6964.7,0.03105
6941.55,0.02413
6918.41,0.02309
6895.26,0.02347
6872.12,0.02734
6848.97,0.02136
6825.83,0.02725
6802.68,0.01955
6779.54,0.02437
6756.39,0.02598
6733.25,0.01851
6710.1,0.02033
6686.96,0.02104
6663.82,0.02833
6640.67,0.02288
6617.53,0.02854
6594.38,0.02227
6571.24,0.01777
6548.09,0.02515
6524.95,0.02144
6501.8,0.02175
6478.66,0.02240
6455.51,0.02724
6432.37,0.02151
6409.22,0.02170
6386.08,0.02301
6362.93,0.02132
6339.79,0.02287
6316.64,0.02327
6293.5,0.02161
6270.35,0.02162
6247.21,0.02246
6224.06,0.02228
6200.92,0.02630
6177.77,0.02047
6154.63,0.02387
6131.48,0.02114
6108.34,0.02190
6085.19,0.02181
6062.05,0.01901
6038.9,0.01980
6015.76,0.02191
5992.61,0.02039
5969.47,0.01975
5946.32,0.02309
5923.18,0.02305
5900.03,0.02206
5876.89,0.02238
5853.74,0.02248
5830.6,0.02345
5807.45,0.02408
5784.31,0.02332
5761.16,0.02219
5738.02,0.02127
5714.87,0.02190
5691.73,0.02364
5668.58,0.02223
5645.44,0.02224
5622.29,0.02028
5599.15,0.02154
5576,0.01962
5552.86,0.02066
5529.71,0.02198
5506.57,0.02377
5483.42,0.02259
5460.28,0.02056
5437.13,0.02157
5413.99,0.02359
5390.84,0.01903
5367.7,0.02210
5344.55,0.02203
5321.41,0.02148
5298.26,0.02141
5275.12,0.02235
5251.97,0.02116
5228.83,0.02074
5205.68,0.02169
5182.54,0.02284
5159.39,0.02093
5136.25,0.02155
5113.1,0.02221
5089.96,0.02194
5066.81,0.02311
5043.67,0.02133
5020.52,0.02120
4997.38,0.02301
4974.23,0.02324
4951.09,0.02224
4927.94,0.02238
4904.8,0.02176
4881.65,0.02181
4858.51,0.02209
4835.36,0.02222
4812.22,0.02254
4789.07,0.02298
4765.93,0.02209
4742.78,0.02272
4719.64,0.02419
4696.49,0.02264
4673.35,0.02211
4650.2,0.02225
4627.06,0.02181
4603.92,0.02222
4580.77,0.02241
4557.63,0.02156
4534.48,0.02219
4511.34,0.02246
4488.19,0.02252
4465.05,0.02285
4441.9,0.02227
4418.76,0.02189
4395.61,0.02233
4372.47,0.02182
4349.32,0.02126
4326.18,0.02265
4303.03,0.02207
4279.89,0.02230
4256.74,0.02264
4233.6,0.02219
4210.45,0.02203
4187.31,0.02292
4164.16,0.02220
4141.02,0.02193
4117.87,0.02262
4094.73,0.02278
4071.58,0.02235
4048.44,0.02294
4025.29,0.02227
4002.15,0.02282
3979,0.02187
3955.86,0.02290
3932.71,0.02239
3909.57,0.02249
3886.42,0.02269
3863.28,0.02174
3840.13,0.02220
3816.99,0.02224
3793.84,0.02246
3770.7,0.02265
3747.55,0.02286
3724.41,0.02270
3701.26,0.02259
3678.12,0.02211
3654.97,0.02210
3631.83,0.02238
3608.68,0.02194
3585.54,0.02099
3562.39,0.02133
3539.25,0.02166
3516.1,0.02090
3492.96,0.02103
3469.81,0.02099
3446.67,0.02079
3423.52,0.02026
3400.38,0.02085
3377.23,0.01998
3354.09,0.02013
3330.94,0.01980
3307.8,0.02039
3284.65,0.02058
3261.51,0.02001
3238.36,0.02068
3215.22,0.02052
3192.07,0.02122
3168.93,0.02065
3145.78,0.02103
3122.64,0.02094
3099.49,0.02062
3076.35,0.02043
3053.2,0.02083
3030.06,0.02088
3006.91,0.01990
2983.77,0.01966
2960.62,0.01977
2937.48,0.01980
2914.33,0.01990
2891.19,0.01971
2868.04,0.01992
2844.9,0.02084
2821.75,0.02119
2798.61,0.02097
2775.46,0.02121
2752.32,0.02145
2729.17,0.02084
2706.03,0.02127
2682.88,0.02125
2659.74,0.02155
2636.59,0.02126
2613.45,0.02104
2590.3,0.02098
2567.16,0.02067
2544.02,0.02086
2520.87,0.02134
2497.73,0.02117
2474.58,0.02125
2451.44,0.02086
2428.29,0.02079
2405.15,0.02126
2382,0.02105
2358.86,0.02105
2335.71,0.02133
2312.57,0.02082
2289.42,0.02104
2266.28,0.02094
2243.13,0.02077
2219.99,0.02085
2196.84,0.02079
2173.7,0.02044
2150.55,0.02077
2127.41,0.02046
2104.26,0.02101
2081.12,0.02047
2057.97,0.02072
2034.83,0.02077
2011.68,0.02063
1988.54,0.02063
1965.39,0.02071
1942.25,0.02065
1919.1,0.02067
1895.96,0.02027
1872.81,0.02035
1849.67,0.01991
1826.52,0.01980
1803.38,0.01964
1780.23,0.01856
1757.09,0.01745
1733.94,0.01959
1710.8,0.02051
1687.65,0.01879
1664.51,0.01828
1641.36,0.01834
1618.22,0.01917
1595.07,0.01872
1571.93,0.01870
1548.78,0.01767
1525.64,0.01835
1502.49,0.01853
1479.35,0.01813
1456.2,0.01853
1433.06,0.01839
1409.91,0.01837
1386.77,0.01817
1363.62,0.01812
1340.48,0.01728
1317.33,0.01718
1294.19,0.01761
1271.04,0.01933
1247.9,0.01980
1224.75,0.01966
1201.61,0.01838
1178.46,0.01768
1155.32,0.01730
1132.17,0.01736
1109.03,0.01805
1085.88,0.01794
1062.74,0.02028
1039.59,0.01937
1016.45,0.01918
993.304,0.02085
970.159,0.02067
947.014,0.01993
923.869,0.01916
900.724,0.01881
877.579,0.01866
854.434,0.01814
831.289,0.01894
808.144,0.01941
784.999,0.01833
761.854,0.01834
738.709,0.01824
715.565,0.01845
692.42,0.01801
669.275,0.01788
646.13,0.01736
622.985,0.01824
599.84,0.01482