File: 01_Data/ABS/FTIR/IS/ABS_IS_T_220906_R2.dpt
7497.03,0.02190
7473.89,0.03352
7450.74,0.02152
7427.6,0.01812
7404.45,0.02567
7381.31,0.02623
7358.16,0.02405
7335.02,0.03116
7311.87,0.02879
7288.73,0.02533
7265.58,0.01853
7242.44,0.02101
7219.29,0.02095
7196.15,0.02441
7173,0.02194
7149.86,0.02482
7126.71,0.02668
7103.57,0.02887
7080.42,0.02564
7057.28,0.02979
7034.13,0.02103
7010.99,0.02282
6987.84,0.02388
6964.7,0.02259
6941.55,0.02299
6918.41,0.02421
6895.26,0.01991
6872.12,0.02806
6848.97,0.02486
6825.83,0.01883
6802.68,0.02478
6779.54,0.02449
6756.39,0.02353
6733.25,0.02037
6710.1,0.02432
6686.96,0.02358
6663.82,0.01978
6640.67,0.02122
6617.53,0.02285
6594.38,0.02138
6571.24,0.02043
6548.09,0.02472
6524.95,0.02330
6501.8,0.02394
6478.66,0.01996
6455.51,0.02172
6432.37,0.02295
6409.22,0.02305
6386.08,0.02059
6362.93,0.02056
6339.79,0.02252
6316.64,0.02697
6293.5,0.02193
6270.35,0.02140
6247.21,0.02512
6224.06,0.01997
6200.92,0.02366
6177.77,0.02342
6154.63,0.02580
6131.48,0.02248
6108.34,0.02235
6085.19,0.02223
6062.05,0.02252
6038.9,0.02166
6015.76,0.02157
5992.61,0.02296
5969.47,0.02310
5946.32,0.02310
5923.18,0.02450
5900.03,0.02005
5876.89,0.01993
5853.74,0.02355
5830.6,0.02103
5807.45,0.02033
5784.31,0.02118
5761.16,0.02000
5738.02,0.02019
5714.87,0.02048
5691.73,0.02125
5668.58,0.02120
5645.44,0.02310
5622.29,0.02208
5599.15,0.02188
5576,0.02093
5552.86,0.02203
5529.71,0.02192
5506.57,0.02201
5483.42,0.02212
5460.28,0.02134
5437.13,0.02219
5413.99,0.02319
5390.84,0.02229
5367.7,0.02203
5344.55,0.02347
5321.41,0.02353
5298.26,0.02107
5275.12,0.02187
5251.97,0.02150
5228.83,0.02240
5205.68,0.02197
5182.54,0.02289
5159.39,0.02124
5136.25,0.02113
5113.1,0.02232
5089.96,0.02201
5066.81,0.02147
5043.67,0.02173
5020.52,0.02222
4997.38,0.02215
4974.23,0.02225
4951.09,0.02135
4927.94,0.02229
4904.8,0.02182
4881.65,0.02183
4858.51,0.02254
4835.36,0.02266
4812.22,0.02237
4789.07,0.02238
4765.93,0.02224
4742.78,0.02196
4719.64,0.02225
4696.49,0.02278
4673.35,0.02180
4650.2,0.02180
4627.06,0.02175
4603.92,0.02228
4580.77,0.02323
4557.63,0.02246
4534.48,0.02276
4511.34,0.02121
4488.19,0.02263
4465.05,0.02245
4441.9,0.02243
4418.76,0.02220
4395.61,0.02215
4372.47,0.02230
4349.32,0.02205
4326.18,0.02241
4303.03,0.02223
4279.89,0.02238
4256.74,0.02280
4233.6,0.02341
4210.45,0.02183
4187.31,0.02254
4164.16,0.02216
4141.02,0.02172
4117.87,0.02260
4094.73,0.02171
4071.58,0.02281
4048.44,0.02224
4025.29,0.02192
4002.15,0.02241
3979,0.02252
3955.86,0.02240
3932.71,0.02230
3909.57,0.02327
3886.42,0.02279
3863.28,0.02256
3840.13,0.02345
3816.99,0.02215
3793.84,0.02232
3770.7,0.02241
3747.55,0.02314
3724.41,0.02230
3701.26,0.02248
3678.12,0.02174
3654.97,0.02171
3631.83,0.02171
3608.68,0.02213
3585.54,0.02123
3562.39,0.02078
3539.25,0.02096
3516.1,0.02090
3492.96,0.02118
3469.81,0.02092
3446.67,0.02062
3423.52,0.02069
3400.38,0.02010
3377.23,0.02053
3354.09,0.02012
3330.94,0.01993
3307.8,0.02058
3284.65,0.02065
3261.51,0.02015
3238.36,0.02071
3215.22,0.02068
3192.07,0.02043
3168.93,0.02111
3145.78,0.02063
3122.64,0.02113
3099.49,0.02073
3076.35,0.02078
3053.2,0.02061
3030.06,0.02026
3006.91,0.02031
2983.77,0.01978
2960.62,0.01953
2937.48,0.01972
2914.33,0.02010
2891.19,0.02047
2868.04,0.02013
2844.9,0.02072
2821.75,0.02086
2798.61,0.02132
2775.46,0.02081
2752.32,0.02112
2729.17,0.02135
2706.03,0.02108
2682.88,0.02132
2659.74,0.02138
2636.59,0.02150
2613.45,0.02112
2590.3,0.02137
2567.16,0.02114
2544.02,0.02121
2520.87,0.02151
2497.73,0.02112
2474.58,0.02085
2451.44,0.02113
2428.29,0.02105
2405.15,0.02104
2382,0.02148
2358.86,0.02139
2335.71,0.02073
2312.57,0.02124
2289.42,0.02094
2266.28,0.02086
2243.13,0.02078
2219.99,0.02087
2196.84,0.02084
2173.7,0.02057
2150.55,0.02068
2127.41,0.02114
2104.26,0.02068
2081.12,0.02080
2057.97,0.02095
2034.83,0.02080
2011.68,0.02063
1988.54,0.02095
1965.39,0.02059
1942.25,0.02070
1919.1,0.02035
1895.96,0.02070
1872.81,0.02039
1849.67,0.02028
1826.52,0.01989
1803.38,0.01958
1780.23,0.01892
1757.09,0.01739
1733.94,0.01959
1710.8,0.02051
1687.65,0.01903
1664.51,0.01849
1641.36,0.01859
1618.22,0.01878
1595.07,0.01870
1571.93,0.01813
1548.78,0.01854
1525.64,0.01906
1502.49,0.01888
1479.35,0.01868
1456.2,0.01906
1433.06,0.01859
1409.91,0.01858
1386.77,0.01802
1363.62,0.01826
1340.48,0.01768
1317.33,0.01732
1294.19,0.01805
1271.04,0.01939
1247.9,0.02049
1224.75,0.01903
1201.61,0.01813
1178.46,0.01706
1155.32,0.01700
1132.17,0.01819
1109.03,0.01825
1085.88,0.01790
1062.74,0.01957
1039.59,0.01985
1016.45,0.02006
993.304,0.02137
970.159,0.02027
947.014,0.01978
923.869,0.01876
900.724,0.01878
877.579,0.01892
854.434,0.01840
831.289,0.01830
808.144,0.01884
784.999,0.01795
761.854,0.01865
738.709,0.01831
715.565,0.01852
692.42,0.01860
669.275,0.01746
646.13,0.01611
622.985,0.01610
599.84,0.01570