File: 01_Data/Polyolefin_Carpet_Low_Pile/MCC/Polyolefin_Carpet_Low_Pile_MCC_30K_min_211008_R2.txt
Sample ID:	C:\MCC\MCC Cal\Test\Carpet_Polyolefin_LowPile_211008_R2.txt
Sample Weight (mg):	4.5
Heating Rate (C/s):	0.5
Combustor Temp (C):	900
N2 Flow Rate (cc/min):	80
O2 Flow Rate (cc/min):	20
Calibration File:	C:\MCC\MCC Cal\Coeff1 JN10440_30_210304.txt.txt
T Correction Coefficients:	0	1.024463	0
Time Shift (s):	14
*
Time (s)	Temperature (C)	N2 flow rate (cc/min)	O2 flow rate (cc/min)	Flow Rate (cc/min)	Oxygen (%)	HRR (W/g)	Heating rate (C/s)
0.000	107.561	80.015	20.004	100.829	20.181	0.036	-0.021
8.000	107.619	79.997	19.996	100.803	20.179	0.156	-0.011
15.999	107.615	79.995	19.996	100.833	20.169	0.860	-0.006
23.999	107.780	79.995	19.996	100.935	20.161	1.470	0.078
31.999	108.241	79.998	19.996	100.967	20.152	2.078	0.076
39.999	109.176	79.994	19.997	100.998	20.144	2.640	0.152
47.999	110.444	79.994	19.998	101.014	20.138	3.085	0.156
55.999	112.085	79.994	19.997	101.033	20.131	3.554	0.226
63.999	114.049	79.995	19.995	101.027	20.128	3.767	0.257
71.999	116.310	79.995	19.996	101.064	20.127	3.807	0.287
79.999	118.785	79.996	19.997	101.068	20.122	4.194	0.335
87.999	121.514	79.996	19.995	101.070	20.123	4.089	0.373
95.999	124.485	79.996	19.996	101.065	20.118	4.478	0.414
103.999	127.615	79.998	19.996	101.068	20.116	4.583	0.402
111.999	130.905	79.998	19.996	101.062	20.124	4.010	0.442
119.999	134.314	79.994	19.997	101.067	20.123	4.097	0.442
128.001	137.851	79.994	19.996	101.075	20.122	4.190	0.460
136.000	141.543	79.994	19.998	101.071	20.120	4.325	0.473
144.000	145.375	79.995	19.997	101.083	20.123	4.115	0.500
152.000	149.252	79.995	19.996	101.046	20.117	4.523	0.499
160.000	153.179	79.996	19.996	101.069	20.117	4.529	0.503
168.000	157.170	79.996	19.996	101.069	20.119	4.416	0.519
176.000	161.192	79.996	19.995	101.064	20.120	4.346	0.525
184.000	165.143	79.996	19.995	101.058	20.119	4.386	0.480
192.000	169.128	79.998	19.996	101.063	20.118	4.481	0.478
200.000	173.146	79.996	19.997	101.065	20.121	4.227	0.505
208.000	177.120	79.995	19.996	101.062	20.121	4.235	0.518
216.000	181.128	79.994	19.996	101.037	20.120	4.295	0.506
224.000	185.120	79.996	19.997	101.051	20.120	4.338	0.526
231.999	189.104	79.994	19.997	101.052	20.120	4.280	0.495
240.000	193.080	79.996	19.996	101.051	20.122	4.182	0.510
248.000	197.062	80.016	20.004	101.072	20.122	4.158	0.498
255.999	201.036	80.014	20.004	101.066	20.125	3.933	0.498
264.000	205.031	80.015	20.002	101.064	20.124	4.054	0.507
272.000	209.009	80.016	20.002	101.063	20.124	4.061	0.512
280.000	212.973	80.014	20.002	101.068	20.122	4.142	0.506
288.000	216.933	80.013	20.003	101.066	20.125	3.970	0.526
296.000	220.920	80.015	20.003	101.057	20.124	4.007	0.497
304.000	224.935	80.015	20.002	101.059	20.122	4.205	0.511
312.000	228.994	80.014	20.003	101.049	20.122	4.180	0.521
320.000	233.004	80.013	20.004	101.064	20.126	3.867	0.502
328.000	236.974	80.014	20.003	101.049	20.122	4.176	0.512
336.000	240.971	80.013	20.004	101.055	20.122	4.191	0.486
344.000	244.978	80.014	20.002	101.042	20.121	4.273	0.484
352.000	249.020	80.015	20.003	101.035	20.119	4.402	0.508
360.000	252.995	80.014	20.004	101.043	20.123	4.122	0.462
368.000	257.004	80.014	20.003	101.036	20.119	4.385	0.486
376.000	260.993	80.015	20.003	101.042	20.117	4.527	0.499
384.000	265.012	80.013	20.003	101.026	20.114	4.749	0.506
392.000	268.926	80.011	20.004	101.042	20.116	4.623	0.477
400.000	272.992	80.011	20.006	101.049	20.114	4.756	0.498
408.000	277.009	80.012	20.008	101.036	20.111	4.939	0.506
416.000	280.963	80.014	20.004	101.027	20.108	5.135	0.490
424.000	284.981	80.014	20.004	101.025	20.106	5.268	0.478
432.000	288.938	80.017	20.003	101.024	20.104	5.462	0.504
440.000	292.911	80.016	20.002	101.027	20.099	5.798	0.472
448.000	296.932	80.015	20.003	101.021	20.097	5.899	0.539
456.000	300.908	80.013	20.003	101.028	20.094	6.116	0.482
464.000	304.959	80.014	20.003	101.029	20.089	6.493	0.484
472.000	308.941	80.015	20.004	101.029	20.082	6.978	0.526
480.000	313.034	79.994	19.998	100.999	20.079	7.163	0.522
488.000	317.070	79.997	19.995	100.993	20.071	7.736	0.492
496.000	321.144	79.997	19.997	100.990	20.070	7.846	0.543
504.000	325.194	79.995	19.997	100.986	20.061	8.428	0.521
512.000	329.152	79.997	19.997	100.987	20.055	8.859	0.470
520.000	333.236	79.998	19.996	100.991	20.045	9.598	0.489
528.000	337.245	79.994	19.995	100.990	20.031	10.531	0.485
536.000	341.241	79.994	19.996	100.992	20.020	11.305	0.471
544.000	345.185	80.013	20.002	101.008	20.003	12.476	0.475
552.000	349.266	79.997	19.995	100.986	19.987	13.598	0.524
560.000	353.266	79.996	19.995	100.992	19.964	15.225	0.499
568.000	357.306	79.996	19.996	100.987	19.941	16.825	0.513
576.000	361.318	79.998	19.996	100.988	19.913	18.790	0.495
584.000	365.291	79.996	19.995	100.987	19.881	21.078	0.473
592.000	369.380	79.996	19.996	100.987	19.843	23.718	0.516
600.000	373.447	79.996	19.996	100.987	19.802	26.561	0.489
608.000	377.463	79.995	19.995	100.986	19.759	29.622	0.461
616.000	381.506	79.994	19.995	100.981	19.710	33.015	0.507
624.000	385.551	79.997	19.996	100.984	19.665	36.189	0.468
632.000	389.573	79.997	19.996	100.957	19.610	39.995	0.507
640.001	393.654	79.995	19.996	100.966	19.558	43.624	0.484
648.000	397.719	79.995	19.996	100.969	19.508	47.142	0.490
656.000	401.755	79.997	19.994	100.962	19.448	51.359	0.484
664.000	405.748	79.996	19.995	100.951	19.381	56.025	0.464
672.000	409.791	79.996	19.996	100.942	19.309	61.072	0.499
680.000	413.726	79.998	19.995	100.916	19.234	66.302	0.489
688.000	417.641	79.996	19.995	100.912	19.152	72.028	0.486
696.000	421.648	79.994	19.996	100.913	19.063	78.241	0.519
704.000	425.691	79.995	19.996	100.896	18.961	85.368	0.510
712.000	429.730	79.997	19.996	100.870	18.841	93.716	0.519
720.000	433.742	79.994	19.995	100.873	18.721	102.139	0.516
728.000	437.732	79.994	19.996	100.841	18.586	111.540	0.490
736.000	441.730	79.997	19.995	100.818	18.443	121.489	0.495
744.000	445.695	79.998	19.996	100.793	18.304	131.176	0.528
752.000	449.597	79.996	19.996	100.754	18.180	139.793	0.485
760.000	453.552	79.998	19.998	100.738	18.077	146.968	0.510
768.000	457.591	80.000	19.996	100.710	18.008	151.759	0.503
776.000	461.768	79.995	19.995	100.703	17.981	153.616	0.509
784.000	465.991	79.996	19.995	100.676	18.014	151.280	0.539
792.000	470.347	79.996	19.997	100.676	18.149	141.893	0.571
800.000	474.759	79.996	19.997	100.689	18.412	123.539	0.550
808.000	479.203	79.995	19.996	100.705	18.798	96.641	0.563
816.000	483.624	79.997	19.996	100.731	19.293	62.142	0.566
824.000	487.998	79.998	19.995	100.829	19.758	29.678	0.560
832.000	492.360	79.997	19.996	100.919	19.988	13.564	0.518
840.000	496.772	79.997	19.996	100.947	20.060	8.528	0.529
848.000	501.054	79.999	19.994	100.954	20.073	7.623	0.554
856.000	505.325	79.995	19.995	100.951	20.083	6.904	0.528
864.000	509.505	79.996	19.995	100.952	20.081	7.061	0.504
872.000	513.637	79.994	19.996	100.960	20.081	7.074	0.499
880.000	517.746	79.996	19.998	100.947	20.078	7.219	0.494
888.000	521.850	79.994	19.996	100.954	20.076	7.382	0.500
896.000	525.930	79.996	19.996	100.960	20.077	7.320	0.545
904.000	530.008	79.998	19.995	100.961	20.082	6.979	0.513
912.000	534.157	79.996	19.995	100.965	20.082	6.970	0.534
920.000	538.268	79.997	19.996	100.958	20.081	7.071	0.533
928.000	542.360	79.999	19.995	100.956	20.079	7.213	0.524
936.000	546.396	79.997	19.996	100.973	20.081	7.042	0.543
944.000	550.505	79.997	19.997	100.953	20.078	7.270	0.512
952.000	554.607	79.994	19.995	100.968	20.085	6.766	0.504
960.000	558.639	79.996	19.996	100.966	20.080	7.092	0.523
968.000	562.767	79.995	19.995	100.960	20.080	7.081	0.521
976.000	566.823	79.994	19.997	100.940	20.081	7.059	0.511
984.000	570.870	79.996	19.996	100.968	20.075	7.447	0.495
992.000	574.964	79.996	19.995	100.975	20.076	7.400	0.521
1000.000	579.047	79.997	19.996	100.980	20.076	7.383	0.507
1008.000	583.111	79.997	19.995	100.977	20.074	7.553	0.505
1016.000	587.178	79.999	19.997	100.982	20.075	7.463	0.503
1024.000	591.244	79.995	19.995	100.966	20.071	7.730	0.522
1031.999	595.312	79.996	19.995	100.978	20.071	7.739	0.526
1040.000	599.411	79.996	19.995	100.984	20.072	7.681	0.548
1047.999	603.490	79.995	19.996	100.990	20.069	7.866	0.549
1055.999	607.498	79.994	19.996	101.001	20.066	8.123	0.482
1063.999	611.542	79.997	19.996	101.016	20.066	8.062	0.509
1072.000	615.579	79.996	19.995	101.012	20.064	8.205	0.524
1080.000	619.635	79.997	19.996	101.022	20.063	8.289	0.506
1088.000	623.732	79.999	19.996	101.028	20.062	8.348	0.523
1096.000	627.810	79.999	19.995	101.027	20.061	8.440	0.515
1104.000	631.926	79.997	19.997	101.031	20.062	8.346	0.513
1112.000	636.010	79.995	19.995	101.031	20.064	8.220	0.529
1120.000	640.092	79.996	19.995	101.038	20.060	8.494	0.510
1128.000	644.155	79.996	19.996	101.053	20.056	8.786	0.509
1136.000	648.192	79.995	19.996	101.055	20.057	8.764	0.507
1144.000	652.295	79.998	19.996	101.070	20.049	9.298	0.522
1152.000	656.318	79.997	19.996	101.071	20.051	9.185	0.494
1160.000	660.337	79.996	19.996	101.078	20.044	9.679	0.499
1168.000	664.406	79.997	19.996	101.101	20.045	9.561	0.537
1176.000	668.386	79.998	19.994	101.102	20.043	9.730	0.443
1184.000	672.416	79.995	19.995	101.114	20.035	10.274	0.488
1192.000	676.508	79.996	19.996	101.131	20.035	10.285	0.513
1200.000	680.391	79.995	19.996	101.131	20.032	10.499	0.481
1208.000	684.400	79.995	19.996	101.143	20.030	10.663	0.489
1216.000	688.380	79.996	19.996	101.149	20.028	10.758	0.476
1224.000	692.437	79.996	19.997	101.175	20.026	10.915	0.492
1232.000	696.521	79.996	19.996	101.180	20.024	11.077	0.526
1240.000	700.561	79.997	19.997	101.205	20.015	11.681	0.502
1248.000	704.608	79.997	19.996	101.212	20.018	11.478	0.493
1256.000	708.615	79.998	19.997	101.223	20.015	11.660	0.510
1264.000	712.656	79.997	19.996	101.222	20.009	12.142	0.490
1272.000	716.715	79.995	19.994	101.254	20.008	12.154	0.484
1280.000	720.769	79.996	19.995	101.221	20.007	12.275	0.466
1288.000	724.854	79.996	19.996	101.219	20.012	11.869	0.498
1296.000	728.946	79.995	19.996	101.168	20.017	11.502	0.521
1304.000	733.118	79.999	19.997	101.077	20.033	10.432	0.509
1312.000	737.243	79.996	19.995	101.030	20.041	9.849	0.512
1320.000	741.366	79.993	19.995	101.004	20.048	9.327	0.510
1324.500	743.638	79.996	19.997	100.988	20.046	9.506	0.510