File: 01_Data/Polyolefin_Carpet_Low_Pile/MCC/Polyolefin_Carpet_Low_Pile_MCC_30K_min_211007_R1.txt
Sample ID:	C:\MCC\MCC Cal\Test\Carpet_Polyolefin_LowPile_211007_R1.txt
Sample Weight (mg):	4.38
Heating Rate (C/s):	0.5
Combustor Temp (C):	900
N2 Flow Rate (cc/min):	80
O2 Flow Rate (cc/min):	20
Calibration File:	C:\MCC\MCC Cal\Coeff1 JN10440_30_210304.txt.txt
T Correction Coefficients:	0	1.024463	0
Time Shift (s):	14
*
Time (s)	Temperature (C)	N2 flow rate (cc/min)	O2 flow rate (cc/min)	Flow Rate (cc/min)	Oxygen (%)	HRR (W/g)	Heating rate (C/s)
0.000	106.250	79.997	19.997	100.664	20.267	0.404	0.003
8.000	106.238	79.997	19.996	100.676	20.270	0.240	0.010
16.000	106.201	79.996	19.996	100.701	20.269	0.309	-0.007
24.000	106.339	79.997	19.997	100.747	20.256	1.180	0.034
32.000	106.711	79.998	19.996	100.786	20.248	1.786	0.049
40.000	107.275	79.997	19.996	100.846	20.239	2.430	0.094
48.000	108.227	79.997	19.996	100.883	20.229	3.158	0.134
55.999	109.712	79.999	19.996	100.899	20.224	3.513	0.202
63.999	111.564	79.997	19.996	100.918	20.221	3.746	0.256
71.999	113.732	79.997	19.995	100.928	20.221	3.741	0.274
79.999	116.188	79.997	19.995	100.936	20.218	3.944	0.310
88.000	118.898	79.996	19.997	100.937	20.219	3.841	0.339
95.999	121.892	79.997	19.995	100.940	20.215	4.171	0.385
103.999	124.996	79.997	19.997	100.934	20.215	4.181	0.359
111.999	128.350	79.999	19.995	100.934	20.218	3.977	0.432
119.999	131.759	79.999	19.996	100.934	20.216	4.109	0.457
127.999	135.327	80.000	19.995	100.935	20.217	4.036	0.454
136.000	139.016	79.999	19.995	100.936	20.222	3.631	0.488
144.000	142.813	79.997	19.996	100.937	20.211	4.426	0.525
152.000	146.674	79.997	19.996	100.940	20.211	4.418	0.473
160.000	150.678	79.997	19.994	100.939	20.215	4.193	0.521
168.000	154.645	79.996	19.997	100.933	20.217	4.036	0.501
176.000	158.663	79.996	19.997	100.931	20.216	4.120	0.481
184.000	162.739	79.997	19.997	100.920	20.215	4.197	0.500
192.000	166.796	79.998	19.996	100.906	20.213	4.279	0.498
200.000	170.824	79.996	19.997	100.914	20.217	4.039	0.515
208.000	174.837	79.998	19.996	100.898	20.224	3.530	0.525
216.000	178.846	80.000	19.995	100.892	20.223	3.596	0.528
224.000	182.877	79.998	19.996	100.898	20.219	3.851	0.501
232.000	186.812	79.997	19.996	100.893	20.224	3.488	0.498
240.000	190.772	79.997	19.997	100.893	20.225	3.412	0.471
248.000	194.686	79.999	19.994	100.888	20.228	3.230	0.491
256.000	198.577	79.997	19.996	100.886	20.226	3.392	0.474
264.000	202.567	79.998	19.997	100.884	20.226	3.367	0.507
272.000	206.366	79.998	19.996	100.869	20.225	3.463	0.496
280.000	210.237	79.999	19.997	100.879	20.227	3.310	0.470
288.000	214.181	80.000	19.997	100.868	20.224	3.503	0.483
296.000	218.109	79.999	19.996	100.879	20.226	3.364	0.484
304.000	222.039	79.998	19.996	100.884	20.221	3.752	0.516
312.000	226.028	79.998	19.996	100.862	20.223	3.591	0.494
320.000	229.981	79.998	19.996	100.861	20.223	3.597	0.526
328.000	233.964	79.996	19.997	100.859	20.220	3.797	0.545
336.000	237.937	79.996	19.994	100.863	20.223	3.572	0.499
344.000	241.996	79.998	19.995	100.862	20.226	3.337	0.527
352.000	245.953	79.997	19.996	100.860	20.221	3.761	0.511
360.000	250.073	79.997	19.995	100.856	20.218	3.917	0.522
368.000	254.117	80.000	19.996	100.853	20.230	3.076	0.483
376.000	258.151	79.998	19.997	100.853	20.222	3.659	0.498
384.000	262.153	79.995	19.997	100.854	20.218	3.974	0.501
392.000	266.242	79.996	19.996	100.858	20.224	3.525	0.533
400.000	270.258	79.998	19.995	100.857	20.225	3.448	0.544
408.000	274.313	79.997	19.994	100.855	20.222	3.635	0.470
416.000	278.308	79.997	19.996	100.852	20.219	3.893	0.505
424.000	282.223	79.999	19.996	100.850	20.216	4.083	0.508
432.000	286.154	79.998	19.996	100.851	20.217	4.013	0.459
440.000	290.114	79.998	19.996	100.846	20.211	4.469	0.492
448.000	294.058	80.001	19.996	100.835	20.215	4.142	0.512
456.000	298.125	79.999	19.995	100.846	20.212	4.349	0.544
464.000	302.072	79.997	19.997	100.832	20.208	4.633	0.483
472.000	306.063	79.996	19.996	100.834	20.210	4.530	0.512
480.000	310.039	79.998	19.995	100.829	20.202	5.126	0.491
488.000	314.083	79.997	19.996	100.824	20.195	5.591	0.502
496.000	318.064	79.997	19.995	100.835	20.190	5.936	0.485
504.000	322.049	79.999	19.997	100.841	20.187	6.167	0.512
512.000	326.085	79.998	19.996	100.828	20.176	6.973	0.469
520.000	330.101	79.998	19.995	100.827	20.171	7.286	0.452
528.000	334.356	79.998	19.995	100.830	20.165	7.739	0.557
536.000	338.332	79.997	19.995	100.834	20.152	8.648	0.486
544.000	342.452	79.996	19.997	100.839	20.143	9.356	0.515
552.000	346.545	79.996	19.996	100.830	20.127	10.447	0.503
560.000	350.687	79.997	19.996	100.818	20.110	11.667	0.543
568.000	354.889	79.996	19.996	100.822	20.093	12.910	0.511
576.000	358.981	79.997	19.996	100.825	20.072	14.431	0.478
584.000	363.130	80.001	19.996	100.825	20.044	16.457	0.520
592.000	367.109	79.998	19.994	100.826	20.010	18.873	0.497
600.000	371.336	79.999	19.995	100.824	19.972	21.632	0.520
608.000	375.180	80.000	19.995	100.820	19.935	24.273	0.248
616.000	379.470	79.997	19.995	100.820	19.885	27.888	0.510
624.000	383.554	79.997	19.997	100.822	19.833	31.612	0.496
632.000	387.531	79.998	19.995	100.817	19.788	34.832	0.519
640.000	391.557	79.996	19.996	100.820	19.738	38.415	0.500
648.000	395.633	79.996	19.998	100.810	19.687	42.038	0.522
656.000	399.668	79.998	19.996	100.804	19.631	46.116	0.513
664.000	403.630	80.000	19.994	100.813	19.575	50.102	0.479
672.000	407.675	79.999	19.996	100.782	19.525	53.662	0.491
680.000	411.669	80.000	19.995	100.781	19.452	58.943	0.521
688.000	415.591	80.001	19.994	100.775	19.379	64.171	0.496
696.000	419.542	79.997	19.996	100.767	19.302	69.653	0.438
704.000	423.496	79.996	19.996	100.742	19.214	75.988	0.486
712.000	427.450	79.996	19.996	100.740	19.117	82.885	0.502
720.000	431.290	79.996	19.995	100.722	19.010	90.560	0.468
728.000	435.321	79.996	19.995	100.703	18.903	98.284	0.514
736.000	439.322	79.999	19.996	100.697	18.765	108.141	0.502
744.000	443.395	79.998	19.997	100.660	18.623	118.270	0.541
752.000	447.501	79.998	19.996	100.649	18.482	128.364	0.502
760.000	451.652	79.998	19.996	100.621	18.354	137.459	0.528
768.000	455.866	79.999	19.995	100.591	18.245	145.245	0.494
776.000	460.137	79.997	19.997	100.578	18.178	150.044	0.513
784.000	464.377	79.997	19.996	100.547	18.152	151.868	0.524
792.000	468.568	79.997	19.996	100.541	18.207	147.918	0.525
800.000	472.778	79.997	19.996	100.525	18.362	136.841	0.528
808.000	476.929	79.996	19.995	100.533	18.641	116.899	0.496
816.000	481.154	79.999	19.995	100.548	19.015	90.165	0.544
824.000	485.329	79.997	19.996	100.579	19.484	56.579	0.566
832.000	489.507	79.998	19.996	100.696	19.917	25.529	0.561
840.000	493.598	80.001	19.995	100.771	20.131	10.212	0.492
848.000	497.719	79.998	19.995	100.782	20.195	5.596	0.508
856.000	501.814	79.997	19.995	100.798	20.214	4.206	0.533
864.000	505.917	79.998	19.996	100.790	20.221	3.709	0.539
872.000	509.996	79.998	19.996	100.806	20.220	3.785	0.508
880.000	514.027	79.997	19.995	100.801	20.222	3.663	0.491
888.000	518.125	79.996	19.998	100.797	20.222	3.664	0.493
896.000	522.174	79.998	19.996	100.802	20.226	3.345	0.491
904.000	526.297	79.997	19.996	100.813	20.223	3.589	0.540
912.000	530.407	79.996	19.997	100.788	20.224	3.511	0.545
920.000	534.533	79.999	19.996	100.811	20.228	3.202	0.542
928.000	538.639	79.998	19.995	100.794	20.226	3.386	0.486
936.000	542.752	79.998	19.997	100.811	20.227	3.273	0.523
944.000	546.832	79.998	19.997	100.806	20.225	3.462	0.496
952.000	550.921	79.997	19.996	100.808	20.227	3.304	0.498
960.000	555.021	79.997	19.995	100.809	20.225	3.439	0.532
968.000	559.108	79.998	19.996	100.813	20.226	3.349	0.546
976.000	563.188	79.997	19.996	100.815	20.231	3.019	0.519
984.000	567.223	79.998	19.996	100.816	20.228	3.241	0.487
992.000	571.286	79.998	19.995	100.806	20.229	3.189	0.492
1000.000	575.385	80.000	19.995	100.804	20.231	3.001	0.528
1008.000	579.460	79.997	19.996	100.802	20.226	3.396	0.516
1016.000	583.553	79.997	19.995	100.812	20.229	3.158	0.479
1024.000	587.640	79.996	19.997	100.819	20.230	3.060	0.536
1031.999	591.707	79.996	19.997	100.819	20.229	3.138	0.543
1040.000	595.771	79.997	19.997	100.821	20.224	3.488	0.488
1047.999	599.819	79.997	19.996	100.821	20.220	3.797	0.495
1055.999	603.914	79.999	19.996	100.828	20.222	3.630	0.491
1064.000	608.033	79.998	19.997	100.823	20.221	3.751	0.497
1071.999	612.221	79.999	19.996	100.836	20.222	3.673	0.523
1079.999	616.376	80.000	19.996	100.842	20.216	4.113	0.518
1087.999	620.515	79.997	19.997	100.852	20.217	3.990	0.533
1095.999	624.707	79.997	19.997	100.857	20.218	3.910	0.534
1103.999	628.817	79.996	19.997	100.860	20.219	3.908	0.509
1112.000	632.882	79.999	19.996	100.856	20.214	4.266	0.509
1119.999	636.999	79.997	19.995	100.874	20.210	4.549	0.488
1127.999	641.066	79.998	19.996	100.834	20.211	4.464	0.534
1135.999	645.100	79.998	19.994	100.876	20.210	4.551	0.491
1143.999	649.199	79.999	19.995	100.887	20.205	4.905	0.510
1151.999	653.209	79.998	19.996	100.897	20.208	4.633	0.521
1159.999	657.262	79.999	19.996	100.900	20.199	5.322	0.517
1167.999	661.305	79.996	19.995	100.905	20.198	5.374	0.490
1176.000	665.317	79.996	19.995	100.923	20.197	5.453	0.501
1184.000	669.389	79.996	19.996	100.933	20.192	5.817	0.498
1191.999	673.440	79.996	19.998	100.934	20.195	5.592	0.471
1200.000	677.586	79.995	19.995	100.944	20.194	5.648	0.507
1207.999	681.691	79.998	19.997	100.947	20.184	6.359	0.536
1216.000	685.698	79.998	19.996	100.968	20.187	6.161	0.539
1224.000	689.746	79.997	19.995	100.967	20.180	6.682	0.482
1231.999	693.803	79.999	19.995	100.979	20.178	6.816	0.488
1239.999	697.839	79.999	19.995	100.980	20.172	7.260	0.486
1247.999	701.887	79.997	19.996	100.999	20.174	7.150	0.509
1255.999	705.944	79.997	19.998	101.014	20.174	7.118	0.498
1263.999	710.029	79.998	19.997	101.024	20.177	6.911	0.515
1271.999	714.106	79.997	19.996	101.039	20.176	6.972	0.498
1280.000	718.113	79.995	19.997	101.050	20.175	7.061	0.478
1287.999	722.129	79.997	19.995	101.050	20.171	7.338	0.533
1295.999	726.073	79.999	19.996	101.019	20.179	6.787	0.492
1304.000	730.121	79.998	19.996	100.973	20.177	6.860	0.515
1311.999	734.230	79.999	19.997	100.881	20.191	5.883	0.504
1319.999	738.333	80.000	19.996	100.821	20.202	5.084	0.494
1327.999	742.392	79.998	19.996	100.807	20.204	4.953	0.502
1332.999	744.938	79.998	19.995	100.800	20.208	4.648	0.501