File: 01_Data/Asphalt_Shingle/FTIR/IS/Asphalt_Shingle_IS_S_220831_R1.dpt
7497.03,0.04942
7473.89,0.05963
7450.74,0.05248
7427.6,0.05191
7404.45,0.05556
7381.31,0.05483
7358.16,0.05971
7335.02,0.06126
7311.87,0.05922
7288.73,0.05648
7265.58,0.05083
7242.44,0.04933
7219.29,0.05462
7196.15,0.05640
7173,0.05313
7149.86,0.05209
7126.71,0.04993
7103.57,0.05224
7080.42,0.05896
7057.28,0.05659
7034.13,0.06027
7010.99,0.05804
6987.84,0.05454
6964.7,0.04955
6941.55,0.05872
6918.41,0.05748
6895.26,0.05404
6872.12,0.05288
6848.97,0.05849
6825.83,0.05325
6802.68,0.05477
6779.54,0.05880
6756.39,0.05671
6733.25,0.05630
6710.1,0.04808
6686.96,0.05762
6663.82,0.05349
6640.67,0.05537
6617.53,0.05610
6594.38,0.05820
6571.24,0.05845
6548.09,0.05517
6524.95,0.05650
6501.8,0.05441
6478.66,0.05842
6455.51,0.05325
6432.37,0.05906
6409.22,0.05465
6386.08,0.05625
6362.93,0.05423
6339.79,0.05822
6316.64,0.06122
6293.5,0.05728
6270.35,0.05642
6247.21,0.05538
6224.06,0.05756
6200.92,0.05502
6177.77,0.05819
6154.63,0.05901
6131.48,0.05769
6108.34,0.06108
6085.19,0.05980
6062.05,0.05951
6038.9,0.06009
6015.76,0.06108
5992.61,0.06194
5969.47,0.05885
5946.32,0.05851
5923.18,0.05847
5900.03,0.06076
5876.89,0.06115
5853.74,0.06094
5830.6,0.05946
5807.45,0.06027
5784.31,0.06054
5761.16,0.06220
5738.02,0.05881
5714.87,0.06096
5691.73,0.06080
5668.58,0.06052
5645.44,0.06002
5622.29,0.06211
5599.15,0.06076
5576,0.06148
5552.86,0.06130
5529.71,0.06319
5506.57,0.06045
5483.42,0.06188
5460.28,0.06094
5437.13,0.06159
5413.99,0.06180
5390.84,0.06204
5367.7,0.06130
5344.55,0.06148
5321.41,0.06165
5298.26,0.06304
5275.12,0.06244
5251.97,0.06291
5228.83,0.06190
5205.68,0.06141
5182.54,0.06345
5159.39,0.06320
5136.25,0.06082
5113.1,0.06227
5089.96,0.06368
5066.81,0.06395
5043.67,0.06352
5020.52,0.06293
4997.38,0.06356
4974.23,0.06450
4951.09,0.06289
4927.94,0.06473
4904.8,0.06410
4881.65,0.06536
4858.51,0.06528
4835.36,0.06431
4812.22,0.06621
4789.07,0.06526
4765.93,0.06563
4742.78,0.06571
4719.64,0.06619
4696.49,0.06592
4673.35,0.06561
4650.2,0.06565
4627.06,0.06617
4603.92,0.06627
4580.77,0.06572
4557.63,0.06555
4534.48,0.06633
4511.34,0.06531
4488.19,0.06491
4465.05,0.06317
4441.9,0.06141
4418.76,0.06154
4395.61,0.06180
4372.47,0.06113
4349.32,0.06067
4326.18,0.05875
4303.03,0.05742
4279.89,0.05720
4256.74,0.05702
4233.6,0.06050
4210.45,0.06184
4187.31,0.06183
4164.16,0.06275
4141.02,0.06286
4117.87,0.06468
4094.73,0.06414
4071.58,0.06326
4048.44,0.06275
4025.29,0.06199
4002.15,0.06174
3979,0.06225
3955.86,0.06180
3932.71,0.06195
3909.57,0.06195
3886.42,0.06156
3863.28,0.06221
3840.13,0.06250
3816.99,0.06214
3793.84,0.06192
3770.7,0.06179
3747.55,0.06115
3724.41,0.05909
3701.26,0.05143
3678.12,0.04528
3654.97,0.04330
3631.83,0.04316
3608.68,0.04211
3585.54,0.04045
3562.39,0.04000
3539.25,0.03915
3516.1,0.03917
3492.96,0.03874
3469.81,0.03892
3446.67,0.03838
3423.52,0.03836
3400.38,0.03841
3377.23,0.03791
3354.09,0.03751
3330.94,0.03929
3307.8,0.03965
3284.65,0.03954
3261.51,0.04042
3238.36,0.04147
3215.22,0.04233
3192.07,0.04271
3168.93,0.04327
3145.78,0.04389
3122.64,0.04564
3099.49,0.04655
3076.35,0.04681
3053.2,0.04668
3030.06,0.04756
3006.91,0.04771
2983.77,0.04686
2960.62,0.04311
2937.48,0.04193
2914.33,0.04496
2891.19,0.04729
2868.04,0.04709
2844.9,0.04949
2821.75,0.05332
2798.61,0.05488
2775.46,0.05623
2752.32,0.05690
2729.17,0.05693
2706.03,0.05732
2682.88,0.05796
2659.74,0.05795
2636.59,0.05864
2613.45,0.05847
2590.3,0.05878
2567.16,0.05903
2544.02,0.05896
2520.87,0.05829
2497.73,0.05883
2474.58,0.05974
2451.44,0.06030
2428.29,0.06020
2405.15,0.05972
2382,0.05963
2358.86,0.05846
2335.71,0.05816
2312.57,0.05819
2289.42,0.05755
2266.28,0.05660
2243.13,0.05594
2219.99,0.05510
2196.84,0.05359
2173.7,0.05178
2150.55,0.05057
2127.41,0.04964
2104.26,0.04874
2081.12,0.04737
2057.97,0.04690
2034.83,0.04588
2011.68,0.04520
1988.54,0.04523
1965.39,0.04508
1942.25,0.04498
1919.1,0.04470
1895.96,0.04398
1872.81,0.04405
1849.67,0.04385
1826.52,0.04362
1803.38,0.04168
1780.23,0.04110
1757.09,0.04030
1733.94,0.03951
1710.8,0.03914
1687.65,0.03845
1664.51,0.03908
1641.36,0.03949
1618.22,0.04024
1595.07,0.04121
1571.93,0.04484
1548.78,0.04973
1525.64,0.04811
1502.49,0.04566
1479.35,0.04313
1456.2,0.04019
1433.06,0.04024
1409.91,0.03989
1386.77,0.03810
1363.62,0.03842
1340.48,0.03791
1317.33,0.03747
1294.19,0.03734
1271.04,0.03578
1247.9,0.03356
1224.75,0.03480
1201.61,0.03566
1178.46,0.03650
1155.32,0.03938
1132.17,0.04480
1109.03,0.05362
1085.88,0.06219
1062.74,0.06441
1039.59,0.06966
1016.45,0.06987
993.304,0.07576
970.159,0.07219
947.014,0.07200
923.869,0.06372
900.724,0.06291
877.579,0.05882
854.434,0.05365
831.289,0.04839
808.144,0.04596
784.999,0.04570
761.854,0.04521
738.709,0.04586
715.565,0.04539
692.42,0.04412
669.275,0.04451
646.13,0.04652
622.985,0.04383
599.84,0.04305