File: 01_Data/Asphalt_Shingle/FTIR/IS/Asphalt_Shingle_IS_S_220831_R7.dpt
7497.03,0.05587
7473.89,0.06118
7450.74,0.05359
7427.6,0.05853
7404.45,0.04764
7381.31,0.06041
7358.16,0.06086
7335.02,0.05719
7311.87,0.05521
7288.73,0.05479
7265.58,0.05462
7242.44,0.05146
7219.29,0.05158
7196.15,0.06200
7173,0.05601
7149.86,0.05756
7126.71,0.05322
7103.57,0.05909
7080.42,0.05366
7057.28,0.05863
7034.13,0.05684
7010.99,0.05485
6987.84,0.05541
6964.7,0.05703
6941.55,0.06028
6918.41,0.05314
6895.26,0.05482
6872.12,0.05809
6848.97,0.05186
6825.83,0.05582
6802.68,0.05966
6779.54,0.05634
6756.39,0.05474
6733.25,0.06210
6710.1,0.05557
6686.96,0.05389
6663.82,0.05790
6640.67,0.05739
6617.53,0.05350
6594.38,0.05813
6571.24,0.05929
6548.09,0.05821
6524.95,0.05614
6501.8,0.05789
6478.66,0.05553
6455.51,0.05478
6432.37,0.05548
6409.22,0.05528
6386.08,0.05577
6362.93,0.06036
6339.79,0.05713
6316.64,0.05515
6293.5,0.05652
6270.35,0.05868
6247.21,0.05880
6224.06,0.05691
6200.92,0.05578
6177.77,0.06034
6154.63,0.05734
6131.48,0.05868
6108.34,0.05778
6085.19,0.05495
6062.05,0.05822
6038.9,0.05681
6015.76,0.05919
5992.61,0.05900
5969.47,0.05899
5946.32,0.06219
5923.18,0.05838
5900.03,0.05773
5876.89,0.06129
5853.74,0.05778
5830.6,0.06209
5807.45,0.05811
5784.31,0.05950
5761.16,0.06054
5738.02,0.06153
5714.87,0.05978
5691.73,0.06060
5668.58,0.06268
5645.44,0.05969
5622.29,0.06089
5599.15,0.06088
5576,0.06244
5552.86,0.05976
5529.71,0.06253
5506.57,0.06143
5483.42,0.06315
5460.28,0.06156
5437.13,0.06295
5413.99,0.06280
5390.84,0.06357
5367.7,0.06071
5344.55,0.06306
5321.41,0.06267
5298.26,0.06211
5275.12,0.06251
5251.97,0.06302
5228.83,0.06315
5205.68,0.06459
5182.54,0.06298
5159.39,0.06489
5136.25,0.06461
5113.1,0.06335
5089.96,0.06359
5066.81,0.06344
5043.67,0.06426
5020.52,0.06378
4997.38,0.06452
4974.23,0.06318
4951.09,0.06575
4927.94,0.06486
4904.8,0.06503
4881.65,0.06509
4858.51,0.06529
4835.36,0.06574
4812.22,0.06485
4789.07,0.06695
4765.93,0.06599
4742.78,0.06698
4719.64,0.06476
4696.49,0.06575
4673.35,0.06588
4650.2,0.06686
4627.06,0.06642
4603.92,0.06604
4580.77,0.06673
4557.63,0.06578
4534.48,0.06610
4511.34,0.06568
4488.19,0.06424
4465.05,0.06369
4441.9,0.06225
4418.76,0.06174
4395.61,0.06311
4372.47,0.06167
4349.32,0.06083
4326.18,0.05908
4303.03,0.05886
4279.89,0.05718
4256.74,0.05822
4233.6,0.06044
4210.45,0.06275
4187.31,0.06242
4164.16,0.06297
4141.02,0.06427
4117.87,0.06387
4094.73,0.06350
4071.58,0.06341
4048.44,0.06264
4025.29,0.06295
4002.15,0.06253
3979,0.06235
3955.86,0.06155
3932.71,0.06209
3909.57,0.06244
3886.42,0.06237
3863.28,0.06223
3840.13,0.06252
3816.99,0.06227
3793.84,0.06215
3770.7,0.06218
3747.55,0.06188
3724.41,0.05951
3701.26,0.05173
3678.12,0.04579
3654.97,0.04346
3631.83,0.04306
3608.68,0.04165
3585.54,0.04094
3562.39,0.03951
3539.25,0.03966
3516.1,0.03909
3492.96,0.03868
3469.81,0.03847
3446.67,0.03833
3423.52,0.03819
3400.38,0.03887
3377.23,0.03798
3354.09,0.03869
3330.94,0.03863
3307.8,0.03827
3284.65,0.04061
3261.51,0.04035
3238.36,0.04119
3215.22,0.04158
3192.07,0.04293
3168.93,0.04375
3145.78,0.04454
3122.64,0.04537
3099.49,0.04611
3076.35,0.04708
3053.2,0.04740
3030.06,0.04803
3006.91,0.04806
2983.77,0.04774
2960.62,0.04371
2937.48,0.04224
2914.33,0.04559
2891.19,0.04776
2868.04,0.04763
2844.9,0.04947
2821.75,0.05420
2798.61,0.05533
2775.46,0.05680
2752.32,0.05700
2729.17,0.05732
2706.03,0.05798
2682.88,0.05834
2659.74,0.05857
2636.59,0.05861
2613.45,0.05932
2590.3,0.05919
2567.16,0.05941
2544.02,0.05964
2520.87,0.05878
2497.73,0.05941
2474.58,0.05974
2451.44,0.06057
2428.29,0.06043
2405.15,0.06014
2382,0.06020
2358.86,0.05921
2335.71,0.05882
2312.57,0.05841
2289.42,0.05824
2266.28,0.05701
2243.13,0.05629
2219.99,0.05552
2196.84,0.05411
2173.7,0.05214
2150.55,0.05112
2127.41,0.04980
2104.26,0.04915
2081.12,0.04774
2057.97,0.04731
2034.83,0.04569
2011.68,0.04543
1988.54,0.04595
1965.39,0.04552
1942.25,0.04540
1919.1,0.04488
1895.96,0.04457
1872.81,0.04414
1849.67,0.04440
1826.52,0.04367
1803.38,0.04241
1780.23,0.04119
1757.09,0.04060
1733.94,0.03979
1710.8,0.03897
1687.65,0.03866
1664.51,0.03885
1641.36,0.03976
1618.22,0.04011
1595.07,0.04166
1571.93,0.04493
1548.78,0.04937
1525.64,0.04861
1502.49,0.04610
1479.35,0.04372
1456.2,0.04034
1433.06,0.04032
1409.91,0.03982
1386.77,0.03845
1363.62,0.03827
1340.48,0.03841
1317.33,0.03769
1294.19,0.03738
1271.04,0.03556
1247.9,0.03415
1224.75,0.03493
1201.61,0.03626
1178.46,0.03694
1155.32,0.03903
1132.17,0.04528
1109.03,0.05397
1085.88,0.06193
1062.74,0.06367
1039.59,0.06954
1016.45,0.07026
993.304,0.07500
970.159,0.07330
947.014,0.07234
923.869,0.06324
900.724,0.06269
877.579,0.05860
854.434,0.05419
831.289,0.04925
808.144,0.04593
784.999,0.04594
761.854,0.04596
738.709,0.04659
715.565,0.04550
692.42,0.04400
669.275,0.04435
646.13,0.04614
622.985,0.04262
599.84,0.04052