File: 01_Data/Asphalt_Shingle/FTIR/IS/Asphalt_Shingle_IS_S_220831_R3.dpt
7497.03,0.05238
7473.89,0.06820
7450.74,0.05011
7427.6,0.04966
7404.45,0.05476
7381.31,0.06062
7358.16,0.05722
7335.02,0.06147
7311.87,0.05360
7288.73,0.05708
7265.58,0.06362
7242.44,0.05994
7219.29,0.05383
7196.15,0.05119
7173,0.05283
7149.86,0.05452
7126.71,0.06129
7103.57,0.05093
7080.42,0.05202
7057.28,0.05235
7034.13,0.05707
7010.99,0.04962
6987.84,0.06075
6964.7,0.05307
6941.55,0.05531
6918.41,0.05591
6895.26,0.05522
6872.12,0.05977
6848.97,0.05945
6825.83,0.05642
6802.68,0.05351
6779.54,0.05690
6756.39,0.06310
6733.25,0.05449
6710.1,0.05524
6686.96,0.05215
6663.82,0.05712
6640.67,0.06025
6617.53,0.05843
6594.38,0.05621
6571.24,0.05687
6548.09,0.05754
6524.95,0.05682
6501.8,0.05779
6478.66,0.05204
6455.51,0.05507
6432.37,0.05906
6409.22,0.05539
6386.08,0.05971
6362.93,0.05898
6339.79,0.05893
6316.64,0.05868
6293.5,0.05603
6270.35,0.05674
6247.21,0.05725
6224.06,0.05436
6200.92,0.05770
6177.77,0.05671
6154.63,0.05624
6131.48,0.05815
6108.34,0.05807
6085.19,0.05889
6062.05,0.06023
6038.9,0.05900
6015.76,0.05976
5992.61,0.05696
5969.47,0.06031
5946.32,0.05887
5923.18,0.05850
5900.03,0.05779
5876.89,0.05757
5853.74,0.06146
5830.6,0.06194
5807.45,0.05822
5784.31,0.06117
5761.16,0.05910
5738.02,0.05923
5714.87,0.05938
5691.73,0.05990
5668.58,0.05914
5645.44,0.05998
5622.29,0.06231
5599.15,0.06180
5576,0.06024
5552.86,0.06166
5529.71,0.06185
5506.57,0.06168
5483.42,0.06318
5460.28,0.06124
5437.13,0.06258
5413.99,0.06300
5390.84,0.06184
5367.7,0.06150
5344.55,0.06121
5321.41,0.06197
5298.26,0.06318
5275.12,0.06217
5251.97,0.06226
5228.83,0.06332
5205.68,0.06318
5182.54,0.06360
5159.39,0.06292
5136.25,0.06226
5113.1,0.06263
5089.96,0.06322
5066.81,0.06342
5043.67,0.06351
5020.52,0.06340
4997.38,0.06477
4974.23,0.06341
4951.09,0.06505
4927.94,0.06476
4904.8,0.06398
4881.65,0.06421
4858.51,0.06516
4835.36,0.06494
4812.22,0.06487
4789.07,0.06569
4765.93,0.06594
4742.78,0.06595
4719.64,0.06574
4696.49,0.06606
4673.35,0.06490
4650.2,0.06707
4627.06,0.06646
4603.92,0.06641
4580.77,0.06579
4557.63,0.06507
4534.48,0.06569
4511.34,0.06477
4488.19,0.06563
4465.05,0.06427
4441.9,0.06103
4418.76,0.06238
4395.61,0.06203
4372.47,0.06185
4349.32,0.06061
4326.18,0.05911
4303.03,0.05793
4279.89,0.05656
4256.74,0.05727
4233.6,0.06049
4210.45,0.06176
4187.31,0.06325
4164.16,0.06262
4141.02,0.06267
4117.87,0.06361
4094.73,0.06368
4071.58,0.06280
4048.44,0.06225
4025.29,0.06199
4002.15,0.06243
3979,0.06214
3955.86,0.06112
3932.71,0.06162
3909.57,0.06196
3886.42,0.06178
3863.28,0.06230
3840.13,0.06185
3816.99,0.06197
3793.84,0.06232
3770.7,0.06223
3747.55,0.06184
3724.41,0.05907
3701.26,0.05076
3678.12,0.04564
3654.97,0.04360
3631.83,0.04248
3608.68,0.04200
3585.54,0.04013
3562.39,0.03952
3539.25,0.03967
3516.1,0.03956
3492.96,0.03878
3469.81,0.03883
3446.67,0.03821
3423.52,0.03828
3400.38,0.03788
3377.23,0.03833
3354.09,0.03833
3330.94,0.03839
3307.8,0.03971
3284.65,0.03934
3261.51,0.04054
3238.36,0.04107
3215.22,0.04169
3192.07,0.04230
3168.93,0.04336
3145.78,0.04390
3122.64,0.04519
3099.49,0.04585
3076.35,0.04625
3053.2,0.04716
3030.06,0.04785
3006.91,0.04819
2983.77,0.04691
2960.62,0.04330
2937.48,0.04176
2914.33,0.04500
2891.19,0.04699
2868.04,0.04703
2844.9,0.04959
2821.75,0.05392
2798.61,0.05543
2775.46,0.05652
2752.32,0.05690
2729.17,0.05678
2706.03,0.05760
2682.88,0.05734
2659.74,0.05822
2636.59,0.05855
2613.45,0.05856
2590.3,0.05898
2567.16,0.05908
2544.02,0.05915
2520.87,0.05839
2497.73,0.05903
2474.58,0.05972
2451.44,0.06004
2428.29,0.06004
2405.15,0.05977
2382,0.05929
2358.86,0.05896
2335.71,0.05808
2312.57,0.05821
2289.42,0.05729
2266.28,0.05702
2243.13,0.05619
2219.99,0.05490
2196.84,0.05375
2173.7,0.05180
2150.55,0.05056
2127.41,0.04953
2104.26,0.04889
2081.12,0.04770
2057.97,0.04674
2034.83,0.04606
2011.68,0.04541
1988.54,0.04540
1965.39,0.04537
1942.25,0.04477
1919.1,0.04452
1895.96,0.04413
1872.81,0.04379
1849.67,0.04389
1826.52,0.04364
1803.38,0.04204
1780.23,0.04113
1757.09,0.04048
1733.94,0.03978
1710.8,0.03919
1687.65,0.03847
1664.51,0.03894
1641.36,0.03963
1618.22,0.03981
1595.07,0.04120
1571.93,0.04493
1548.78,0.04934
1525.64,0.04801
1502.49,0.04576
1479.35,0.04332
1456.2,0.03985
1433.06,0.04038
1409.91,0.03982
1386.77,0.03809
1363.62,0.03830
1340.48,0.03795
1317.33,0.03689
1294.19,0.03674
1271.04,0.03555
1247.9,0.03345
1224.75,0.03451
1201.61,0.03581
1178.46,0.03659
1155.32,0.03914
1132.17,0.04495
1109.03,0.05349
1085.88,0.06179
1062.74,0.06431
1039.59,0.06914
1016.45,0.06964
993.304,0.07484
970.159,0.07256
947.014,0.07214
923.869,0.06408
900.724,0.06273
877.579,0.05889
854.434,0.05376
831.289,0.04859
808.144,0.04569
784.999,0.04654
761.854,0.04574
738.709,0.04621
715.565,0.04537
692.42,0.04347
669.275,0.04514
646.13,0.04706
622.985,0.04340
599.84,0.04338