File: 01_Data/Asphalt_Shingle/FTIR/IS/Asphalt_Shingle_IS_S_220831_R6.dpt
7497.03,0.06421
7473.89,0.05931
7450.74,0.05544
7427.6,0.06244
7404.45,0.05218
7381.31,0.05678
7358.16,0.05389
7335.02,0.04934
7311.87,0.05234
7288.73,0.05603
7265.58,0.04755
7242.44,0.05601
7219.29,0.05853
7196.15,0.05296
7173,0.05461
7149.86,0.05583
7126.71,0.05710
7103.57,0.05480
7080.42,0.05942
7057.28,0.05183
7034.13,0.06083
7010.99,0.05471
6987.84,0.05670
6964.7,0.05828
6941.55,0.05805
6918.41,0.05935
6895.26,0.05795
6872.12,0.05767
6848.97,0.05421
6825.83,0.05554
6802.68,0.05637
6779.54,0.05533
6756.39,0.05393
6733.25,0.05768
6710.1,0.05462
6686.96,0.05371
6663.82,0.05976
6640.67,0.05523
6617.53,0.05726
6594.38,0.05799
6571.24,0.05691
6548.09,0.05950
6524.95,0.05499
6501.8,0.05972
6478.66,0.05637
6455.51,0.05696
6432.37,0.05787
6409.22,0.05291
6386.08,0.05855
6362.93,0.05792
6339.79,0.05336
6316.64,0.06009
6293.5,0.05848
6270.35,0.05613
6247.21,0.05820
6224.06,0.05982
6200.92,0.05811
6177.77,0.05865
6154.63,0.05452
6131.48,0.05679
6108.34,0.05629
6085.19,0.05772
6062.05,0.05980
6038.9,0.06135
6015.76,0.05915
5992.61,0.05818
5969.47,0.05871
5946.32,0.06008
5923.18,0.05745
5900.03,0.05693
5876.89,0.05998
5853.74,0.06137
5830.6,0.05940
5807.45,0.06159
5784.31,0.06016
5761.16,0.05987
5738.02,0.05857
5714.87,0.05829
5691.73,0.05977
5668.58,0.06115
5645.44,0.06221
5622.29,0.06126
5599.15,0.05984
5576,0.06178
5552.86,0.06200
5529.71,0.06155
5506.57,0.06165
5483.42,0.06015
5460.28,0.06362
5437.13,0.06163
5413.99,0.06166
5390.84,0.06243
5367.7,0.06353
5344.55,0.06202
5321.41,0.06134
5298.26,0.06330
5275.12,0.06261
5251.97,0.06249
5228.83,0.06200
5205.68,0.06276
5182.54,0.06244
5159.39,0.06294
5136.25,0.06311
5113.1,0.06289
5089.96,0.06367
5066.81,0.06352
5043.67,0.06471
5020.52,0.06320
4997.38,0.06277
4974.23,0.06370
4951.09,0.06409
4927.94,0.06530
4904.8,0.06518
4881.65,0.06423
4858.51,0.06434
4835.36,0.06436
4812.22,0.06604
4789.07,0.06703
4765.93,0.06585
4742.78,0.06471
4719.64,0.06538
4696.49,0.06567
4673.35,0.06521
4650.2,0.06625
4627.06,0.06546
4603.92,0.06578
4580.77,0.06562
4557.63,0.06584
4534.48,0.06536
4511.34,0.06540
4488.19,0.06579
4465.05,0.06411
4441.9,0.06134
4418.76,0.06181
4395.61,0.06189
4372.47,0.06121
4349.32,0.05986
4326.18,0.05864
4303.03,0.05746
4279.89,0.05637
4256.74,0.05792
4233.6,0.06058
4210.45,0.06144
4187.31,0.06190
4164.16,0.06326
4141.02,0.06322
4117.87,0.06414
4094.73,0.06331
4071.58,0.06274
4048.44,0.06271
4025.29,0.06171
4002.15,0.06178
3979,0.06177
3955.86,0.06158
3932.71,0.06157
3909.57,0.06194
3886.42,0.06210
3863.28,0.06157
3840.13,0.06228
3816.99,0.06283
3793.84,0.06192
3770.7,0.06160
3747.55,0.06091
3724.41,0.05898
3701.26,0.05102
3678.12,0.04517
3654.97,0.04380
3631.83,0.04283
3608.68,0.04139
3585.54,0.04092
3562.39,0.03949
3539.25,0.04009
3516.1,0.03942
3492.96,0.03930
3469.81,0.03871
3446.67,0.03851
3423.52,0.03826
3400.38,0.03871
3377.23,0.03820
3354.09,0.03795
3330.94,0.03920
3307.8,0.03977
3284.65,0.03951
3261.51,0.03996
3238.36,0.04084
3215.22,0.04140
3192.07,0.04274
3168.93,0.04309
3145.78,0.04366
3122.64,0.04500
3099.49,0.04619
3076.35,0.04666
3053.2,0.04729
3030.06,0.04758
3006.91,0.04734
2983.77,0.04647
2960.62,0.04312
2937.48,0.04224
2914.33,0.04534
2891.19,0.04762
2868.04,0.04736
2844.9,0.04938
2821.75,0.05359
2798.61,0.05472
2775.46,0.05626
2752.32,0.05681
2729.17,0.05676
2706.03,0.05731
2682.88,0.05801
2659.74,0.05869
2636.59,0.05888
2613.45,0.05840
2590.3,0.05912
2567.16,0.05906
2544.02,0.05870
2520.87,0.05831
2497.73,0.05877
2474.58,0.05968
2451.44,0.05997
2428.29,0.06014
2405.15,0.06009
2382,0.05918
2358.86,0.05892
2335.71,0.05849
2312.57,0.05819
2289.42,0.05758
2266.28,0.05678
2243.13,0.05607
2219.99,0.05453
2196.84,0.05340
2173.7,0.05168
2150.55,0.05078
2127.41,0.04962
2104.26,0.04889
2081.12,0.04786
2057.97,0.04711
2034.83,0.04534
2011.68,0.04497
1988.54,0.04524
1965.39,0.04521
1942.25,0.04531
1919.1,0.04432
1895.96,0.04409
1872.81,0.04380
1849.67,0.04377
1826.52,0.04336
1803.38,0.04209
1780.23,0.04091
1757.09,0.04011
1733.94,0.03975
1710.8,0.03907
1687.65,0.03863
1664.51,0.03947
1641.36,0.04007
1618.22,0.04016
1595.07,0.04131
1571.93,0.04465
1548.78,0.04930
1525.64,0.04806
1502.49,0.04561
1479.35,0.04300
1456.2,0.04005
1433.06,0.04048
1409.91,0.04030
1386.77,0.03784
1363.62,0.03827
1340.48,0.03790
1317.33,0.03725
1294.19,0.03703
1271.04,0.03538
1247.9,0.03326
1224.75,0.03475
1201.61,0.03634
1178.46,0.03694
1155.32,0.03955
1132.17,0.04518
1109.03,0.05417
1085.88,0.06142
1062.74,0.06431
1039.59,0.06953
1016.45,0.06981
993.304,0.07488
970.159,0.07292
947.014,0.07174
923.869,0.06402
900.724,0.06298
877.579,0.05898
854.434,0.05389
831.289,0.04886
808.144,0.04564
784.999,0.04568
761.854,0.04651
738.709,0.04724
715.565,0.04438
692.42,0.04386
669.275,0.04401
646.13,0.04672
622.985,0.04240
599.84,0.04308