File: 01_Data/Asphalt_Shingle/FTIR/IS/Asphalt_Shingle_IS_S_220831_R4.dpt
7497.03,0.06475
7473.89,0.05539
7450.74,0.05784
7427.6,0.05322
7404.45,0.05480
7381.31,0.05377
7358.16,0.05241
7335.02,0.05456
7311.87,0.05816
7288.73,0.06097
7265.58,0.05373
7242.44,0.06400
7219.29,0.05853
7196.15,0.05070
7173,0.06103
7149.86,0.05353
7126.71,0.05456
7103.57,0.05558
7080.42,0.05559
7057.28,0.05300
7034.13,0.05313
7010.99,0.04997
6987.84,0.05497
6964.7,0.05365
6941.55,0.05943
6918.41,0.05311
6895.26,0.05540
6872.12,0.05759
6848.97,0.06602
6825.83,0.05496
6802.68,0.05527
6779.54,0.05534
6756.39,0.06004
6733.25,0.05748
6710.1,0.05428
6686.96,0.05349
6663.82,0.05628
6640.67,0.05661
6617.53,0.05498
6594.38,0.05994
6571.24,0.05447
6548.09,0.05761
6524.95,0.05848
6501.8,0.05619
6478.66,0.05314
6455.51,0.05838
6432.37,0.05438
6409.22,0.05817
6386.08,0.05729
6362.93,0.06149
6339.79,0.05526
6316.64,0.05984
6293.5,0.05611
6270.35,0.06009
6247.21,0.05867
6224.06,0.05877
6200.92,0.05996
6177.77,0.05739
6154.63,0.05942
6131.48,0.05706
6108.34,0.05758
6085.19,0.05715
6062.05,0.05659
6038.9,0.05761
6015.76,0.05912
5992.61,0.05957
5969.47,0.05979
5946.32,0.05982
5923.18,0.05901
5900.03,0.05922
5876.89,0.06055
5853.74,0.06057
5830.6,0.05967
5807.45,0.05860
5784.31,0.06212
5761.16,0.05989
5738.02,0.05990
5714.87,0.06195
5691.73,0.06254
5668.58,0.06201
5645.44,0.06343
5622.29,0.06105
5599.15,0.06291
5576,0.06143
5552.86,0.06005
5529.71,0.06154
5506.57,0.06110
5483.42,0.06249
5460.28,0.06277
5437.13,0.06141
5413.99,0.06160
5390.84,0.06255
5367.7,0.06355
5344.55,0.06370
5321.41,0.06370
5298.26,0.06288
5275.12,0.06319
5251.97,0.06287
5228.83,0.06249
5205.68,0.06430
5182.54,0.06396
5159.39,0.06374
5136.25,0.06309
5113.1,0.06427
5089.96,0.06325
5066.81,0.06360
5043.67,0.06371
5020.52,0.06344
4997.38,0.06531
4974.23,0.06327
4951.09,0.06338
4927.94,0.06512
4904.8,0.06429
4881.65,0.06514
4858.51,0.06610
4835.36,0.06637
4812.22,0.06603
4789.07,0.06556
4765.93,0.06597
4742.78,0.06581
4719.64,0.06618
4696.49,0.06603
4673.35,0.06720
4650.2,0.06580
4627.06,0.06560
4603.92,0.06618
4580.77,0.06674
4557.63,0.06597
4534.48,0.06611
4511.34,0.06577
4488.19,0.06640
4465.05,0.06339
4441.9,0.06243
4418.76,0.06197
4395.61,0.06288
4372.47,0.06292
4349.32,0.06104
4326.18,0.05951
4303.03,0.05832
4279.89,0.05728
4256.74,0.05800
4233.6,0.06078
4210.45,0.06215
4187.31,0.06230
4164.16,0.06342
4141.02,0.06438
4117.87,0.06426
4094.73,0.06402
4071.58,0.06373
4048.44,0.06302
4025.29,0.06229
4002.15,0.06271
3979,0.06282
3955.86,0.06291
3932.71,0.06294
3909.57,0.06242
3886.42,0.06209
3863.28,0.06215
3840.13,0.06298
3816.99,0.06247
3793.84,0.06288
3770.7,0.06193
3747.55,0.06166
3724.41,0.05956
3701.26,0.05205
3678.12,0.04562
3654.97,0.04382
3631.83,0.04316
3608.68,0.04268
3585.54,0.04078
3562.39,0.03992
3539.25,0.03973
3516.1,0.03901
3492.96,0.03909
3469.81,0.03903
3446.67,0.03913
3423.52,0.03862
3400.38,0.03834
3377.23,0.03791
3354.09,0.03815
3330.94,0.03952
3307.8,0.03985
3284.65,0.03989
3261.51,0.04039
3238.36,0.04096
3215.22,0.04145
3192.07,0.04315
3168.93,0.04321
3145.78,0.04455
3122.64,0.04550
3099.49,0.04608
3076.35,0.04686
3053.2,0.04741
3030.06,0.04824
3006.91,0.04829
2983.77,0.04759
2960.62,0.04296
2937.48,0.04245
2914.33,0.04498
2891.19,0.04747
2868.04,0.04717
2844.9,0.04970
2821.75,0.05440
2798.61,0.05589
2775.46,0.05656
2752.32,0.05790
2729.17,0.05759
2706.03,0.05770
2682.88,0.05882
2659.74,0.05933
2636.59,0.05938
2613.45,0.05874
2590.3,0.05935
2567.16,0.05960
2544.02,0.05957
2520.87,0.05910
2497.73,0.05930
2474.58,0.06069
2451.44,0.06059
2428.29,0.06043
2405.15,0.06015
2382,0.05980
2358.86,0.05928
2335.71,0.05872
2312.57,0.05833
2289.42,0.05812
2266.28,0.05768
2243.13,0.05657
2219.99,0.05588
2196.84,0.05422
2173.7,0.05219
2150.55,0.05099
2127.41,0.05017
2104.26,0.04930
2081.12,0.04790
2057.97,0.04701
2034.83,0.04627
2011.68,0.04560
1988.54,0.04577
1965.39,0.04599
1942.25,0.04562
1919.1,0.04513
1895.96,0.04432
1872.81,0.04413
1849.67,0.04455
1826.52,0.04373
1803.38,0.04253
1780.23,0.04115
1757.09,0.04074
1733.94,0.04013
1710.8,0.03937
1687.65,0.03902
1664.51,0.03957
1641.36,0.03993
1618.22,0.04044
1595.07,0.04150
1571.93,0.04513
1548.78,0.04974
1525.64,0.04866
1502.49,0.04603
1479.35,0.04356
1456.2,0.04059
1433.06,0.04057
1409.91,0.04025
1386.77,0.03828
1363.62,0.03861
1340.48,0.03842
1317.33,0.03763
1294.19,0.03721
1271.04,0.03611
1247.9,0.03370
1224.75,0.03504
1201.61,0.03619
1178.46,0.03708
1155.32,0.03915
1132.17,0.04501
1109.03,0.05392
1085.88,0.06167
1062.74,0.06443
1039.59,0.07047
1016.45,0.07015
993.304,0.07575
970.159,0.07275
947.014,0.07261
923.869,0.06448
900.724,0.06320
877.579,0.05887
854.434,0.05351
831.289,0.04895
808.144,0.04560
784.999,0.04665
761.854,0.04565
738.709,0.04628
715.565,0.04601
692.42,0.04454
669.275,0.04543
646.13,0.04832
622.985,0.04515
599.84,0.04405