File: 01_Data/Asphalt_Shingle/FTIR/IS/Asphalt_Shingle_IS_S_220831_R2.dpt
7497.03,0.05544
7473.89,0.06425
7450.74,0.05376
7427.6,0.04971
7404.45,0.05423
7381.31,0.05458
7358.16,0.05233
7335.02,0.04676
7311.87,0.05148
7288.73,0.05966
7265.58,0.05787
7242.44,0.06954
7219.29,0.06038
7196.15,0.05481
7173,0.05769
7149.86,0.05371
7126.71,0.05639
7103.57,0.05868
7080.42,0.06069
7057.28,0.05865
7034.13,0.05588
7010.99,0.05939
6987.84,0.05648
6964.7,0.05759
6941.55,0.05536
6918.41,0.04886
6895.26,0.05669
6872.12,0.05398
6848.97,0.05677
6825.83,0.05369
6802.68,0.05682
6779.54,0.05387
6756.39,0.06101
6733.25,0.05521
6710.1,0.05659
6686.96,0.05228
6663.82,0.05531
6640.67,0.05465
6617.53,0.05917
6594.38,0.05916
6571.24,0.05786
6548.09,0.05747
6524.95,0.05769
6501.8,0.05929
6478.66,0.05535
6455.51,0.05774
6432.37,0.05610
6409.22,0.05798
6386.08,0.05945
6362.93,0.05334
6339.79,0.05627
6316.64,0.05604
6293.5,0.06075
6270.35,0.05580
6247.21,0.05754
6224.06,0.06041
6200.92,0.05714
6177.77,0.05721
6154.63,0.05692
6131.48,0.05753
6108.34,0.05845
6085.19,0.05903
6062.05,0.05730
6038.9,0.05861
6015.76,0.05877
5992.61,0.05827
5969.47,0.05848
5946.32,0.06206
5923.18,0.05694
5900.03,0.06052
5876.89,0.05988
5853.74,0.05916
5830.6,0.06164
5807.45,0.05879
5784.31,0.06061
5761.16,0.06013
5738.02,0.06052
5714.87,0.05933
5691.73,0.06045
5668.58,0.05869
5645.44,0.06201
5622.29,0.06169
5599.15,0.05985
5576,0.06186
5552.86,0.06060
5529.71,0.06222
5506.57,0.06129
5483.42,0.06106
5460.28,0.06025
5437.13,0.06296
5413.99,0.06269
5390.84,0.06290
5367.7,0.06214
5344.55,0.06259
5321.41,0.06196
5298.26,0.06235
5275.12,0.06193
5251.97,0.06315
5228.83,0.06268
5205.68,0.06197
5182.54,0.06343
5159.39,0.06329
5136.25,0.06318
5113.1,0.06256
5089.96,0.06365
5066.81,0.06289
5043.67,0.06331
5020.52,0.06403
4997.38,0.06359
4974.23,0.06392
4951.09,0.06420
4927.94,0.06493
4904.8,0.06543
4881.65,0.06458
4858.51,0.06590
4835.36,0.06468
4812.22,0.06566
4789.07,0.06498
4765.93,0.06507
4742.78,0.06573
4719.64,0.06551
4696.49,0.06561
4673.35,0.06603
4650.2,0.06670
4627.06,0.06589
4603.92,0.06542
4580.77,0.06655
4557.63,0.06564
4534.48,0.06665
4511.34,0.06512
4488.19,0.06487
4465.05,0.06391
4441.9,0.06064
4418.76,0.06181
4395.61,0.06234
4372.47,0.06198
4349.32,0.06044
4326.18,0.05919
4303.03,0.05841
4279.89,0.05679
4256.74,0.05758
4233.6,0.06081
4210.45,0.06216
4187.31,0.06267
4164.16,0.06209
4141.02,0.06332
4117.87,0.06337
4094.73,0.06385
4071.58,0.06308
4048.44,0.06216
4025.29,0.06201
4002.15,0.06164
3979,0.06140
3955.86,0.06207
3932.71,0.06203
3909.57,0.06172
3886.42,0.06231
3863.28,0.06180
3840.13,0.06199
3816.99,0.06179
3793.84,0.06149
3770.7,0.06148
3747.55,0.06105
3724.41,0.05916
3701.26,0.05180
3678.12,0.04528
3654.97,0.04380
3631.83,0.04258
3608.68,0.04196
3585.54,0.03983
3562.39,0.03975
3539.25,0.03984
3516.1,0.03919
3492.96,0.03895
3469.81,0.03912
3446.67,0.03851
3423.52,0.03785
3400.38,0.03798
3377.23,0.03905
3354.09,0.03787
3330.94,0.03807
3307.8,0.03947
3284.65,0.03941
3261.51,0.03991
3238.36,0.04113
3215.22,0.04223
3192.07,0.04226
3168.93,0.04304
3145.78,0.04476
3122.64,0.04553
3099.49,0.04595
3076.35,0.04639
3053.2,0.04754
3030.06,0.04767
3006.91,0.04790
2983.77,0.04661
2960.62,0.04286
2937.48,0.04220
2914.33,0.04539
2891.19,0.04753
2868.04,0.04691
2844.9,0.04953
2821.75,0.05361
2798.61,0.05490
2775.46,0.05576
2752.32,0.05664
2729.17,0.05676
2706.03,0.05764
2682.88,0.05811
2659.74,0.05861
2636.59,0.05907
2613.45,0.05892
2590.3,0.05853
2567.16,0.05962
2544.02,0.05873
2520.87,0.05873
2497.73,0.05923
2474.58,0.05952
2451.44,0.06013
2428.29,0.06008
2405.15,0.05975
2382,0.05986
2358.86,0.05913
2335.71,0.05838
2312.57,0.05837
2289.42,0.05818
2266.28,0.05706
2243.13,0.05596
2219.99,0.05513
2196.84,0.05386
2173.7,0.05174
2150.55,0.05021
2127.41,0.04981
2104.26,0.04858
2081.12,0.04740
2057.97,0.04704
2034.83,0.04571
2011.68,0.04541
1988.54,0.04555
1965.39,0.04534
1942.25,0.04502
1919.1,0.04485
1895.96,0.04458
1872.81,0.04380
1849.67,0.04397
1826.52,0.04371
1803.38,0.04198
1780.23,0.04130
1757.09,0.04057
1733.94,0.03937
1710.8,0.03897
1687.65,0.03847
1664.51,0.03934
1641.36,0.04006
1618.22,0.04017
1595.07,0.04126
1571.93,0.04502
1548.78,0.04977
1525.64,0.04856
1502.49,0.04608
1479.35,0.04345
1456.2,0.03983
1433.06,0.04033
1409.91,0.03973
1386.77,0.03800
1363.62,0.03798
1340.48,0.03824
1317.33,0.03767
1294.19,0.03687
1271.04,0.03584
1247.9,0.03352
1224.75,0.03506
1201.61,0.03626
1178.46,0.03641
1155.32,0.03944
1132.17,0.04590
1109.03,0.05366
1085.88,0.06252
1062.74,0.06421
1039.59,0.06915
1016.45,0.07039
993.304,0.07529
970.159,0.07284
947.014,0.07199
923.869,0.06416
900.724,0.06295
877.579,0.05934
854.434,0.05383
831.289,0.04875
808.144,0.04646
784.999,0.04528
761.854,0.04565
738.709,0.04674
715.565,0.04562
692.42,0.04453
669.275,0.04486
646.13,0.04782
622.985,0.04375
599.84,0.04208