File: 01_Data/Asphalt_Shingle/FTIR/IS/Asphalt_Shingle_IS_S_220831_R5.dpt
7497.03,0.05875
7473.89,0.05302
7450.74,0.05484
7427.6,0.05522
7404.45,0.05940
7381.31,0.05828
7358.16,0.05986
7335.02,0.05201
7311.87,0.05669
7288.73,0.05702
7265.58,0.05247
7242.44,0.05349
7219.29,0.05838
7196.15,0.05699
7173,0.05388
7149.86,0.05737
7126.71,0.05221
7103.57,0.05985
7080.42,0.05353
7057.28,0.06098
7034.13,0.05738
7010.99,0.05932
6987.84,0.06178
6964.7,0.05480
6941.55,0.05293
6918.41,0.05809
6895.26,0.05972
6872.12,0.05479
6848.97,0.05956
6825.83,0.05895
6802.68,0.05702
6779.54,0.05441
6756.39,0.05611
6733.25,0.05819
6710.1,0.05591
6686.96,0.05620
6663.82,0.05870
6640.67,0.05946
6617.53,0.05676
6594.38,0.05661
6571.24,0.05263
6548.09,0.05753
6524.95,0.05611
6501.8,0.05632
6478.66,0.05452
6455.51,0.05950
6432.37,0.05945
6409.22,0.05917
6386.08,0.05531
6362.93,0.05288
6339.79,0.05032
6316.64,0.05701
6293.5,0.05662
6270.35,0.05664
6247.21,0.05618
6224.06,0.06121
6200.92,0.05874
6177.77,0.05380
6154.63,0.05871
6131.48,0.05794
6108.34,0.05367
6085.19,0.06073
6062.05,0.05665
6038.9,0.05788
6015.76,0.05950
5992.61,0.06079
5969.47,0.06085
5946.32,0.06080
5923.18,0.05829
5900.03,0.05932
5876.89,0.05826
5853.74,0.06035
5830.6,0.06243
5807.45,0.05651
5784.31,0.06080
5761.16,0.05988
5738.02,0.06089
5714.87,0.05791
5691.73,0.06007
5668.58,0.05983
5645.44,0.06087
5622.29,0.05951
5599.15,0.06039
5576,0.06149
5552.86,0.06078
5529.71,0.06034
5506.57,0.06268
5483.42,0.06255
5460.28,0.06369
5437.13,0.06254
5413.99,0.06196
5390.84,0.06128
5367.7,0.06201
5344.55,0.06191
5321.41,0.06072
5298.26,0.06315
5275.12,0.06212
5251.97,0.06303
5228.83,0.06312
5205.68,0.06250
5182.54,0.06342
5159.39,0.06362
5136.25,0.06340
5113.1,0.06250
5089.96,0.06425
5066.81,0.06357
5043.67,0.06431
5020.52,0.06403
4997.38,0.06442
4974.23,0.06407
4951.09,0.06441
4927.94,0.06496
4904.8,0.06419
4881.65,0.06442
4858.51,0.06466
4835.36,0.06553
4812.22,0.06458
4789.07,0.06509
4765.93,0.06514
4742.78,0.06517
4719.64,0.06521
4696.49,0.06480
4673.35,0.06450
4650.2,0.06604
4627.06,0.06609
4603.92,0.06644
4580.77,0.06552
4557.63,0.06514
4534.48,0.06468
4511.34,0.06522
4488.19,0.06499
4465.05,0.06371
4441.9,0.06074
4418.76,0.06135
4395.61,0.06280
4372.47,0.06201
4349.32,0.06064
4326.18,0.05925
4303.03,0.05751
4279.89,0.05713
4256.74,0.05764
4233.6,0.06051
4210.45,0.06144
4187.31,0.06222
4164.16,0.06301
4141.02,0.06311
4117.87,0.06382
4094.73,0.06346
4071.58,0.06314
4048.44,0.06185
4025.29,0.06171
4002.15,0.06137
3979,0.06178
3955.86,0.06172
3932.71,0.06231
3909.57,0.06166
3886.42,0.06147
3863.28,0.06152
3840.13,0.06167
3816.99,0.06203
3793.84,0.06247
3770.7,0.06176
3747.55,0.06177
3724.41,0.05815
3701.26,0.05157
3678.12,0.04525
3654.97,0.04345
3631.83,0.04315
3608.68,0.04111
3585.54,0.04035
3562.39,0.03901
3539.25,0.03899
3516.1,0.03950
3492.96,0.03881
3469.81,0.03874
3446.67,0.03793
3423.52,0.03873
3400.38,0.03837
3377.23,0.03789
3354.09,0.03884
3330.94,0.03877
3307.8,0.03984
3284.65,0.03952
3261.51,0.04072
3238.36,0.04159
3215.22,0.04155
3192.07,0.04226
3168.93,0.04387
3145.78,0.04442
3122.64,0.04521
3099.49,0.04647
3076.35,0.04661
3053.2,0.04711
3030.06,0.04759
3006.91,0.04808
2983.77,0.04669
2960.62,0.04282
2937.48,0.04146
2914.33,0.04487
2891.19,0.04705
2868.04,0.04666
2844.9,0.04891
2821.75,0.05336
2798.61,0.05494
2775.46,0.05623
2752.32,0.05682
2729.17,0.05668
2706.03,0.05733
2682.88,0.05813
2659.74,0.05831
2636.59,0.05867
2613.45,0.05831
2590.3,0.05873
2567.16,0.05916
2544.02,0.05911
2520.87,0.05856
2497.73,0.05911
2474.58,0.05921
2451.44,0.05992
2428.29,0.06009
2405.15,0.05964
2382,0.05942
2358.86,0.05859
2335.71,0.05802
2312.57,0.05815
2289.42,0.05750
2266.28,0.05672
2243.13,0.05573
2219.99,0.05493
2196.84,0.05368
2173.7,0.05165
2150.55,0.05038
2127.41,0.04987
2104.26,0.04873
2081.12,0.04764
2057.97,0.04678
2034.83,0.04551
2011.68,0.04505
1988.54,0.04546
1965.39,0.04531
1942.25,0.04487
1919.1,0.04467
1895.96,0.04395
1872.81,0.04407
1849.67,0.04376
1826.52,0.04318
1803.38,0.04192
1780.23,0.04078
1757.09,0.04057
1733.94,0.03967
1710.8,0.03882
1687.65,0.03816
1664.51,0.03931
1641.36,0.03969
1618.22,0.04016
1595.07,0.04150
1571.93,0.04491
1548.78,0.04907
1525.64,0.04832
1502.49,0.04594
1479.35,0.04301
1456.2,0.03992
1433.06,0.04057
1409.91,0.03950
1386.77,0.03806
1363.62,0.03796
1340.48,0.03832
1317.33,0.03735
1294.19,0.03715
1271.04,0.03563
1247.9,0.03364
1224.75,0.03455
1201.61,0.03581
1178.46,0.03637
1155.32,0.03873
1132.17,0.04508
1109.03,0.05300
1085.88,0.06145
1062.74,0.06382
1039.59,0.06915
1016.45,0.06975
993.304,0.07535
970.159,0.07288
947.014,0.07205
923.869,0.06376
900.724,0.06273
877.579,0.05903
854.434,0.05443
831.289,0.04942
808.144,0.04606
784.999,0.04572
761.854,0.04536
738.709,0.04618
715.565,0.04604
692.42,0.04462
669.275,0.04427
646.13,0.04853
622.985,0.04420
599.84,0.04254