File: 01_Data/Asphalt_Shingle/FTIR/IS/Asphalt_Shingle_IS_T_220831_R8.dpt
7497.03,0.02454
7473.89,0.02277
7450.74,0.00966
7427.6,0.03019
7404.45,0.02966
7381.31,0.02260
7358.16,0.02820
7335.02,0.01767
7311.87,0.01777
7288.73,0.02147
7265.58,0.02088
7242.44,0.02056
7219.29,0.01560
7196.15,0.02238
7173,0.02686
7149.86,0.02606
7126.71,0.02269
7103.57,0.02026
7080.42,0.02456
7057.28,0.02631
7034.13,0.02519
7010.99,0.01921
6987.84,0.02667
6964.7,0.02832
6941.55,0.02537
6918.41,0.02539
6895.26,0.03035
6872.12,0.02586
6848.97,0.02355
6825.83,0.02552
6802.68,0.02574
6779.54,0.02730
6756.39,0.02509
6733.25,0.02169
6710.1,0.02377
6686.96,0.02069
6663.82,0.02482
6640.67,0.02451
6617.53,0.02350
6594.38,0.02649
6571.24,0.02375
6548.09,0.02309
6524.95,0.01920
6501.8,0.02328
6478.66,0.02231
6455.51,0.02252
6432.37,0.02197
6409.22,0.02400
6386.08,0.02317
6362.93,0.02404
6339.79,0.01712
6316.64,0.02026
6293.5,0.02121
6270.35,0.02200
6247.21,0.02048
6224.06,0.02159
6200.92,0.02204
6177.77,0.01703
6154.63,0.02399
6131.48,0.02184
6108.34,0.02106
6085.19,0.02118
6062.05,0.02239
6038.9,0.02425
6015.76,0.01908
5992.61,0.02191
5969.47,0.02059
5946.32,0.02036
5923.18,0.02208
5900.03,0.02148
5876.89,0.02244
5853.74,0.02024
5830.6,0.02114
5807.45,0.02331
5784.31,0.02227
5761.16,0.02108
5738.02,0.02175
5714.87,0.02159
5691.73,0.02363
5668.58,0.02221
5645.44,0.01923
5622.29,0.02166
5599.15,0.02181
5576,0.02078
5552.86,0.01924
5529.71,0.02136
5506.57,0.02053
5483.42,0.02272
5460.28,0.02289
5437.13,0.02334
5413.99,0.02270
5390.84,0.02157
5367.7,0.02231
5344.55,0.02174
5321.41,0.02232
5298.26,0.02433
5275.12,0.02171
5251.97,0.01976
5228.83,0.02155
5205.68,0.02115
5182.54,0.02287
5159.39,0.02354
5136.25,0.02226
5113.1,0.02179
5089.96,0.02101
5066.81,0.02111
5043.67,0.02203
5020.52,0.02305
4997.38,0.02273
4974.23,0.02135
4951.09,0.02293
4927.94,0.02286
4904.8,0.02179
4881.65,0.02183
4858.51,0.02241
4835.36,0.02161
4812.22,0.02272
4789.07,0.02359
4765.93,0.02151
4742.78,0.02099
4719.64,0.02206
4696.49,0.02145
4673.35,0.02318
4650.2,0.02164
4627.06,0.02136
4603.92,0.02239
4580.77,0.02261
4557.63,0.02216
4534.48,0.02267
4511.34,0.02212
4488.19,0.02240
4465.05,0.02245
4441.9,0.02239
4418.76,0.02242
4395.61,0.02275
4372.47,0.02258
4349.32,0.02214
4326.18,0.02166
4303.03,0.02235
4279.89,0.02233
4256.74,0.02208
4233.6,0.02189
4210.45,0.02243
4187.31,0.02211
4164.16,0.02276
4141.02,0.02248
4117.87,0.02227
4094.73,0.02247
4071.58,0.02303
4048.44,0.02251
4025.29,0.02200
4002.15,0.02294
3979,0.02218
3955.86,0.02284
3932.71,0.02316
3909.57,0.02277
3886.42,0.02275
3863.28,0.02256
3840.13,0.02281
3816.99,0.02280
3793.84,0.02195
3770.7,0.02239
3747.55,0.02320
3724.41,0.02261
3701.26,0.02210
3678.12,0.02279
3654.97,0.02227
3631.83,0.02235
3608.68,0.02177
3585.54,0.02155
3562.39,0.02165
3539.25,0.02103
3516.1,0.02112
3492.96,0.02124
3469.81,0.02194
3446.67,0.02091
3423.52,0.02032
3400.38,0.02016
3377.23,0.02105
3354.09,0.02032
3330.94,0.01967
3307.8,0.02057
3284.65,0.02044
3261.51,0.02095
3238.36,0.02077
3215.22,0.02121
3192.07,0.02128
3168.93,0.02030
3145.78,0.02076
3122.64,0.02092
3099.49,0.02111
3076.35,0.02084
3053.2,0.02052
3030.06,0.02012
3006.91,0.02009
2983.77,0.01983
2960.62,0.01957
2937.48,0.01943
2914.33,0.02009
2891.19,0.02053
2868.04,0.02020
2844.9,0.02077
2821.75,0.02110
2798.61,0.02095
2775.46,0.02162
2752.32,0.02127
2729.17,0.02098
2706.03,0.02132
2682.88,0.02166
2659.74,0.02144
2636.59,0.02100
2613.45,0.02138
2590.3,0.02122
2567.16,0.02133
2544.02,0.02114
2520.87,0.02156
2497.73,0.02087
2474.58,0.02137
2451.44,0.02080
2428.29,0.02136
2405.15,0.02118
2382,0.02125
2358.86,0.02152
2335.71,0.02102
2312.57,0.02141
2289.42,0.02108
2266.28,0.02134
2243.13,0.02129
2219.99,0.02110
2196.84,0.02104
2173.7,0.02097
2150.55,0.02110
2127.41,0.02116
2104.26,0.02091
2081.12,0.02106
2057.97,0.02068
2034.83,0.02081
2011.68,0.02078
1988.54,0.02090
1965.39,0.02062
1942.25,0.02091
1919.1,0.02053
1895.96,0.02066
1872.81,0.02030
1849.67,0.02048
1826.52,0.01995
1803.38,0.01982
1780.23,0.01899
1757.09,0.01773
1733.94,0.01951
1710.8,0.02086
1687.65,0.01933
1664.51,0.01817
1641.36,0.01881
1618.22,0.01913
1595.07,0.01942
1571.93,0.01832
1548.78,0.01871
1525.64,0.01852
1502.49,0.01901
1479.35,0.01905
1456.2,0.01885
1433.06,0.01884
1409.91,0.01849
1386.77,0.01804
1363.62,0.01822
1340.48,0.01821
1317.33,0.01700
1294.19,0.01808
1271.04,0.01956
1247.9,0.02070
1224.75,0.01959
1201.61,0.01869
1178.46,0.01816
1155.32,0.01714
1132.17,0.01810
1109.03,0.01874
1085.88,0.01824
1062.74,0.01920
1039.59,0.01981
1016.45,0.01962
993.304,0.02143
970.159,0.02114
947.014,0.02019
923.869,0.02015
900.724,0.01923
877.579,0.01891
854.434,0.01874
831.289,0.01867
808.144,0.01884
784.999,0.01903
761.854,0.01862
738.709,0.01821
715.565,0.01836
692.42,0.01747
669.275,0.01875
646.13,0.01876
622.985,0.01430
599.84,0.01527