File: 01_Data/Asphalt_Shingle/FTIR/IS/Asphalt_Shingle_IS_S_220831_R8.dpt
7497.03,0.05671
7473.89,0.05447
7450.74,0.06008
7427.6,0.05307
7404.45,0.06196
7381.31,0.06131
7358.16,0.05853
7335.02,0.05288
7311.87,0.05550
7288.73,0.05476
7265.58,0.05785
7242.44,0.05522
7219.29,0.05456
7196.15,0.05659
7173,0.05149
7149.86,0.05412
7126.71,0.05546
7103.57,0.05639
7080.42,0.05869
7057.28,0.05418
7034.13,0.05452
7010.99,0.05228
6987.84,0.05457
6964.7,0.05867
6941.55,0.05597
6918.41,0.05925
6895.26,0.05079
6872.12,0.05697
6848.97,0.05687
6825.83,0.05944
6802.68,0.05570
6779.54,0.05885
6756.39,0.05733
6733.25,0.05743
6710.1,0.05487
6686.96,0.05777
6663.82,0.05808
6640.67,0.05423
6617.53,0.05626
6594.38,0.05500
6571.24,0.05840
6548.09,0.05514
6524.95,0.06037
6501.8,0.05776
6478.66,0.05720
6455.51,0.05803
6432.37,0.05752
6409.22,0.06087
6386.08,0.05661
6362.93,0.05743
6339.79,0.05791
6316.64,0.05748
6293.5,0.05740
6270.35,0.05489
6247.21,0.05905
6224.06,0.05836
6200.92,0.05787
6177.77,0.06123
6154.63,0.05739
6131.48,0.05773
6108.34,0.06145
6085.19,0.06061
6062.05,0.05968
6038.9,0.05774
6015.76,0.05744
5992.61,0.05962
5969.47,0.05784
5946.32,0.05931
5923.18,0.05783
5900.03,0.05946
5876.89,0.05920
5853.74,0.06048
5830.6,0.05962
5807.45,0.05771
5784.31,0.06002
5761.16,0.06215
5738.02,0.05941
5714.87,0.05998
5691.73,0.05851
5668.58,0.06029
5645.44,0.06224
5622.29,0.06285
5599.15,0.06274
5576,0.06166
5552.86,0.06090
5529.71,0.06105
5506.57,0.06211
5483.42,0.06167
5460.28,0.06322
5437.13,0.06070
5413.99,0.06094
5390.84,0.06308
5367.7,0.06199
5344.55,0.06120
5321.41,0.06278
5298.26,0.06203
5275.12,0.06437
5251.97,0.06371
5228.83,0.06354
5205.68,0.06337
5182.54,0.06349
5159.39,0.06276
5136.25,0.06267
5113.1,0.06272
5089.96,0.06237
5066.81,0.06301
5043.67,0.06399
5020.52,0.06395
4997.38,0.06318
4974.23,0.06451
4951.09,0.06529
4927.94,0.06448
4904.8,0.06422
4881.65,0.06448
4858.51,0.06547
4835.36,0.06570
4812.22,0.06562
4789.07,0.06550
4765.93,0.06488
4742.78,0.06630
4719.64,0.06541
4696.49,0.06555
4673.35,0.06602
4650.2,0.06577
4627.06,0.06609
4603.92,0.06643
4580.77,0.06603
4557.63,0.06685
4534.48,0.06579
4511.34,0.06555
4488.19,0.06580
4465.05,0.06381
4441.9,0.06185
4418.76,0.06263
4395.61,0.06221
4372.47,0.06185
4349.32,0.06130
4326.18,0.05907
4303.03,0.05831
4279.89,0.05654
4256.74,0.05792
4233.6,0.06076
4210.45,0.06161
4187.31,0.06236
4164.16,0.06298
4141.02,0.06342
4117.87,0.06363
4094.73,0.06399
4071.58,0.06328
4048.44,0.06300
4025.29,0.06222
4002.15,0.06245
3979,0.06253
3955.86,0.06237
3932.71,0.06155
3909.57,0.06186
3886.42,0.06174
3863.28,0.06255
3840.13,0.06236
3816.99,0.06243
3793.84,0.06271
3770.7,0.06206
3747.55,0.06192
3724.41,0.05915
3701.26,0.05179
3678.12,0.04590
3654.97,0.04432
3631.83,0.04268
3608.68,0.04273
3585.54,0.04121
3562.39,0.03970
3539.25,0.03960
3516.1,0.03980
3492.96,0.03873
3469.81,0.03935
3446.67,0.03883
3423.52,0.03837
3400.38,0.03831
3377.23,0.03788
3354.09,0.03865
3330.94,0.03910
3307.8,0.03904
3284.65,0.03960
3261.51,0.03982
3238.36,0.04053
3215.22,0.04198
3192.07,0.04257
3168.93,0.04375
3145.78,0.04410
3122.64,0.04555
3099.49,0.04607
3076.35,0.04646
3053.2,0.04735
3030.06,0.04797
3006.91,0.04839
2983.77,0.04715
2960.62,0.04322
2937.48,0.04258
2914.33,0.04514
2891.19,0.04758
2868.04,0.04706
2844.9,0.04964
2821.75,0.05421
2798.61,0.05576
2775.46,0.05660
2752.32,0.05680
2729.17,0.05733
2706.03,0.05792
2682.88,0.05836
2659.74,0.05885
2636.59,0.05913
2613.45,0.05890
2590.3,0.05935
2567.16,0.05968
2544.02,0.05932
2520.87,0.05851
2497.73,0.05904
2474.58,0.06014
2451.44,0.06070
2428.29,0.06033
2405.15,0.05990
2382,0.05997
2358.86,0.05939
2335.71,0.05835
2312.57,0.05867
2289.42,0.05803
2266.28,0.05741
2243.13,0.05659
2219.99,0.05545
2196.84,0.05400
2173.7,0.05199
2150.55,0.05076
2127.41,0.04971
2104.26,0.04916
2081.12,0.04765
2057.97,0.04687
2034.83,0.04602
2011.68,0.04570
1988.54,0.04576
1965.39,0.04541
1942.25,0.04534
1919.1,0.04475
1895.96,0.04420
1872.81,0.04421
1849.67,0.04427
1826.52,0.04390
1803.38,0.04227
1780.23,0.04154
1757.09,0.04093
1733.94,0.03996
1710.8,0.03892
1687.65,0.03848
1664.51,0.03917
1641.36,0.03974
1618.22,0.04073
1595.07,0.04153
1571.93,0.04495
1548.78,0.04983
1525.64,0.04840
1502.49,0.04641
1479.35,0.04332
1456.2,0.04028
1433.06,0.04053
1409.91,0.04040
1386.77,0.03816
1363.62,0.03817
1340.48,0.03827
1317.33,0.03756
1294.19,0.03750
1271.04,0.03568
1247.9,0.03349
1224.75,0.03495
1201.61,0.03608
1178.46,0.03699
1155.32,0.03902
1132.17,0.04520
1109.03,0.05410
1085.88,0.06204
1062.74,0.06499
1039.59,0.06963
1016.45,0.07076
993.304,0.07569
970.159,0.07337
947.014,0.07293
923.869,0.06395
900.724,0.06330
877.579,0.05927
854.434,0.05430
831.289,0.04917
808.144,0.04656
784.999,0.04531
761.854,0.04560
738.709,0.04667
715.565,0.04524
692.42,0.04446
669.275,0.04443
646.13,0.04673
622.985,0.04396
599.84,0.04279