File: 01_Data/Cotton_Batting/FTIR/IS/Cotton_Batting_IS_S_220912_R4.dpt
7497.03,0.58395
7473.89,0.57849
7450.74,0.58023
7427.6,0.57754
7404.45,0.56938
7381.31,0.56776
7358.16,0.55978
7335.02,0.56789
7311.87,0.56050
7288.73,0.56431
7265.58,0.55865
7242.44,0.55706
7219.29,0.56396
7196.15,0.55636
7173,0.55628
7149.86,0.55437
7126.71,0.55968
7103.57,0.55083
7080.42,0.55644
7057.28,0.55708
7034.13,0.55434
7010.99,0.56277
6987.84,0.55566
6964.7,0.55785
6941.55,0.55463
6918.41,0.55406
6895.26,0.56144
6872.12,0.55860
6848.97,0.55916
6825.83,0.55891
6802.68,0.56053
6779.54,0.56031
6756.39,0.55728
6733.25,0.55784
6710.1,0.56324
6686.96,0.55404
6663.82,0.55833
6640.67,0.55697
6617.53,0.55703
6594.38,0.55639
6571.24,0.55628
6548.09,0.55288
6524.95,0.55343
6501.8,0.55515
6478.66,0.55468
6455.51,0.56246
6432.37,0.56204
6409.22,0.56421
6386.08,0.56258
6362.93,0.55941
6339.79,0.55728
6316.64,0.55811
6293.5,0.56194
6270.35,0.55572
6247.21,0.55595
6224.06,0.56320
6200.92,0.54871
6177.77,0.55201
6154.63,0.55148
6131.48,0.55116
6108.34,0.54204
6085.19,0.51322
6062.05,0.48859
6038.9,0.46153
6015.76,0.44222
5992.61,0.47598
5969.47,0.48876
5946.32,0.49682
5923.18,0.50335
5900.03,0.50799
5876.89,0.49358
5853.74,0.48224
5830.6,0.47740
5807.45,0.47202
5784.31,0.47592
5761.16,0.48610
5738.02,0.49455
5714.87,0.49487
5691.73,0.49788
5668.58,0.50796
5645.44,0.51227
5622.29,0.52149
5599.15,0.52317
5576,0.52262
5552.86,0.52281
5529.71,0.52156
5506.57,0.52597
5483.42,0.52413
5460.28,0.52521
5437.13,0.53178
5413.99,0.53440
5390.84,0.53668
5367.7,0.53905
5344.55,0.53914
5321.41,0.54029
5298.26,0.53720
5275.12,0.53146
5251.97,0.52581
5228.83,0.52347
5205.68,0.52370
5182.54,0.52188
5159.39,0.51866
5136.25,0.51316
5113.1,0.50957
5089.96,0.52141
5066.81,0.52622
5043.67,0.52719
5020.52,0.52488
4997.38,0.52227
4974.23,0.51244
4951.09,0.50832
4927.94,0.50373
4904.8,0.48833
4881.65,0.46667
4858.51,0.47123
4835.36,0.48765
4812.22,0.48587
4789.07,0.48120
4765.93,0.48500
4742.78,0.46708
4719.64,0.43035
4696.49,0.39972
4673.35,0.42011
4650.2,0.43042
4627.06,0.41102
4603.92,0.43767
4580.77,0.41507
4557.63,0.44264
4534.48,0.44502
4511.34,0.43854
4488.19,0.40205
4465.05,0.36407
4441.9,0.32444
4418.76,0.31502
4395.61,0.31405
4372.47,0.30998
4349.32,0.29933
4326.18,0.30244
4303.03,0.30360
4279.89,0.29357
4256.74,0.29044
4233.6,0.29681
4210.45,0.30429
4187.31,0.30694
4164.16,0.31360
4141.02,0.32448
4117.87,0.31154
4094.73,0.26655
4071.58,0.29677
4048.44,0.31885
4025.29,0.32727
4002.15,0.32861
3979,0.34135
3955.86,0.35988
3932.71,0.37063
3909.57,0.37823
3886.42,0.39257
3863.28,0.40005
3840.13,0.40094
3816.99,0.40066
3793.84,0.40471
3770.7,0.40380
3747.55,0.40837
3724.41,0.41164
3701.26,0.39644
3678.12,0.34881
3654.97,0.32664
3631.83,0.28867
3608.68,0.26317
3585.54,0.23180
3562.39,0.19518
3539.25,0.17967
3516.1,0.17835
3492.96,0.17826
3469.81,0.16752
3446.67,0.13204
3423.52,0.12101
3400.38,0.15243
3377.23,0.14483
3354.09,0.12775
3330.94,0.11816
3307.8,0.12116
3284.65,0.12365
3261.51,0.12752
3238.36,0.13207
3215.22,0.13955
3192.07,0.14181
3168.93,0.15074
3145.78,0.15076
3122.64,0.13546
3099.49,0.11214
3076.35,0.10063
3053.2,0.09978
3030.06,0.13167
3006.91,0.09421
2983.77,0.06401
2960.62,0.04435
2937.48,0.06517
2914.33,0.06216
2891.19,0.07096
2868.04,0.07930
2844.9,0.10393
2821.75,0.14645
2798.61,0.16539
2775.46,0.19216
2752.32,0.20115
2729.17,0.21797
2706.03,0.23974
2682.88,0.24978
2659.74,0.25694
2636.59,0.24825
2613.45,0.24780
2590.3,0.23842
2567.16,0.23996
2544.02,0.24078
2520.87,0.24981
2497.73,0.26332
2474.58,0.28497
2451.44,0.29858
2428.29,0.27927
2405.15,0.25229
2382,0.24376
2358.86,0.27118
2335.71,0.29415
2312.57,0.30469
2289.42,0.26931
2266.28,0.26701
2243.13,0.21131
2219.99,0.29207
2196.84,0.30592
2173.7,0.29410
2150.55,0.25498
2127.41,0.23553
2104.26,0.22567
2081.12,0.24545
2057.97,0.28787
2034.83,0.30335
2011.68,0.27691
1988.54,0.23312
1965.39,0.18251
1942.25,0.19170
1919.1,0.24373
1895.96,0.26713
1872.81,0.26521
1849.67,0.20906
1826.52,0.15016
1803.38,0.13762
1780.23,0.10913
1757.09,0.05797
1733.94,0.03432
1710.8,0.04376
1687.65,0.05146
1664.51,0.06847
1641.36,0.09222
1618.22,0.08948
1595.07,0.10784
1571.93,0.07349
1548.78,0.09695
1525.64,0.08638
1502.49,0.05135
1479.35,0.06052
1456.2,0.03353
1433.06,0.04808
1409.91,0.02949
1386.77,0.03922
1363.62,0.03660
1340.48,0.03331
1317.33,0.02989
1294.19,0.02732
1271.04,0.04184
1247.9,0.04596
1224.75,0.04774
1201.61,0.06320
1178.46,0.05169
1155.32,0.04485
1132.17,0.03701
1109.03,0.04131
1085.88,0.04620
1062.74,0.07748
1039.59,0.05750
1016.45,0.05228
993.304,0.12314
970.159,0.08246
947.014,0.14867
923.869,0.15294
900.724,0.08975
877.579,0.06346
854.434,0.08244
831.289,0.11238
808.144,0.11760
784.999,0.11951
761.854,0.13626
738.709,0.03957
715.565,0.08288
692.42,0.14493
669.275,0.15745
646.13,0.17720
622.985,0.17420
599.84,0.17763