File: 01_Data/Cotton_Batting/FTIR/IS/Cotton_Batting_IS_S_220912_R3.dpt
7497.03,0.56497
7473.89,0.57689
7450.74,0.56822
7427.6,0.56488
7404.45,0.57562
7381.31,0.57885
7358.16,0.57069
7335.02,0.56262
7311.87,0.56652
7288.73,0.55236
7265.58,0.56203
7242.44,0.55519
7219.29,0.55238
7196.15,0.56692
7173,0.55752
7149.86,0.55304
7126.71,0.55106
7103.57,0.55301
7080.42,0.55503
7057.28,0.55285
7034.13,0.55357
7010.99,0.55154
6987.84,0.55539
6964.7,0.55355
6941.55,0.55085
6918.41,0.55482
6895.26,0.56494
6872.12,0.56680
6848.97,0.56067
6825.83,0.56103
6802.68,0.55648
6779.54,0.56283
6756.39,0.56128
6733.25,0.56045
6710.1,0.55872
6686.96,0.55758
6663.82,0.55879
6640.67,0.55554
6617.53,0.56056
6594.38,0.56000
6571.24,0.55299
6548.09,0.55473
6524.95,0.55086
6501.8,0.55002
6478.66,0.55525
6455.51,0.56076
6432.37,0.55902
6409.22,0.56197
6386.08,0.55676
6362.93,0.55939
6339.79,0.55754
6316.64,0.56074
6293.5,0.56431
6270.35,0.55719
6247.21,0.56084
6224.06,0.55541
6200.92,0.55338
6177.77,0.55245
6154.63,0.55270
6131.48,0.54877
6108.34,0.53793
6085.19,0.51450
6062.05,0.48843
6038.9,0.46235
6015.76,0.44447
5992.61,0.47357
5969.47,0.48746
5946.32,0.49440
5923.18,0.50562
5900.03,0.50683
5876.89,0.49510
5853.74,0.48012
5830.6,0.47646
5807.45,0.47533
5784.31,0.47712
5761.16,0.48536
5738.02,0.49250
5714.87,0.49642
5691.73,0.49955
5668.58,0.50455
5645.44,0.51107
5622.29,0.52136
5599.15,0.52407
5576,0.52079
5552.86,0.52305
5529.71,0.52334
5506.57,0.52675
5483.42,0.52528
5460.28,0.52511
5437.13,0.53068
5413.99,0.53580
5390.84,0.53560
5367.7,0.54005
5344.55,0.53733
5321.41,0.53964
5298.26,0.53773
5275.12,0.53145
5251.97,0.52458
5228.83,0.52263
5205.68,0.52233
5182.54,0.51995
5159.39,0.51618
5136.25,0.51121
5113.1,0.50866
5089.96,0.51995
5066.81,0.52582
5043.67,0.52609
5020.52,0.52580
4997.38,0.52048
4974.23,0.51174
4951.09,0.50877
4927.94,0.50222
4904.8,0.48887
4881.65,0.46592
4858.51,0.47010
4835.36,0.48792
4812.22,0.48523
4789.07,0.48241
4765.93,0.48472
4742.78,0.46679
4719.64,0.43152
4696.49,0.40139
4673.35,0.41936
4650.2,0.43009
4627.06,0.41180
4603.92,0.43876
4580.77,0.41583
4557.63,0.44328
4534.48,0.44491
4511.34,0.43777
4488.19,0.40190
4465.05,0.36446
4441.9,0.32495
4418.76,0.31549
4395.61,0.31397
4372.47,0.30921
4349.32,0.30005
4326.18,0.30260
4303.03,0.30334
4279.89,0.29327
4256.74,0.29063
4233.6,0.29629
4210.45,0.30489
4187.31,0.30730
4164.16,0.31367
4141.02,0.32441
4117.87,0.31241
4094.73,0.26572
4071.58,0.29671
4048.44,0.31880
4025.29,0.32673
4002.15,0.32827
3979,0.34094
3955.86,0.35999
3932.71,0.36944
3909.57,0.37767
3886.42,0.39209
3863.28,0.39963
3840.13,0.40134
3816.99,0.39969
3793.84,0.40381
3770.7,0.40377
3747.55,0.40757
3724.41,0.41032
3701.26,0.39426
3678.12,0.34483
3654.97,0.31857
3631.83,0.28089
3608.68,0.25593
3585.54,0.22637
3562.39,0.19078
3539.25,0.17493
3516.1,0.17453
3492.96,0.17423
3469.81,0.16375
3446.67,0.13027
3423.52,0.11941
3400.38,0.15135
3377.23,0.14395
3354.09,0.12758
3330.94,0.11754
3307.8,0.12034
3284.65,0.12374
3261.51,0.12644
3238.36,0.13166
3215.22,0.13887
3192.07,0.14140
3168.93,0.14897
3145.78,0.14984
3122.64,0.13500
3099.49,0.11220
3076.35,0.10113
3053.2,0.09958
3030.06,0.13074
3006.91,0.09354
2983.77,0.06433
2960.62,0.04445
2937.48,0.06545
2914.33,0.06240
2891.19,0.07079
2868.04,0.07965
2844.9,0.10348
2821.75,0.14662
2798.61,0.16483
2775.46,0.19189
2752.32,0.20071
2729.17,0.21765
2706.03,0.23994
2682.88,0.24943
2659.74,0.25643
2636.59,0.24796
2613.45,0.24767
2590.3,0.23844
2567.16,0.23923
2544.02,0.24049
2520.87,0.24942
2497.73,0.26286
2474.58,0.28455
2451.44,0.29794
2428.29,0.27925
2405.15,0.25195
2382,0.24356
2358.86,0.27097
2335.71,0.29343
2312.57,0.30443
2289.42,0.26874
2266.28,0.26621
2243.13,0.21103
2219.99,0.29136
2196.84,0.30534
2173.7,0.29357
2150.55,0.25445
2127.41,0.23496
2104.26,0.22555
2081.12,0.24480
2057.97,0.28727
2034.83,0.30247
2011.68,0.27590
1988.54,0.23258
1965.39,0.18226
1942.25,0.19155
1919.1,0.24396
1895.96,0.26680
1872.81,0.26512
1849.67,0.20899
1826.52,0.14986
1803.38,0.13779
1780.23,0.10993
1757.09,0.05828
1733.94,0.03424
1710.8,0.04354
1687.65,0.05149
1664.51,0.06824
1641.36,0.09176
1618.22,0.08923
1595.07,0.10712
1571.93,0.07326
1548.78,0.09692
1525.64,0.08613
1502.49,0.05144
1479.35,0.06051
1456.2,0.03373
1433.06,0.04796
1409.91,0.02983
1386.77,0.03911
1363.62,0.03678
1340.48,0.03346
1317.33,0.02949
1294.19,0.02698
1271.04,0.04141
1247.9,0.04663
1224.75,0.04749
1201.61,0.06271
1178.46,0.05133
1155.32,0.04461
1132.17,0.03764
1109.03,0.04182
1085.88,0.04631
1062.74,0.07720
1039.59,0.05746
1016.45,0.05168
993.304,0.12345
970.159,0.08227
947.014,0.14871
923.869,0.15296
900.724,0.08901
877.579,0.06332
854.434,0.08297
831.289,0.11185
808.144,0.11786
784.999,0.11946
761.854,0.13596
738.709,0.04047
715.565,0.08254
692.42,0.14395
669.275,0.15675
646.13,0.17696
622.985,0.17435
599.84,0.17918