File: 01_Data/Cotton_Batting/FTIR/IS/Cotton_Batting_IS_S_220912_R8.dpt
7497.03,0.57986
7473.89,0.57237
7450.74,0.57266
7427.6,0.57504
7404.45,0.57326
7381.31,0.57208
7358.16,0.56498
7335.02,0.55870
7311.87,0.56688
7288.73,0.55875
7265.58,0.56447
7242.44,0.55958
7219.29,0.55926
7196.15,0.55558
7173,0.56368
7149.86,0.56297
7126.71,0.55967
7103.57,0.55416
7080.42,0.55058
7057.28,0.55787
7034.13,0.55159
7010.99,0.55294
6987.84,0.55176
6964.7,0.56261
6941.55,0.55805
6918.41,0.56600
6895.26,0.55676
6872.12,0.56554
6848.97,0.55974
6825.83,0.56681
6802.68,0.56251
6779.54,0.56317
6756.39,0.56520
6733.25,0.56111
6710.1,0.55881
6686.96,0.55954
6663.82,0.55700
6640.67,0.55424
6617.53,0.56055
6594.38,0.55890
6571.24,0.55687
6548.09,0.55488
6524.95,0.55231
6501.8,0.55482
6478.66,0.55504
6455.51,0.55726
6432.37,0.56248
6409.22,0.56355
6386.08,0.56115
6362.93,0.56177
6339.79,0.55844
6316.64,0.55866
6293.5,0.55992
6270.35,0.56262
6247.21,0.56219
6224.06,0.56135
6200.92,0.55385
6177.77,0.55415
6154.63,0.55401
6131.48,0.54930
6108.34,0.54055
6085.19,0.51669
6062.05,0.48956
6038.9,0.46406
6015.76,0.44457
5992.61,0.47396
5969.47,0.48814
5946.32,0.49617
5923.18,0.50393
5900.03,0.50880
5876.89,0.49414
5853.74,0.48348
5830.6,0.47817
5807.45,0.47421
5784.31,0.47508
5761.16,0.48369
5738.02,0.49411
5714.87,0.49545
5691.73,0.49934
5668.58,0.50403
5645.44,0.51404
5622.29,0.52150
5599.15,0.52523
5576,0.52182
5552.86,0.52100
5529.71,0.52365
5506.57,0.52606
5483.42,0.52558
5460.28,0.52672
5437.13,0.53330
5413.99,0.53487
5390.84,0.53929
5367.7,0.53963
5344.55,0.53793
5321.41,0.54158
5298.26,0.53917
5275.12,0.53408
5251.97,0.52866
5228.83,0.52590
5205.68,0.52700
5182.54,0.52488
5159.39,0.52210
5136.25,0.51700
5113.1,0.51483
5089.96,0.52537
5066.81,0.52978
5043.67,0.53064
5020.52,0.52757
4997.38,0.52307
4974.23,0.51438
4951.09,0.50980
4927.94,0.50397
4904.8,0.48962
4881.65,0.46683
4858.51,0.47091
4835.36,0.48868
4812.22,0.48607
4789.07,0.48275
4765.93,0.48565
4742.78,0.46799
4719.64,0.43081
4696.49,0.40116
4673.35,0.42106
4650.2,0.43124
4627.06,0.41242
4603.92,0.43978
4580.77,0.41697
4557.63,0.44483
4534.48,0.44660
4511.34,0.43855
4488.19,0.40194
4465.05,0.36450
4441.9,0.32558
4418.76,0.31518
4395.61,0.31461
4372.47,0.30943
4349.32,0.30013
4326.18,0.30269
4303.03,0.30421
4279.89,0.29332
4256.74,0.29034
4233.6,0.29681
4210.45,0.30524
4187.31,0.30690
4164.16,0.31366
4141.02,0.32445
4117.87,0.31291
4094.73,0.26736
4071.58,0.29811
4048.44,0.31945
4025.29,0.32838
4002.15,0.32893
3979,0.34200
3955.86,0.36155
3932.71,0.37148
3909.57,0.37914
3886.42,0.39234
3863.28,0.40118
3840.13,0.40302
3816.99,0.40221
3793.84,0.40588
3770.7,0.40555
3747.55,0.41104
3724.41,0.41351
3701.26,0.39911
3678.12,0.35773
3654.97,0.34094
3631.83,0.30380
3608.68,0.27658
3585.54,0.24369
3562.39,0.20525
3539.25,0.18840
3516.1,0.18741
3492.96,0.18741
3469.81,0.17595
3446.67,0.13713
3423.52,0.12469
3400.38,0.15520
3377.23,0.14649
3354.09,0.12906
3330.94,0.11813
3307.8,0.12114
3284.65,0.12413
3261.51,0.12802
3238.36,0.13295
3215.22,0.13884
3192.07,0.14312
3168.93,0.15131
3145.78,0.15275
3122.64,0.13680
3099.49,0.11214
3076.35,0.10184
3053.2,0.09997
3030.06,0.13174
3006.91,0.09393
2983.77,0.06378
2960.62,0.04390
2937.48,0.06555
2914.33,0.06233
2891.19,0.07083
2868.04,0.07933
2844.9,0.10312
2821.75,0.14673
2798.61,0.16569
2775.46,0.19238
2752.32,0.20158
2729.17,0.21791
2706.03,0.24013
2682.88,0.25026
2659.74,0.25765
2636.59,0.24894
2613.45,0.24817
2590.3,0.23911
2567.16,0.24035
2544.02,0.24129
2520.87,0.25044
2497.73,0.26387
2474.58,0.28602
2451.44,0.29942
2428.29,0.28003
2405.15,0.25290
2382,0.24390
2358.86,0.27178
2335.71,0.29519
2312.57,0.30501
2289.42,0.26935
2266.28,0.26777
2243.13,0.21237
2219.99,0.29326
2196.84,0.30783
2173.7,0.29549
2150.55,0.25642
2127.41,0.23628
2104.26,0.22685
2081.12,0.24642
2057.97,0.28891
2034.83,0.30438
2011.68,0.27787
1988.54,0.23374
1965.39,0.18275
1942.25,0.19215
1919.1,0.24441
1895.96,0.26803
1872.81,0.26578
1849.67,0.20942
1826.52,0.15055
1803.38,0.13813
1780.23,0.10979
1757.09,0.05787
1733.94,0.03408
1710.8,0.04373
1687.65,0.05059
1664.51,0.06834
1641.36,0.09268
1618.22,0.09048
1595.07,0.10782
1571.93,0.07369
1548.78,0.09716
1525.64,0.08604
1502.49,0.05107
1479.35,0.05996
1456.2,0.03390
1433.06,0.04776
1409.91,0.02962
1386.77,0.03922
1363.62,0.03604
1340.48,0.03351
1317.33,0.02952
1294.19,0.02709
1271.04,0.04145
1247.9,0.04549
1224.75,0.04721
1201.61,0.06263
1178.46,0.05166
1155.32,0.04465
1132.17,0.03740
1109.03,0.04120
1085.88,0.04634
1062.74,0.07719
1039.59,0.05692
1016.45,0.05165
993.304,0.12354
970.159,0.08246
947.014,0.14880
923.869,0.15319
900.724,0.08967
877.579,0.06291
854.434,0.08336
831.289,0.11295
808.144,0.11772
784.999,0.11964
761.854,0.13642
738.709,0.03961
715.565,0.08281
692.42,0.14495
669.275,0.15928
646.13,0.17934
622.985,0.17418
599.84,0.18176