File: 01_Data/Cotton_Batting/FTIR/IS/Cotton_Batting_IS_S_220912_R2.dpt
7497.03,0.57747
7473.89,0.58323
7450.74,0.57065
7427.6,0.57306
7404.45,0.57007
7381.31,0.56509
7358.16,0.56176
7335.02,0.56774
7311.87,0.56321
7288.73,0.56554
7265.58,0.55760
7242.44,0.56046
7219.29,0.55995
7196.15,0.55024
7173,0.55778
7149.86,0.55771
7126.71,0.55652
7103.57,0.55608
7080.42,0.55071
7057.28,0.54900
7034.13,0.55438
7010.99,0.55342
6987.84,0.54930
6964.7,0.55593
6941.55,0.56084
6918.41,0.55696
6895.26,0.55874
6872.12,0.56316
6848.97,0.56057
6825.83,0.55950
6802.68,0.56268
6779.54,0.56218
6756.39,0.56073
6733.25,0.55804
6710.1,0.55923
6686.96,0.55435
6663.82,0.55881
6640.67,0.56176
6617.53,0.55837
6594.38,0.55729
6571.24,0.55793
6548.09,0.55441
6524.95,0.55227
6501.8,0.55035
6478.66,0.55590
6455.51,0.55585
6432.37,0.55933
6409.22,0.56343
6386.08,0.56302
6362.93,0.56086
6339.79,0.55971
6316.64,0.56217
6293.5,0.56053
6270.35,0.55889
6247.21,0.56153
6224.06,0.55730
6200.92,0.55169
6177.77,0.55516
6154.63,0.55137
6131.48,0.54838
6108.34,0.54000
6085.19,0.51897
6062.05,0.48811
6038.9,0.46105
6015.76,0.44221
5992.61,0.47600
5969.47,0.49010
5946.32,0.49396
5923.18,0.50780
5900.03,0.50940
5876.89,0.49364
5853.74,0.48146
5830.6,0.47884
5807.45,0.47518
5784.31,0.47462
5761.16,0.48667
5738.02,0.49198
5714.87,0.49410
5691.73,0.49840
5668.58,0.50564
5645.44,0.51486
5622.29,0.51997
5599.15,0.52740
5576,0.52263
5552.86,0.52293
5529.71,0.52456
5506.57,0.52566
5483.42,0.52516
5460.28,0.52689
5437.13,0.53229
5413.99,0.53660
5390.84,0.53820
5367.7,0.53921
5344.55,0.53928
5321.41,0.54045
5298.26,0.53666
5275.12,0.53008
5251.97,0.52317
5228.83,0.52232
5205.68,0.52069
5182.54,0.51896
5159.39,0.51529
5136.25,0.51009
5113.1,0.50795
5089.96,0.51844
5066.81,0.52480
5043.67,0.52813
5020.52,0.52578
4997.38,0.52078
4974.23,0.51270
4951.09,0.50924
4927.94,0.50400
4904.8,0.48932
4881.65,0.46658
4858.51,0.47117
4835.36,0.48797
4812.22,0.48607
4789.07,0.48200
4765.93,0.48537
4742.78,0.46720
4719.64,0.43117
4696.49,0.40213
4673.35,0.42027
4650.2,0.43128
4627.06,0.41186
4603.92,0.43867
4580.77,0.41646
4557.63,0.44348
4534.48,0.44565
4511.34,0.43905
4488.19,0.40245
4465.05,0.36470
4441.9,0.32506
4418.76,0.31688
4395.61,0.31505
4372.47,0.30911
4349.32,0.29944
4326.18,0.30239
4303.03,0.30391
4279.89,0.29395
4256.74,0.29064
4233.6,0.29683
4210.45,0.30608
4187.31,0.30709
4164.16,0.31364
4141.02,0.32494
4117.87,0.31203
4094.73,0.26654
4071.58,0.29738
4048.44,0.31864
4025.29,0.32684
4002.15,0.32873
3979,0.34154
3955.86,0.36035
3932.71,0.37051
3909.57,0.37841
3886.42,0.39307
3863.28,0.40037
3840.13,0.40137
3816.99,0.40075
3793.84,0.40402
3770.7,0.40307
3747.55,0.40751
3724.41,0.40956
3701.26,0.39125
3678.12,0.33785
3654.97,0.30746
3631.83,0.26912
3608.68,0.24638
3585.54,0.21779
3562.39,0.18261
3539.25,0.16799
3516.1,0.16730
3492.96,0.16695
3469.81,0.15871
3446.67,0.12717
3423.52,0.11832
3400.38,0.14716
3377.23,0.14238
3354.09,0.12825
3330.94,0.11750
3307.8,0.12130
3284.65,0.12372
3261.51,0.12672
3238.36,0.13139
3215.22,0.13752
3192.07,0.14106
3168.93,0.14889
3145.78,0.14889
3122.64,0.13453
3099.49,0.11099
3076.35,0.10043
3053.2,0.09909
3030.06,0.13060
3006.91,0.09376
2983.77,0.06344
2960.62,0.04423
2937.48,0.06589
2914.33,0.06278
2891.19,0.07055
2868.04,0.07952
2844.9,0.10348
2821.75,0.14679
2798.61,0.16591
2775.46,0.19164
2752.32,0.20094
2729.17,0.21749
2706.03,0.23958
2682.88,0.25016
2659.74,0.25681
2636.59,0.24741
2613.45,0.24741
2590.3,0.23830
2567.16,0.23955
2544.02,0.24059
2520.87,0.24933
2497.73,0.26344
2474.58,0.28490
2451.44,0.29870
2428.29,0.27919
2405.15,0.25227
2382,0.24403
2358.86,0.27132
2335.71,0.29395
2312.57,0.30398
2289.42,0.26879
2266.28,0.26649
2243.13,0.21061
2219.99,0.29076
2196.84,0.30437
2173.7,0.29284
2150.55,0.25413
2127.41,0.23453
2104.26,0.22520
2081.12,0.24496
2057.97,0.28720
2034.83,0.30237
2011.68,0.27593
1988.54,0.23276
1965.39,0.18201
1942.25,0.19167
1919.1,0.24371
1895.96,0.26694
1872.81,0.26498
1849.67,0.20910
1826.52,0.14992
1803.38,0.13772
1780.23,0.11002
1757.09,0.05825
1733.94,0.03428
1710.8,0.04359
1687.65,0.05129
1664.51,0.06806
1641.36,0.09146
1618.22,0.08873
1595.07,0.10693
1571.93,0.07351
1548.78,0.09715
1525.64,0.08639
1502.49,0.05154
1479.35,0.06011
1456.2,0.03392
1433.06,0.04766
1409.91,0.02932
1386.77,0.03912
1363.62,0.03643
1340.48,0.03344
1317.33,0.02963
1294.19,0.02712
1271.04,0.04147
1247.9,0.04580
1224.75,0.04736
1201.61,0.06307
1178.46,0.05171
1155.32,0.04425
1132.17,0.03693
1109.03,0.04107
1085.88,0.04614
1062.74,0.07686
1039.59,0.05754
1016.45,0.05149
993.304,0.12303
970.159,0.08226
947.014,0.14825
923.869,0.15283
900.724,0.08932
877.579,0.06218
854.434,0.08257
831.289,0.11174
808.144,0.11598
784.999,0.11777
761.854,0.13551
738.709,0.03978
715.565,0.08375
692.42,0.14388
669.275,0.15653
646.13,0.17561
622.985,0.17301
599.84,0.17857