File: 01_Data/Cotton_Batting/FTIR/IS/Cotton_Batting_IS_S_220912_R1.dpt
7497.03,0.57226
7473.89,0.57419
7450.74,0.57288
7427.6,0.57252
7404.45,0.56948
7381.31,0.56593
7358.16,0.56119
7335.02,0.55527
7311.87,0.57029
7288.73,0.56464
7265.58,0.55906
7242.44,0.56142
7219.29,0.55367
7196.15,0.56069
7173,0.55508
7149.86,0.55417
7126.71,0.54856
7103.57,0.54769
7080.42,0.55460
7057.28,0.54774
7034.13,0.55372
7010.99,0.55387
6987.84,0.54860
6964.7,0.55585
6941.55,0.55520
6918.41,0.55300
6895.26,0.56097
6872.12,0.55826
6848.97,0.55714
6825.83,0.55960
6802.68,0.56118
6779.54,0.55869
6756.39,0.55557
6733.25,0.55995
6710.1,0.56277
6686.96,0.55819
6663.82,0.55219
6640.67,0.55555
6617.53,0.55605
6594.38,0.55813
6571.24,0.54933
6548.09,0.54943
6524.95,0.55180
6501.8,0.55137
6478.66,0.55000
6455.51,0.55877
6432.37,0.56132
6409.22,0.55621
6386.08,0.55776
6362.93,0.55779
6339.79,0.55438
6316.64,0.55544
6293.5,0.56131
6270.35,0.55713
6247.21,0.55564
6224.06,0.55802
6200.92,0.55315
6177.77,0.55270
6154.63,0.55138
6131.48,0.54988
6108.34,0.53907
6085.19,0.51081
6062.05,0.48735
6038.9,0.45913
6015.76,0.44385
5992.61,0.47132
5969.47,0.49066
5946.32,0.49148
5923.18,0.50309
5900.03,0.50905
5876.89,0.49242
5853.74,0.47894
5830.6,0.47637
5807.45,0.47470
5784.31,0.47529
5761.16,0.48544
5738.02,0.49101
5714.87,0.49599
5691.73,0.49877
5668.58,0.50231
5645.44,0.50982
5622.29,0.52024
5599.15,0.52252
5576,0.52140
5552.86,0.52117
5529.71,0.52203
5506.57,0.52349
5483.42,0.52232
5460.28,0.52570
5437.13,0.53106
5413.99,0.53432
5390.84,0.53592
5367.7,0.53642
5344.55,0.53581
5321.41,0.53651
5298.26,0.53305
5275.12,0.52344
5251.97,0.51276
5228.83,0.50911
5205.68,0.50959
5182.54,0.50984
5159.39,0.50471
5136.25,0.50011
5113.1,0.49919
5089.96,0.51066
5066.81,0.51641
5043.67,0.52044
5020.52,0.51963
4997.38,0.51557
4974.23,0.50837
4951.09,0.50422
4927.94,0.50015
4904.8,0.48517
4881.65,0.46355
4858.51,0.46944
4835.36,0.48522
4812.22,0.48336
4789.07,0.47873
4765.93,0.48249
4742.78,0.46460
4719.64,0.42927
4696.49,0.39955
4673.35,0.41827
4650.2,0.42855
4627.06,0.41035
4603.92,0.43651
4580.77,0.41422
4557.63,0.44195
4534.48,0.44343
4511.34,0.43617
4488.19,0.40078
4465.05,0.36283
4441.9,0.32362
4418.76,0.31484
4395.61,0.31319
4372.47,0.30827
4349.32,0.29975
4326.18,0.30178
4303.03,0.30262
4279.89,0.29213
4256.74,0.29004
4233.6,0.29599
4210.45,0.30410
4187.31,0.30563
4164.16,0.31243
4141.02,0.32311
4117.87,0.31119
4094.73,0.26501
4071.58,0.29517
4048.44,0.31618
4025.29,0.32505
4002.15,0.32547
3979,0.33845
3955.86,0.35680
3932.71,0.36712
3909.57,0.37469
3886.42,0.38937
3863.28,0.39607
3840.13,0.39794
3816.99,0.39693
3793.84,0.39881
3770.7,0.39710
3747.55,0.40075
3724.41,0.40097
3701.26,0.38018
3678.12,0.31427
3654.97,0.26755
3631.83,0.22918
3608.68,0.21271
3585.54,0.19118
3562.39,0.16038
3539.25,0.14922
3516.1,0.14943
3492.96,0.15115
3469.81,0.14384
3446.67,0.11846
3423.52,0.11026
3400.38,0.13913
3377.23,0.13776
3354.09,0.12591
3330.94,0.11640
3307.8,0.11982
3284.65,0.12246
3261.51,0.12514
3238.36,0.12886
3215.22,0.13533
3192.07,0.13757
3168.93,0.14490
3145.78,0.14560
3122.64,0.13149
3099.49,0.10983
3076.35,0.09937
3053.2,0.09802
3030.06,0.12844
3006.91,0.09268
2983.77,0.06381
2960.62,0.04403
2937.48,0.06535
2914.33,0.06231
2891.19,0.07054
2868.04,0.07854
2844.9,0.10313
2821.75,0.14603
2798.61,0.16445
2775.46,0.19018
2752.32,0.19972
2729.17,0.21617
2706.03,0.23775
2682.88,0.24726
2659.74,0.25392
2636.59,0.24557
2613.45,0.24522
2590.3,0.23642
2567.16,0.23746
2544.02,0.23815
2520.87,0.24728
2497.73,0.26064
2474.58,0.28254
2451.44,0.29610
2428.29,0.27695
2405.15,0.24999
2382,0.24236
2358.86,0.27274
2335.71,0.29428
2312.57,0.30200
2289.42,0.26609
2266.28,0.26341
2243.13,0.20839
2219.99,0.28643
2196.84,0.29904
2173.7,0.28756
2150.55,0.24949
2127.41,0.23105
2104.26,0.22185
2081.12,0.24133
2057.97,0.28301
2034.83,0.29814
2011.68,0.27264
1988.54,0.23034
1965.39,0.18056
1942.25,0.19025
1919.1,0.24188
1895.96,0.26453
1872.81,0.26267
1849.67,0.20735
1826.52,0.14925
1803.38,0.13708
1780.23,0.10918
1757.09,0.05817
1733.94,0.03417
1710.8,0.04330
1687.65,0.05134
1664.51,0.06734
1641.36,0.08942
1618.22,0.08667
1595.07,0.10527
1571.93,0.07316
1548.78,0.09654
1525.64,0.08608
1502.49,0.05120
1479.35,0.06036
1456.2,0.03397
1433.06,0.04816
1409.91,0.02984
1386.77,0.03923
1363.62,0.03663
1340.48,0.03316
1317.33,0.02980
1294.19,0.02681
1271.04,0.04153
1247.9,0.04598
1224.75,0.04744
1201.61,0.06299
1178.46,0.05080
1155.32,0.04424
1132.17,0.03687
1109.03,0.04111
1085.88,0.04522
1062.74,0.07645
1039.59,0.05748
1016.45,0.05147
993.304,0.12228
970.159,0.08153
947.014,0.14682
923.869,0.15144
900.724,0.08814
877.579,0.06185
854.434,0.08101
831.289,0.11081
808.144,0.11375
784.999,0.11584
761.854,0.13378
738.709,0.03940
715.565,0.08220
692.42,0.14281
669.275,0.15580
646.13,0.17182
622.985,0.16844
599.84,0.17367