File: 01_Data/Cotton_Batting/FTIR/IS/Cotton_Batting_IS_S_220912_R7.dpt
7497.03,0.57707
7473.89,0.57711
7450.74,0.57355
7427.6,0.56664
7404.45,0.57422
7381.31,0.57307
7358.16,0.56082
7335.02,0.55547
7311.87,0.56285
7288.73,0.55301
7265.58,0.55735
7242.44,0.55870
7219.29,0.55780
7196.15,0.56466
7173,0.55293
7149.86,0.55275
7126.71,0.54714
7103.57,0.55783
7080.42,0.55081
7057.28,0.55834
7034.13,0.55817
7010.99,0.55592
6987.84,0.55478
6964.7,0.55378
6941.55,0.55722
6918.41,0.55524
6895.26,0.56013
6872.12,0.55680
6848.97,0.55644
6825.83,0.55832
6802.68,0.56202
6779.54,0.55764
6756.39,0.55592
6733.25,0.56193
6710.1,0.56358
6686.96,0.55608
6663.82,0.55811
6640.67,0.55735
6617.53,0.55706
6594.38,0.54940
6571.24,0.55708
6548.09,0.55164
6524.95,0.55462
6501.8,0.55432
6478.66,0.55481
6455.51,0.56202
6432.37,0.56325
6409.22,0.55966
6386.08,0.56448
6362.93,0.55843
6339.79,0.55893
6316.64,0.56254
6293.5,0.55981
6270.35,0.55862
6247.21,0.55990
6224.06,0.55716
6200.92,0.55641
6177.77,0.55443
6154.63,0.55274
6131.48,0.55357
6108.34,0.53847
6085.19,0.51528
6062.05,0.48484
6038.9,0.46199
6015.76,0.44300
5992.61,0.47333
5969.47,0.49071
5946.32,0.49564
5923.18,0.50244
5900.03,0.50987
5876.89,0.49296
5853.74,0.47984
5830.6,0.47449
5807.45,0.47425
5784.31,0.47697
5761.16,0.48766
5738.02,0.49374
5714.87,0.49326
5691.73,0.49754
5668.58,0.50362
5645.44,0.51240
5622.29,0.51961
5599.15,0.52443
5576,0.52259
5552.86,0.52261
5529.71,0.52139
5506.57,0.52528
5483.42,0.52431
5460.28,0.52617
5437.13,0.53111
5413.99,0.53398
5390.84,0.53716
5367.7,0.53674
5344.55,0.53868
5321.41,0.53892
5298.26,0.53879
5275.12,0.53236
5251.97,0.52694
5228.83,0.52471
5205.68,0.52479
5182.54,0.52437
5159.39,0.51868
5136.25,0.51337
5113.1,0.51308
5089.96,0.52269
5066.81,0.52816
5043.67,0.52865
5020.52,0.52836
4997.38,0.52293
4974.23,0.51357
4951.09,0.50844
4927.94,0.50284
4904.8,0.48836
4881.65,0.46588
4858.51,0.47150
4835.36,0.48790
4812.22,0.48644
4789.07,0.48106
4765.93,0.48386
4742.78,0.46602
4719.64,0.43202
4696.49,0.40051
4673.35,0.41970
4650.2,0.43013
4627.06,0.41108
4603.92,0.43763
4580.77,0.41617
4557.63,0.44305
4534.48,0.44499
4511.34,0.43815
4488.19,0.40120
4465.05,0.36440
4441.9,0.32468
4418.76,0.31545
4395.61,0.31419
4372.47,0.30902
4349.32,0.29979
4326.18,0.30119
4303.03,0.30301
4279.89,0.29319
4256.74,0.29007
4233.6,0.29596
4210.45,0.30439
4187.31,0.30696
4164.16,0.31378
4141.02,0.32485
4117.87,0.31170
4094.73,0.26670
4071.58,0.29725
4048.44,0.31901
4025.29,0.32648
4002.15,0.32868
3979,0.34110
3955.86,0.35981
3932.71,0.37009
3909.57,0.37855
3886.42,0.39248
3863.28,0.40019
3840.13,0.40177
3816.99,0.40128
3793.84,0.40488
3770.7,0.40493
3747.55,0.40954
3724.41,0.41286
3701.26,0.39833
3678.12,0.35513
3654.97,0.33744
3631.83,0.30163
3608.68,0.27328
3585.54,0.24137
3562.39,0.20328
3539.25,0.18710
3516.1,0.18552
3492.96,0.18537
3469.81,0.17402
3446.67,0.13625
3423.52,0.12452
3400.38,0.15554
3377.23,0.14627
3354.09,0.12897
3330.94,0.11820
3307.8,0.12082
3284.65,0.12399
3261.51,0.12737
3238.36,0.13249
3215.22,0.13995
3192.07,0.14320
3168.93,0.15143
3145.78,0.15115
3122.64,0.13682
3099.49,0.11283
3076.35,0.10162
3053.2,0.09965
3030.06,0.13136
3006.91,0.09392
2983.77,0.06397
2960.62,0.04394
2937.48,0.06540
2914.33,0.06260
2891.19,0.07060
2868.04,0.07936
2844.9,0.10348
2821.75,0.14668
2798.61,0.16478
2775.46,0.19225
2752.32,0.20110
2729.17,0.21720
2706.03,0.23988
2682.88,0.24969
2659.74,0.25649
2636.59,0.24861
2613.45,0.24795
2590.3,0.23889
2567.16,0.23990
2544.02,0.24051
2520.87,0.24931
2497.73,0.26315
2474.58,0.28468
2451.44,0.29872
2428.29,0.27987
2405.15,0.25225
2382,0.24397
2358.86,0.27086
2335.71,0.29399
2312.57,0.30412
2289.42,0.26952
2266.28,0.26679
2243.13,0.21183
2219.99,0.29220
2196.84,0.30669
2173.7,0.29501
2150.55,0.25554
2127.41,0.23600
2104.26,0.22634
2081.12,0.24591
2057.97,0.28838
2034.83,0.30346
2011.68,0.27707
1988.54,0.23326
1965.39,0.18244
1942.25,0.19163
1919.1,0.24400
1895.96,0.26703
1872.81,0.26514
1849.67,0.20928
1826.52,0.15012
1803.38,0.13755
1780.23,0.10957
1757.09,0.05776
1733.94,0.03404
1710.8,0.04340
1687.65,0.05114
1664.51,0.06842
1641.36,0.09238
1618.22,0.09000
1595.07,0.10759
1571.93,0.07350
1548.78,0.09708
1525.64,0.08616
1502.49,0.05105
1479.35,0.05988
1456.2,0.03347
1433.06,0.04770
1409.91,0.02946
1386.77,0.03941
1363.62,0.03675
1340.48,0.03336
1317.33,0.02932
1294.19,0.02700
1271.04,0.04167
1247.9,0.04585
1224.75,0.04746
1201.61,0.06324
1178.46,0.05123
1155.32,0.04485
1132.17,0.03745
1109.03,0.04177
1085.88,0.04691
1062.74,0.07703
1039.59,0.05755
1016.45,0.05193
993.304,0.12360
970.159,0.08311
947.014,0.14847
923.869,0.15321
900.724,0.08978
877.579,0.06311
854.434,0.08255
831.289,0.11244
808.144,0.11863
784.999,0.11936
761.854,0.13670
738.709,0.03981
715.565,0.08248
692.42,0.14530
669.275,0.15784
646.13,0.17952
622.985,0.17406
599.84,0.18196