File: 01_Data/Cotton_Batting/FTIR/IS/Cotton_Batting_IS_S_220912_R5.dpt
7497.03,0.57269
7473.89,0.56901
7450.74,0.57558
7427.6,0.56387
7404.45,0.57383
7381.31,0.57588
7358.16,0.57363
7335.02,0.56663
7311.87,0.56728
7288.73,0.56223
7265.58,0.56055
7242.44,0.55775
7219.29,0.55700
7196.15,0.55767
7173,0.55751
7149.86,0.55607
7126.71,0.54529
7103.57,0.55945
7080.42,0.55111
7057.28,0.54786
7034.13,0.55486
7010.99,0.55000
6987.84,0.55778
6964.7,0.55642
6941.55,0.55683
6918.41,0.56221
6895.26,0.55228
6872.12,0.55816
6848.97,0.55672
6825.83,0.56456
6802.68,0.56168
6779.54,0.56103
6756.39,0.55858
6733.25,0.56341
6710.1,0.56279
6686.96,0.56313
6663.82,0.56034
6640.67,0.55878
6617.53,0.55446
6594.38,0.55927
6571.24,0.55618
6548.09,0.55409
6524.95,0.55375
6501.8,0.55243
6478.66,0.55348
6455.51,0.56016
6432.37,0.56622
6409.22,0.56248
6386.08,0.56070
6362.93,0.56148
6339.79,0.56067
6316.64,0.55933
6293.5,0.56005
6270.35,0.55859
6247.21,0.55640
6224.06,0.55530
6200.92,0.55174
6177.77,0.55219
6154.63,0.55625
6131.48,0.55309
6108.34,0.54194
6085.19,0.51459
6062.05,0.48635
6038.9,0.46245
6015.76,0.44372
5992.61,0.47446
5969.47,0.48923
5946.32,0.49553
5923.18,0.50630
5900.03,0.51026
5876.89,0.49212
5853.74,0.48253
5830.6,0.47713
5807.45,0.47250
5784.31,0.47391
5761.16,0.48553
5738.02,0.49468
5714.87,0.49411
5691.73,0.50056
5668.58,0.50378
5645.44,0.51080
5622.29,0.52056
5599.15,0.52522
5576,0.52072
5552.86,0.52333
5529.71,0.52310
5506.57,0.52586
5483.42,0.52590
5460.28,0.52681
5437.13,0.53285
5413.99,0.53492
5390.84,0.53764
5367.7,0.53876
5344.55,0.53897
5321.41,0.54154
5298.26,0.53870
5275.12,0.53330
5251.97,0.52705
5228.83,0.52474
5205.68,0.52400
5182.54,0.52344
5159.39,0.51910
5136.25,0.51357
5113.1,0.51284
5089.96,0.52270
5066.81,0.52739
5043.67,0.52715
5020.52,0.52557
4997.38,0.52361
4974.23,0.51333
4951.09,0.50764
4927.94,0.50325
4904.8,0.48826
4881.65,0.46625
4858.51,0.47203
4835.36,0.48886
4812.22,0.48595
4789.07,0.48162
4765.93,0.48617
4742.78,0.46631
4719.64,0.43065
4696.49,0.40114
4673.35,0.42018
4650.2,0.43106
4627.06,0.41170
4603.92,0.43788
4580.77,0.41610
4557.63,0.44314
4534.48,0.44555
4511.34,0.43879
4488.19,0.40234
4465.05,0.36492
4441.9,0.32523
4418.76,0.31544
4395.61,0.31467
4372.47,0.30917
4349.32,0.30062
4326.18,0.30218
4303.03,0.30388
4279.89,0.29314
4256.74,0.29055
4233.6,0.29628
4210.45,0.30501
4187.31,0.30764
4164.16,0.31419
4141.02,0.32529
4117.87,0.31257
4094.73,0.26684
4071.58,0.29743
4048.44,0.31942
4025.29,0.32741
4002.15,0.32897
3979,0.34178
3955.86,0.36083
3932.71,0.37116
3909.57,0.37943
3886.42,0.39357
3863.28,0.40003
3840.13,0.40117
3816.99,0.40203
3793.84,0.40513
3770.7,0.40431
3747.55,0.40937
3724.41,0.41281
3701.26,0.39743
3678.12,0.35310
3654.97,0.33224
3631.83,0.29448
3608.68,0.26787
3585.54,0.23617
3562.39,0.19943
3539.25,0.18273
3516.1,0.18132
3492.96,0.18135
3469.81,0.17042
3446.67,0.13438
3423.52,0.12365
3400.38,0.15340
3377.23,0.14474
3354.09,0.12836
3330.94,0.11859
3307.8,0.12149
3284.65,0.12343
3261.51,0.12805
3238.36,0.13230
3215.22,0.14008
3192.07,0.14230
3168.93,0.15093
3145.78,0.15072
3122.64,0.13566
3099.49,0.11221
3076.35,0.10052
3053.2,0.09931
3030.06,0.13151
3006.91,0.09391
2983.77,0.06391
2960.62,0.04413
2937.48,0.06526
2914.33,0.06251
2891.19,0.07108
2868.04,0.07942
2844.9,0.10336
2821.75,0.14686
2798.61,0.16585
2775.46,0.19256
2752.32,0.20150
2729.17,0.21793
2706.03,0.24004
2682.88,0.25021
2659.74,0.25734
2636.59,0.24883
2613.45,0.24840
2590.3,0.23866
2567.16,0.23986
2544.02,0.24073
2520.87,0.24993
2497.73,0.26357
2474.58,0.28534
2451.44,0.29906
2428.29,0.27968
2405.15,0.25235
2382,0.24428
2358.86,0.27161
2335.71,0.29453
2312.57,0.30472
2289.42,0.26959
2266.28,0.26763
2243.13,0.21190
2219.99,0.29261
2196.84,0.30669
2173.7,0.29473
2150.55,0.25546
2127.41,0.23599
2104.26,0.22610
2081.12,0.24596
2057.97,0.28835
2034.83,0.30367
2011.68,0.27725
1988.54,0.23352
1965.39,0.18251
1942.25,0.19209
1919.1,0.24448
1895.96,0.26739
1872.81,0.26543
1849.67,0.20940
1826.52,0.14997
1803.38,0.13821
1780.23,0.10987
1757.09,0.05806
1733.94,0.03442
1710.8,0.04354
1687.65,0.05084
1664.51,0.06837
1641.36,0.09213
1618.22,0.08928
1595.07,0.10721
1571.93,0.07383
1548.78,0.09712
1525.64,0.08611
1502.49,0.05146
1479.35,0.06003
1456.2,0.03412
1433.06,0.04776
1409.91,0.02911
1386.77,0.03926
1363.62,0.03687
1340.48,0.03317
1317.33,0.02957
1294.19,0.02702
1271.04,0.04189
1247.9,0.04576
1224.75,0.04722
1201.61,0.06276
1178.46,0.05121
1155.32,0.04465
1132.17,0.03755
1109.03,0.04111
1085.88,0.04655
1062.74,0.07736
1039.59,0.05762
1016.45,0.05121
993.304,0.12318
970.159,0.08227
947.014,0.14891
923.869,0.15365
900.724,0.09017
877.579,0.06277
854.434,0.08279
831.289,0.11305
808.144,0.11703
784.999,0.11939
761.854,0.13681
738.709,0.03957
715.565,0.08287
692.42,0.14619
669.275,0.15947
646.13,0.17836
622.985,0.17245
599.84,0.18033