File: 01_Data/Cotton_Batting/FTIR/IS/Cotton_Batting_IS_S_220912_R6.dpt
7497.03,0.57378
7473.89,0.57069
7450.74,0.56624
7427.6,0.57094
7404.45,0.57139
7381.31,0.57712
7358.16,0.56420
7335.02,0.55924
7311.87,0.56456
7288.73,0.56711
7265.58,0.56529
7242.44,0.55639
7219.29,0.56774
7196.15,0.55452
7173,0.55800
7149.86,0.55657
7126.71,0.55830
7103.57,0.55150
7080.42,0.55698
7057.28,0.54978
7034.13,0.55211
7010.99,0.55237
6987.84,0.55815
6964.7,0.55601
6941.55,0.55644
6918.41,0.55728
6895.26,0.56474
6872.12,0.55967
6848.97,0.55981
6825.83,0.56068
6802.68,0.55919
6779.54,0.55771
6756.39,0.55468
6733.25,0.55916
6710.1,0.56255
6686.96,0.56173
6663.82,0.56087
6640.67,0.55757
6617.53,0.55749
6594.38,0.55912
6571.24,0.55195
6548.09,0.55208
6524.95,0.55049
6501.8,0.55540
6478.66,0.55803
6455.51,0.55989
6432.37,0.56507
6409.22,0.55945
6386.08,0.55773
6362.93,0.55897
6339.79,0.56197
6316.64,0.56000
6293.5,0.56179
6270.35,0.55469
6247.21,0.55492
6224.06,0.55795
6200.92,0.55329
6177.77,0.55253
6154.63,0.55390
6131.48,0.54976
6108.34,0.54162
6085.19,0.51548
6062.05,0.48821
6038.9,0.46361
6015.76,0.44383
5992.61,0.47568
5969.47,0.48962
5946.32,0.49539
5923.18,0.50459
5900.03,0.50898
5876.89,0.49279
5853.74,0.48379
5830.6,0.47991
5807.45,0.47800
5784.31,0.47558
5761.16,0.48493
5738.02,0.49407
5714.87,0.49548
5691.73,0.49968
5668.58,0.50563
5645.44,0.51186
5622.29,0.52221
5599.15,0.52637
5576,0.52140
5552.86,0.52284
5529.71,0.52243
5506.57,0.52838
5483.42,0.52374
5460.28,0.52790
5437.13,0.53189
5413.99,0.53597
5390.84,0.53725
5367.7,0.53868
5344.55,0.53832
5321.41,0.54242
5298.26,0.53757
5275.12,0.53468
5251.97,0.52589
5228.83,0.52514
5205.68,0.52675
5182.54,0.52484
5159.39,0.51965
5136.25,0.51515
5113.1,0.51265
5089.96,0.52288
5066.81,0.52842
5043.67,0.52786
5020.52,0.52747
4997.38,0.52233
4974.23,0.51298
4951.09,0.50923
4927.94,0.50337
4904.8,0.48819
4881.65,0.46601
4858.51,0.46994
4835.36,0.48967
4812.22,0.48578
4789.07,0.48316
4765.93,0.48613
4742.78,0.46669
4719.64,0.43096
4696.49,0.39984
4673.35,0.42107
4650.2,0.43110
4627.06,0.41199
4603.92,0.43827
4580.77,0.41674
4557.63,0.44285
4534.48,0.44463
4511.34,0.43842
4488.19,0.40209
4465.05,0.36470
4441.9,0.32589
4418.76,0.31539
4395.61,0.31349
4372.47,0.30908
4349.32,0.30019
4326.18,0.30236
4303.03,0.30386
4279.89,0.29368
4256.74,0.29044
4233.6,0.29674
4210.45,0.30502
4187.31,0.30751
4164.16,0.31371
4141.02,0.32536
4117.87,0.31202
4094.73,0.26680
4071.58,0.29726
4048.44,0.31917
4025.29,0.32744
4002.15,0.32895
3979,0.34136
3955.86,0.36008
3932.71,0.37111
3909.57,0.37955
3886.42,0.39333
3863.28,0.40093
3840.13,0.40185
3816.99,0.40131
3793.84,0.40512
3770.7,0.40443
3747.55,0.41057
3724.41,0.41303
3701.26,0.39776
3678.12,0.35516
3654.97,0.33570
3631.83,0.29857
3608.68,0.27205
3585.54,0.23915
3562.39,0.20103
3539.25,0.18537
3516.1,0.18435
3492.96,0.18387
3469.81,0.17331
3446.67,0.13518
3423.52,0.12341
3400.38,0.15454
3377.23,0.14644
3354.09,0.12859
3330.94,0.11842
3307.8,0.12146
3284.65,0.12361
3261.51,0.12748
3238.36,0.13217
3215.22,0.14012
3192.07,0.14270
3168.93,0.15092
3145.78,0.15165
3122.64,0.13640
3099.49,0.11209
3076.35,0.10107
3053.2,0.09967
3030.06,0.13173
3006.91,0.09391
2983.77,0.06419
2960.62,0.04409
2937.48,0.06550
2914.33,0.06280
2891.19,0.07082
2868.04,0.07907
2844.9,0.10349
2821.75,0.14693
2798.61,0.16575
2775.46,0.19219
2752.32,0.20175
2729.17,0.21807
2706.03,0.23987
2682.88,0.24981
2659.74,0.25747
2636.59,0.24906
2613.45,0.24810
2590.3,0.23908
2567.16,0.24024
2544.02,0.24107
2520.87,0.24963
2497.73,0.26382
2474.58,0.28587
2451.44,0.29890
2428.29,0.27974
2405.15,0.25280
2382,0.24413
2358.86,0.27193
2335.71,0.29434
2312.57,0.30464
2289.42,0.26968
2266.28,0.26741
2243.13,0.21189
2219.99,0.29301
2196.84,0.30719
2173.7,0.29535
2150.55,0.25626
2127.41,0.23601
2104.26,0.22651
2081.12,0.24601
2057.97,0.28862
2034.83,0.30447
2011.68,0.27759
1988.54,0.23366
1965.39,0.18319
1942.25,0.19188
1919.1,0.24467
1895.96,0.26771
1872.81,0.26560
1849.67,0.20933
1826.52,0.15028
1803.38,0.13791
1780.23,0.10955
1757.09,0.05822
1733.94,0.03457
1710.8,0.04394
1687.65,0.05121
1664.51,0.06855
1641.36,0.09298
1618.22,0.09002
1595.07,0.10779
1571.93,0.07350
1548.78,0.09723
1525.64,0.08603
1502.49,0.05119
1479.35,0.06010
1456.2,0.03380
1433.06,0.04761
1409.91,0.02952
1386.77,0.03924
1363.62,0.03623
1340.48,0.03335
1317.33,0.02938
1294.19,0.02674
1271.04,0.04199
1247.9,0.04606
1224.75,0.04779
1201.61,0.06320
1178.46,0.05111
1155.32,0.04441
1132.17,0.03695
1109.03,0.04104
1085.88,0.04697
1062.74,0.07751
1039.59,0.05732
1016.45,0.05220
993.304,0.12338
970.159,0.08235
947.014,0.14903
923.869,0.15305
900.724,0.09006
877.579,0.06365
854.434,0.08216
831.289,0.11264
808.144,0.11796
784.999,0.11923
761.854,0.13613
738.709,0.04009
715.565,0.08277
692.42,0.14453
669.275,0.15939
646.13,0.17790
622.985,0.17340
599.84,0.18063