File: 01_Data/Cotton_Batting/FTIR/IS/Cotton_Batting_IS_T_220912_R3.dpt
7497.03,0.03144
7473.89,0.01587
7450.74,0.02927
7427.6,0.02089
7404.45,0.01826
7381.31,0.02030
7358.16,0.01713
7335.02,0.02014
7311.87,0.02942
7288.73,0.01973
7265.58,0.03386
7242.44,0.03517
7219.29,0.02656
7196.15,0.02307
7173,0.02315
7149.86,0.02632
7126.71,0.02886
7103.57,0.02783
7080.42,0.02768
7057.28,0.01310
7034.13,0.02526
7010.99,0.01993
6987.84,0.01990
6964.7,0.02704
6941.55,0.02013
6918.41,0.02158
6895.26,0.02952
6872.12,0.02423
6848.97,0.02163
6825.83,0.01904
6802.68,0.02311
6779.54,0.02041
6756.39,0.02434
6733.25,0.02101
6710.1,0.02197
6686.96,0.02242
6663.82,0.02515
6640.67,0.01896
6617.53,0.02450
6594.38,0.02081
6571.24,0.02126
6548.09,0.02322
6524.95,0.02502
6501.8,0.01900
6478.66,0.02247
6455.51,0.02622
6432.37,0.02141
6409.22,0.02184
6386.08,0.02659
6362.93,0.02465
6339.79,0.02154
6316.64,0.02210
6293.5,0.02438
6270.35,0.02243
6247.21,0.02195
6224.06,0.02453
6200.92,0.02051
6177.77,0.02281
6154.63,0.01992
6131.48,0.01894
6108.34,0.02235
6085.19,0.01984
6062.05,0.01943
6038.9,0.02372
6015.76,0.02518
5992.61,0.02023
5969.47,0.02042
5946.32,0.01890
5923.18,0.02506
5900.03,0.02410
5876.89,0.02047
5853.74,0.02220
5830.6,0.02139
5807.45,0.02118
5784.31,0.02087
5761.16,0.02188
5738.02,0.02204
5714.87,0.02208
5691.73,0.02310
5668.58,0.02440
5645.44,0.02334
5622.29,0.02180
5599.15,0.02357
5576,0.02275
5552.86,0.02273
5529.71,0.02121
5506.57,0.02127
5483.42,0.02256
5460.28,0.02040
5437.13,0.02291
5413.99,0.02275
5390.84,0.02437
5367.7,0.02129
5344.55,0.02118
5321.41,0.02327
5298.26,0.02234
5275.12,0.02096
5251.97,0.02276
5228.83,0.02149
5205.68,0.02288
5182.54,0.02290
5159.39,0.02265
5136.25,0.02212
5113.1,0.02287
5089.96,0.02149
5066.81,0.02323
5043.67,0.02185
5020.52,0.02296
4997.38,0.02163
4974.23,0.02298
4951.09,0.02311
4927.94,0.02177
4904.8,0.02171
4881.65,0.02192
4858.51,0.02290
4835.36,0.02184
4812.22,0.02236
4789.07,0.02299
4765.93,0.02256
4742.78,0.02179
4719.64,0.02378
4696.49,0.02237
4673.35,0.02376
4650.2,0.02259
4627.06,0.02252
4603.92,0.02169
4580.77,0.02240
4557.63,0.02307
4534.48,0.02260
4511.34,0.02231
4488.19,0.02294
4465.05,0.02233
4441.9,0.02200
4418.76,0.02291
4395.61,0.02284
4372.47,0.02260
4349.32,0.02290
4326.18,0.02218
4303.03,0.02226
4279.89,0.02243
4256.74,0.02215
4233.6,0.02292
4210.45,0.02267
4187.31,0.02300
4164.16,0.02308
4141.02,0.02232
4117.87,0.02325
4094.73,0.02268
4071.58,0.02223
4048.44,0.02246
4025.29,0.02262
4002.15,0.02236
3979,0.02236
3955.86,0.02287
3932.71,0.02249
3909.57,0.02271
3886.42,0.02279
3863.28,0.02251
3840.13,0.02285
3816.99,0.02300
3793.84,0.02275
3770.7,0.02247
3747.55,0.02285
3724.41,0.02299
3701.26,0.02243
3678.12,0.02267
3654.97,0.02163
3631.83,0.02192
3608.68,0.02167
3585.54,0.02166
3562.39,0.02148
3539.25,0.02146
3516.1,0.02167
3492.96,0.02108
3469.81,0.02095
3446.67,0.02098
3423.52,0.02094
3400.38,0.02091
3377.23,0.02063
3354.09,0.02027
3330.94,0.02037
3307.8,0.02052
3284.65,0.01988
3261.51,0.01994
3238.36,0.02142
3215.22,0.02102
3192.07,0.02070
3168.93,0.02147
3145.78,0.02077
3122.64,0.02122
3099.49,0.02122
3076.35,0.02086
3053.2,0.02048
3030.06,0.02057
3006.91,0.02024
2983.77,0.02025
2960.62,0.01978
2937.48,0.01968
2914.33,0.02050
2891.19,0.02061
2868.04,0.02060
2844.9,0.02164
2821.75,0.02152
2798.61,0.02171
2775.46,0.02101
2752.32,0.02144
2729.17,0.02135
2706.03,0.02143
2682.88,0.02119
2659.74,0.02159
2636.59,0.02174
2613.45,0.02115
2590.3,0.02104
2567.16,0.02123
2544.02,0.02118
2520.87,0.02139
2497.73,0.02131
2474.58,0.02153
2451.44,0.02128
2428.29,0.02122
2405.15,0.02126
2382,0.02108
2358.86,0.02123
2335.71,0.02115
2312.57,0.02129
2289.42,0.02144
2266.28,0.02130
2243.13,0.02096
2219.99,0.02132
2196.84,0.02139
2173.7,0.02114
2150.55,0.02117
2127.41,0.02086
2104.26,0.02116
2081.12,0.02093
2057.97,0.02140
2034.83,0.02087
2011.68,0.02081
1988.54,0.02057
1965.39,0.02086
1942.25,0.02051
1919.1,0.02095
1895.96,0.02046
1872.81,0.02061
1849.67,0.02032
1826.52,0.02000
1803.38,0.02018
1780.23,0.01869
1757.09,0.01751
1733.94,0.02012
1710.8,0.02092
1687.65,0.01979
1664.51,0.01865
1641.36,0.01865
1618.22,0.01907
1595.07,0.01861
1571.93,0.01855
1548.78,0.01827
1525.64,0.01921
1502.49,0.01919
1479.35,0.01893
1456.2,0.01866
1433.06,0.01842
1409.91,0.01816
1386.77,0.01832
1363.62,0.01855
1340.48,0.01761
1317.33,0.01734
1294.19,0.01771
1271.04,0.01963
1247.9,0.01983
1224.75,0.01931
1201.61,0.01886
1178.46,0.01790
1155.32,0.01796
1132.17,0.01845
1109.03,0.01903
1085.88,0.01857
1062.74,0.02006
1039.59,0.02007
1016.45,0.01985
993.304,0.02134
970.159,0.02021
947.014,0.01928
923.869,0.01988
900.724,0.01948
877.579,0.01976
854.434,0.01854
831.289,0.01921
808.144,0.01853
784.999,0.01896
761.854,0.01901
738.709,0.01770
715.565,0.01796
692.42,0.01839
669.275,0.01843
646.13,0.01718
622.985,0.01667
599.84,0.01396