File: 01_Data/Pine_Siding/FTIR/IS/Pine_Siding_IS_S_220916_R2.dpt
7497.03,0.83438
7473.89,0.82784
7450.74,0.82108
7427.6,0.80830
7404.45,0.79816
7381.31,0.79138
7358.16,0.78147
7335.02,0.77975
7311.87,0.77692
7288.73,0.76449
7265.58,0.77198
7242.44,0.76609
7219.29,0.76062
7196.15,0.75036
7173,0.74706
7149.86,0.72910
7126.71,0.71143
7103.57,0.69334
7080.42,0.67635
7057.28,0.64771
7034.13,0.63410
7010.99,0.61184
6987.84,0.59883
6964.7,0.59327
6941.55,0.58445
6918.41,0.58380
6895.26,0.58247
6872.12,0.58139
6848.97,0.58520
6825.83,0.58183
6802.68,0.57853
6779.54,0.58051
6756.39,0.58044
6733.25,0.58607
6710.1,0.58771
6686.96,0.58904
6663.82,0.59040
6640.67,0.59414
6617.53,0.60292
6594.38,0.60388
6571.24,0.60871
6548.09,0.61432
6524.95,0.60763
6501.8,0.61466
6478.66,0.61124
6455.51,0.61481
6432.37,0.61878
6409.22,0.62315
6386.08,0.62278
6362.93,0.62726
6339.79,0.62695
6316.64,0.62798
6293.5,0.63021
6270.35,0.63800
6247.21,0.64322
6224.06,0.65603
6200.92,0.66171
6177.77,0.66681
6154.63,0.67107
6131.48,0.67692
6108.34,0.68043
6085.19,0.68231
6062.05,0.67926
6038.9,0.67495
6015.76,0.66838
5992.61,0.65964
5969.47,0.65650
5946.32,0.66042
5923.18,0.66318
5900.03,0.65692
5876.89,0.65582
5853.74,0.66059
5830.6,0.65496
5807.45,0.65061
5784.31,0.65214
5761.16,0.65454
5738.02,0.65206
5714.87,0.64878
5691.73,0.65034
5668.58,0.64811
5645.44,0.64854
5622.29,0.64777
5599.15,0.64831
5576,0.64924
5552.86,0.65240
5529.71,0.65344
5506.57,0.65367
5483.42,0.65693
5460.28,0.66074
5437.13,0.66450
5413.99,0.67019
5390.84,0.67257
5367.7,0.67327
5344.55,0.66923
5321.41,0.65747
5298.26,0.63416
5275.12,0.59463
5251.97,0.54706
5228.83,0.51296
5205.68,0.49522
5182.54,0.49358
5159.39,0.50126
5136.25,0.51342
5113.1,0.52599
5089.96,0.53742
5066.81,0.55010
5043.67,0.56232
5020.52,0.57048
4997.38,0.57490
4974.23,0.56888
4951.09,0.55409
4927.94,0.53535
4904.8,0.51231
4881.65,0.49093
4858.51,0.47052
4835.36,0.45494
4812.22,0.44197
4789.07,0.43710
4765.93,0.43120
4742.78,0.43139
4719.64,0.43443
4696.49,0.43706
4673.35,0.44231
4650.2,0.45161
4627.06,0.46164
4603.92,0.47646
4580.77,0.48641
4557.63,0.49326
4534.48,0.50054
4511.34,0.50266
4488.19,0.49475
4465.05,0.47317
4441.9,0.44682
4418.76,0.41458
4395.61,0.39879
4372.47,0.40671
4349.32,0.41282
4326.18,0.40688
4303.03,0.39644
4279.89,0.38896
4256.74,0.39269
4233.6,0.39634
4210.45,0.39539
4187.31,0.39781
4164.16,0.40266
4141.02,0.39695
4117.87,0.38269
4094.73,0.36196
4071.58,0.33851
4048.44,0.31677
4025.29,0.30359
4002.15,0.30242
3979,0.30833
3955.86,0.31733
3932.71,0.32882
3909.57,0.33976
3886.42,0.34903
3863.28,0.35718
3840.13,0.36631
3816.99,0.36933
3793.84,0.36749
3770.7,0.36440
3747.55,0.35580
3724.41,0.33970
3701.26,0.31013
3678.12,0.25452
3654.97,0.18295
3631.83,0.13689
3608.68,0.10434
3585.54,0.08146
3562.39,0.06774
3539.25,0.05885
3516.1,0.05357
3492.96,0.04945
3469.81,0.04655
3446.67,0.04567
3423.52,0.04587
3400.38,0.04578
3377.23,0.04643
3354.09,0.04823
3330.94,0.05070
3307.8,0.05499
3284.65,0.05643
3261.51,0.06139
3238.36,0.06628
3215.22,0.07210
3192.07,0.07951
3168.93,0.08624
3145.78,0.09426
3122.64,0.10195
3099.49,0.10954
3076.35,0.11543
3053.2,0.12219
3030.06,0.12538
3006.91,0.12015
2983.77,0.10709
2960.62,0.08459
2937.48,0.07439
2914.33,0.07334
2891.19,0.07653
2868.04,0.08199
2844.9,0.09381
2821.75,0.11684
2798.61,0.13412
2775.46,0.14194
2752.32,0.14584
2729.17,0.14791
2706.03,0.15511
2682.88,0.16337
2659.74,0.16926
2636.59,0.17607
2613.45,0.18240
2590.3,0.18888
2567.16,0.19284
2544.02,0.19388
2520.87,0.20000
2497.73,0.20876
2474.58,0.21870
2451.44,0.22762
2428.29,0.23836
2405.15,0.25028
2382,0.26077
2358.86,0.26945
2335.71,0.27534
2312.57,0.27772
2289.42,0.27663
2266.28,0.27221
2243.13,0.26767
2219.99,0.26528
2196.84,0.26041
2173.7,0.24800
2150.55,0.23941
2127.41,0.23712
2104.26,0.24050
2081.12,0.24167
2057.97,0.23783
2034.83,0.24355
2011.68,0.25645
1988.54,0.26356
1965.39,0.26946
1942.25,0.28089
1919.1,0.28673
1895.96,0.28485
1872.81,0.28359
1849.67,0.27966
1826.52,0.26975
1803.38,0.24980
1780.23,0.21041
1757.09,0.12351
1733.94,0.09052
1710.8,0.11365
1687.65,0.11714
1664.51,0.08839
1641.36,0.08357
1618.22,0.08421
1595.07,0.08104
1571.93,0.11633
1548.78,0.13553
1525.64,0.09039
1502.49,0.06594
1479.35,0.07322
1456.2,0.05773
1433.06,0.05565
1409.91,0.06277
1386.77,0.05643
1363.62,0.05591
1340.48,0.05699
1317.33,0.05572
1294.19,0.05635
1271.04,0.05001
1247.9,0.05482
1224.75,0.05445
1201.61,0.05479
1178.46,0.04725
1155.32,0.05150
1132.17,0.04258
1109.03,0.04879
1085.88,0.04962
1062.74,0.07403
1039.59,0.07599
1016.45,0.08699
993.304,0.09577
970.159,0.11426
947.014,0.12440
923.869,0.13206
900.724,0.11059
877.579,0.11720
854.434,0.11840
831.289,0.11839
808.144,0.10265
784.999,0.10504
761.854,0.09701
738.709,0.09158
715.565,0.08347
692.42,0.07874
669.275,0.07367
646.13,0.07662
622.985,0.06909
599.84,0.07832