File: 01_Data/Pine_Siding/FTIR/IS/Pine_Siding_IS_T_220916_R2.dpt
7497.03,0.03047
7473.89,0.01928
7450.74,0.02433
7427.6,0.02969
7404.45,0.02718
7381.31,0.02043
7358.16,0.02859
7335.02,0.02319
7311.87,0.02003
7288.73,0.02126
7265.58,0.02026
7242.44,0.02374
7219.29,0.02265
7196.15,0.02135
7173,0.02431
7149.86,0.02297
7126.71,0.02459
7103.57,0.02445
7080.42,0.02916
7057.28,0.02216
7034.13,0.02821
7010.99,0.02420
6987.84,0.02010
6964.7,0.02062
6941.55,0.02891
6918.41,0.02237
6895.26,0.01951
6872.12,0.02226
6848.97,0.01887
6825.83,0.02270
6802.68,0.02628
6779.54,0.02158
6756.39,0.02376
6733.25,0.02425
6710.1,0.02563
6686.96,0.02400
6663.82,0.02024
6640.67,0.02378
6617.53,0.02371
6594.38,0.02207
6571.24,0.02140
6548.09,0.02547
6524.95,0.02396
6501.8,0.02238
6478.66,0.01759
6455.51,0.02348
6432.37,0.02317
6409.22,0.02354
6386.08,0.02160
6362.93,0.02316
6339.79,0.02357
6316.64,0.01875
6293.5,0.02178
6270.35,0.02104
6247.21,0.02197
6224.06,0.02132
6200.92,0.02392
6177.77,0.01909
6154.63,0.02371
6131.48,0.02385
6108.34,0.02423
6085.19,0.01924
6062.05,0.02176
6038.9,0.01992
6015.76,0.02275
5992.61,0.02445
5969.47,0.02001
5946.32,0.02212
5923.18,0.02156
5900.03,0.01931
5876.89,0.02155
5853.74,0.01950
5830.6,0.02279
5807.45,0.02175
5784.31,0.02293
5761.16,0.01946
5738.02,0.01930
5714.87,0.02189
5691.73,0.02118
5668.58,0.02120
5645.44,0.02328
5622.29,0.02047
5599.15,0.02348
5576,0.02253
5552.86,0.02065
5529.71,0.02242
5506.57,0.02246
5483.42,0.02117
5460.28,0.02343
5437.13,0.02324
5413.99,0.02218
5390.84,0.02064
5367.7,0.02021
5344.55,0.02235
5321.41,0.02022
5298.26,0.02009
5275.12,0.02176
5251.97,0.02142
5228.83,0.02266
5205.68,0.02152
5182.54,0.02112
5159.39,0.02191
5136.25,0.02144
5113.1,0.02201
5089.96,0.02177
5066.81,0.02212
5043.67,0.02233
5020.52,0.02204
4997.38,0.02204
4974.23,0.02213
4951.09,0.02153
4927.94,0.02312
4904.8,0.02128
4881.65,0.02211
4858.51,0.02068
4835.36,0.02129
4812.22,0.02114
4789.07,0.02161
4765.93,0.02279
4742.78,0.02213
4719.64,0.02172
4696.49,0.02156
4673.35,0.02192
4650.2,0.02157
4627.06,0.02299
4603.92,0.02217
4580.77,0.02262
4557.63,0.02215
4534.48,0.02150
4511.34,0.02222
4488.19,0.02199
4465.05,0.02239
4441.9,0.02195
4418.76,0.02236
4395.61,0.02262
4372.47,0.02274
4349.32,0.02269
4326.18,0.02211
4303.03,0.02161
4279.89,0.02156
4256.74,0.02191
4233.6,0.02190
4210.45,0.02188
4187.31,0.02336
4164.16,0.02230
4141.02,0.02231
4117.87,0.02193
4094.73,0.02149
4071.58,0.02232
4048.44,0.02202
4025.29,0.02300
4002.15,0.02220
3979,0.02279
3955.86,0.02253
3932.71,0.02207
3909.57,0.02257
3886.42,0.02246
3863.28,0.02222
3840.13,0.02190
3816.99,0.02248
3793.84,0.02266
3770.7,0.02260
3747.55,0.02233
3724.41,0.02218
3701.26,0.02260
3678.12,0.02284
3654.97,0.02249
3631.83,0.02154
3608.68,0.02088
3585.54,0.02069
3562.39,0.02095
3539.25,0.02043
3516.1,0.02114
3492.96,0.02072
3469.81,0.02047
3446.67,0.02031
3423.52,0.02087
3400.38,0.01957
3377.23,0.02067
3354.09,0.02020
3330.94,0.01989
3307.8,0.02041
3284.65,0.01975
3261.51,0.02083
3238.36,0.02045
3215.22,0.01990
3192.07,0.02002
3168.93,0.02117
3145.78,0.02091
3122.64,0.02061
3099.49,0.02113
3076.35,0.02028
3053.2,0.02100
3030.06,0.02055
3006.91,0.02061
2983.77,0.01991
2960.62,0.01915
2937.48,0.01948
2914.33,0.02044
2891.19,0.02024
2868.04,0.01977
2844.9,0.02110
2821.75,0.02126
2798.61,0.02103
2775.46,0.02086
2752.32,0.02105
2729.17,0.02090
2706.03,0.02070
2682.88,0.02117
2659.74,0.02139
2636.59,0.02102
2613.45,0.02137
2590.3,0.02154
2567.16,0.02110
2544.02,0.02112
2520.87,0.02087
2497.73,0.02060
2474.58,0.02088
2451.44,0.02074
2428.29,0.02130
2405.15,0.02075
2382,0.02077
2358.86,0.02178
2335.71,0.02115
2312.57,0.02094
2289.42,0.02092
2266.28,0.02074
2243.13,0.02088
2219.99,0.02106
2196.84,0.02098
2173.7,0.02059
2150.55,0.02090
2127.41,0.02112
2104.26,0.02083
2081.12,0.02099
2057.97,0.02110
2034.83,0.02095
2011.68,0.02074
1988.54,0.02042
1965.39,0.02079
1942.25,0.02086
1919.1,0.02057
1895.96,0.02068
1872.81,0.02049
1849.67,0.01996
1826.52,0.02032
1803.38,0.01940
1780.23,0.01893
1757.09,0.01748
1733.94,0.01977
1710.8,0.02024
1687.65,0.01920
1664.51,0.01847
1641.36,0.01818
1618.22,0.01854
1595.07,0.01886
1571.93,0.01833
1548.78,0.01829
1525.64,0.01921
1502.49,0.01862
1479.35,0.01836
1456.2,0.01858
1433.06,0.01864
1409.91,0.01826
1386.77,0.01784
1363.62,0.01816
1340.48,0.01776
1317.33,0.01684
1294.19,0.01736
1271.04,0.01925
1247.9,0.02030
1224.75,0.01947
1201.61,0.01814
1178.46,0.01786
1155.32,0.01741
1132.17,0.01833
1109.03,0.01877
1085.88,0.01718
1062.74,0.02025
1039.59,0.02004
1016.45,0.01892
993.304,0.02098
970.159,0.02008
947.014,0.01960
923.869,0.01917
900.724,0.01882
877.579,0.01859
854.434,0.01921
831.289,0.01904
808.144,0.01868
784.999,0.01828
761.854,0.01802
738.709,0.01837
715.565,0.01859
692.42,0.01700
669.275,0.01781
646.13,0.01682
622.985,0.01527
599.84,0.01598