File: 01_Data/Pine_Siding/FTIR/IS/Pine_Siding_IS_S_220916_R7.dpt
7497.03,0.82995
7473.89,0.83961
7450.74,0.81729
7427.6,0.81384
7404.45,0.79899
7381.31,0.79846
7358.16,0.78348
7335.02,0.78644
7311.87,0.77013
7288.73,0.76342
7265.58,0.76359
7242.44,0.76552
7219.29,0.76501
7196.15,0.75724
7173,0.75265
7149.86,0.73653
7126.71,0.71750
7103.57,0.70111
7080.42,0.68462
7057.28,0.66262
7034.13,0.63506
7010.99,0.61488
6987.84,0.60494
6964.7,0.58830
6941.55,0.59055
6918.41,0.58837
6895.26,0.59154
6872.12,0.58424
6848.97,0.58526
6825.83,0.58046
6802.68,0.58237
6779.54,0.58778
6756.39,0.58346
6733.25,0.59023
6710.1,0.59189
6686.96,0.58966
6663.82,0.59592
6640.67,0.60043
6617.53,0.60005
6594.38,0.60815
6571.24,0.60739
6548.09,0.61842
6524.95,0.61850
6501.8,0.61929
6478.66,0.61690
6455.51,0.62461
6432.37,0.62034
6409.22,0.62439
6386.08,0.62589
6362.93,0.62711
6339.79,0.62909
6316.64,0.63302
6293.5,0.63597
6270.35,0.64155
6247.21,0.64952
6224.06,0.65349
6200.92,0.66378
6177.77,0.66735
6154.63,0.67343
6131.48,0.67776
6108.34,0.68190
6085.19,0.68526
6062.05,0.68384
6038.9,0.68155
6015.76,0.67284
5992.61,0.66343
5969.47,0.66198
5946.32,0.66085
5923.18,0.66651
5900.03,0.65954
5876.89,0.65923
5853.74,0.65855
5830.6,0.65467
5807.45,0.65172
5784.31,0.65241
5761.16,0.65610
5738.02,0.65603
5714.87,0.65600
5691.73,0.65237
5668.58,0.65235
5645.44,0.65200
5622.29,0.65284
5599.15,0.65110
5576,0.65169
5552.86,0.65402
5529.71,0.65849
5506.57,0.65719
5483.42,0.65942
5460.28,0.66161
5437.13,0.66834
5413.99,0.67331
5390.84,0.67595
5367.7,0.67824
5344.55,0.67468
5321.41,0.66400
5298.26,0.64498
5275.12,0.60809
5251.97,0.56344
5228.83,0.53194
5205.68,0.51787
5182.54,0.51401
5159.39,0.51999
5136.25,0.53374
5113.1,0.54589
5089.96,0.55583
5066.81,0.56828
5043.67,0.57761
5020.52,0.58490
4997.38,0.58529
4974.23,0.57806
4951.09,0.56269
4927.94,0.53893
4904.8,0.51546
4881.65,0.49350
4858.51,0.47447
4835.36,0.45710
4812.22,0.44475
4789.07,0.43732
4765.93,0.43537
4742.78,0.43390
4719.64,0.43572
4696.49,0.43920
4673.35,0.44386
4650.2,0.45422
4627.06,0.46442
4603.92,0.47721
4580.77,0.48918
4557.63,0.49780
4534.48,0.50321
4511.34,0.50556
4488.19,0.49842
4465.05,0.47635
4441.9,0.44845
4418.76,0.41558
4395.61,0.40022
4372.47,0.40805
4349.32,0.41435
4326.18,0.40946
4303.03,0.39889
4279.89,0.39104
4256.74,0.39473
4233.6,0.39842
4210.45,0.39830
4187.31,0.40047
4164.16,0.40599
4141.02,0.40035
4117.87,0.38629
4094.73,0.36531
4071.58,0.34229
4048.44,0.32001
4025.29,0.30713
4002.15,0.30572
3979,0.31114
3955.86,0.32052
3932.71,0.33202
3909.57,0.34330
3886.42,0.35330
3863.28,0.36251
3840.13,0.37220
3816.99,0.37449
3793.84,0.37426
3770.7,0.37209
3747.55,0.36538
3724.41,0.34966
3701.26,0.32169
3678.12,0.26889
3654.97,0.19866
3631.83,0.14914
3608.68,0.11179
3585.54,0.08524
3562.39,0.06950
3539.25,0.06038
3516.1,0.05470
3492.96,0.04971
3469.81,0.04733
3446.67,0.04644
3423.52,0.04633
3400.38,0.04650
3377.23,0.04652
3354.09,0.04792
3330.94,0.05154
3307.8,0.05518
3284.65,0.05765
3261.51,0.06190
3238.36,0.06765
3215.22,0.07395
3192.07,0.08133
3168.93,0.08915
3145.78,0.09766
3122.64,0.10579
3099.49,0.11331
3076.35,0.12004
3053.2,0.12621
3030.06,0.12932
3006.91,0.12327
2983.77,0.10976
2960.62,0.08584
2937.48,0.07415
2914.33,0.07310
2891.19,0.07676
2868.04,0.08245
2844.9,0.09487
2821.75,0.11739
2798.61,0.13622
2775.46,0.14463
2752.32,0.14743
2729.17,0.14955
2706.03,0.15705
2682.88,0.16565
2659.74,0.17179
2636.59,0.17806
2613.45,0.18499
2590.3,0.19109
2567.16,0.19529
2544.02,0.19625
2520.87,0.20202
2497.73,0.21160
2474.58,0.22113
2451.44,0.22991
2428.29,0.24098
2405.15,0.25330
2382,0.26419
2358.86,0.27341
2335.71,0.27924
2312.57,0.28274
2289.42,0.28170
2266.28,0.27772
2243.13,0.27318
2219.99,0.27169
2196.84,0.26730
2173.7,0.25485
2150.55,0.24587
2127.41,0.24391
2104.26,0.24759
2081.12,0.24836
2057.97,0.24436
2034.83,0.25016
2011.68,0.26272
1988.54,0.27011
1965.39,0.27619
1942.25,0.28770
1919.1,0.29369
1895.96,0.29122
1872.81,0.28944
1849.67,0.28601
1826.52,0.27517
1803.38,0.25509
1780.23,0.21314
1757.09,0.12352
1733.94,0.09109
1710.8,0.11625
1687.65,0.12119
1664.51,0.09168
1641.36,0.08664
1618.22,0.08632
1595.07,0.08224
1571.93,0.11871
1548.78,0.13840
1525.64,0.09142
1502.49,0.06601
1479.35,0.07353
1456.2,0.05809
1433.06,0.05556
1409.91,0.06295
1386.77,0.05719
1363.62,0.05605
1340.48,0.05725
1317.33,0.05553
1294.19,0.05612
1271.04,0.05028
1247.9,0.05449
1224.75,0.05429
1201.61,0.05473
1178.46,0.04768
1155.32,0.05151
1132.17,0.04270
1109.03,0.04905
1085.88,0.04982
1062.74,0.07401
1039.59,0.07652
1016.45,0.08792
993.304,0.09563
970.159,0.11445
947.014,0.12526
923.869,0.13290
900.724,0.11222
877.579,0.11889
854.434,0.12068
831.289,0.12133
808.144,0.10649
784.999,0.10870
761.854,0.09995
738.709,0.09444
715.565,0.08666
692.42,0.08018
669.275,0.07481
646.13,0.07757
622.985,0.07367
599.84,0.08120