File: 01_Data/Pine_Siding/FTIR/IS/Pine_Siding_IS_S_220916_R6.dpt
7497.03,0.83442
7473.89,0.83346
7450.74,0.81693
7427.6,0.80930
7404.45,0.81028
7381.31,0.79516
7358.16,0.78363
7335.02,0.77823
7311.87,0.77869
7288.73,0.77376
7265.58,0.76470
7242.44,0.76254
7219.29,0.75633
7196.15,0.75177
7173,0.74286
7149.86,0.73294
7126.71,0.72287
7103.57,0.70031
7080.42,0.68110
7057.28,0.66289
7034.13,0.63580
7010.99,0.61467
6987.84,0.60336
6964.7,0.60332
6941.55,0.58816
6918.41,0.58302
6895.26,0.58436
6872.12,0.58341
6848.97,0.58445
6825.83,0.58487
6802.68,0.58805
6779.54,0.58231
6756.39,0.58435
6733.25,0.59200
6710.1,0.58749
6686.96,0.59254
6663.82,0.59319
6640.67,0.60214
6617.53,0.60466
6594.38,0.60667
6571.24,0.61024
6548.09,0.61510
6524.95,0.61964
6501.8,0.61457
6478.66,0.61645
6455.51,0.61931
6432.37,0.62127
6409.22,0.62392
6386.08,0.62353
6362.93,0.62717
6339.79,0.62618
6316.64,0.63006
6293.5,0.63427
6270.35,0.64045
6247.21,0.64736
6224.06,0.65198
6200.92,0.66323
6177.77,0.67171
6154.63,0.67584
6131.48,0.67622
6108.34,0.68432
6085.19,0.68377
6062.05,0.68202
6038.9,0.67627
6015.76,0.67181
5992.61,0.66762
5969.47,0.66045
5946.32,0.66204
5923.18,0.66590
5900.03,0.65845
5876.89,0.65735
5853.74,0.65782
5830.6,0.65599
5807.45,0.65269
5784.31,0.65144
5761.16,0.65661
5738.02,0.65354
5714.87,0.65367
5691.73,0.65349
5668.58,0.65163
5645.44,0.65028
5622.29,0.65096
5599.15,0.65031
5576,0.65418
5552.86,0.65557
5529.71,0.65760
5506.57,0.65798
5483.42,0.65793
5460.28,0.66260
5437.13,0.66470
5413.99,0.67335
5390.84,0.67426
5367.7,0.67507
5344.55,0.67478
5321.41,0.66403
5298.26,0.64341
5275.12,0.60579
5251.97,0.56324
5228.83,0.52921
5205.68,0.51301
5182.54,0.51142
5159.39,0.51803
5136.25,0.53123
5113.1,0.54440
5089.96,0.55388
5066.81,0.56571
5043.67,0.57703
5020.52,0.58175
4997.38,0.58373
4974.23,0.57749
4951.09,0.56100
4927.94,0.53730
4904.8,0.51493
4881.65,0.49257
4858.51,0.47336
4835.36,0.45595
4812.22,0.44432
4789.07,0.43753
4765.93,0.43375
4742.78,0.43211
4719.64,0.43585
4696.49,0.43907
4673.35,0.44191
4650.2,0.45370
4627.06,0.46342
4603.92,0.47853
4580.77,0.48851
4557.63,0.49682
4534.48,0.50182
4511.34,0.50476
4488.19,0.49688
4465.05,0.47582
4441.9,0.44751
4418.76,0.41427
4395.61,0.39954
4372.47,0.40779
4349.32,0.41366
4326.18,0.40768
4303.03,0.39715
4279.89,0.39129
4256.74,0.39428
4233.6,0.39775
4210.45,0.39730
4187.31,0.39946
4164.16,0.40526
4141.02,0.40074
4117.87,0.38516
4094.73,0.36444
4071.58,0.34098
4048.44,0.31917
4025.29,0.30661
4002.15,0.30487
3979,0.31060
3955.86,0.32003
3932.71,0.33186
3909.57,0.34329
3886.42,0.35302
3863.28,0.36171
3840.13,0.37134
3816.99,0.37332
3793.84,0.37334
3770.7,0.37084
3747.55,0.36350
3724.41,0.34863
3701.26,0.32052
3678.12,0.26752
3654.97,0.19684
3631.83,0.14763
3608.68,0.11109
3585.54,0.08522
3562.39,0.06928
3539.25,0.06030
3516.1,0.05422
3492.96,0.04935
3469.81,0.04673
3446.67,0.04616
3423.52,0.04512
3400.38,0.04601
3377.23,0.04677
3354.09,0.04863
3330.94,0.05162
3307.8,0.05479
3284.65,0.05805
3261.51,0.06182
3238.36,0.06693
3215.22,0.07342
3192.07,0.08102
3168.93,0.08868
3145.78,0.09664
3122.64,0.10507
3099.49,0.11414
3076.35,0.11875
3053.2,0.12538
3030.06,0.12915
3006.91,0.12284
2983.77,0.10940
2960.62,0.08527
2937.48,0.07439
2914.33,0.07362
2891.19,0.07676
2868.04,0.08259
2844.9,0.09448
2821.75,0.11761
2798.61,0.13586
2775.46,0.14445
2752.32,0.14753
2729.17,0.14919
2706.03,0.15657
2682.88,0.16574
2659.74,0.17156
2636.59,0.17750
2613.45,0.18506
2590.3,0.19085
2567.16,0.19435
2544.02,0.19594
2520.87,0.20184
2497.73,0.21084
2474.58,0.22039
2451.44,0.22987
2428.29,0.24054
2405.15,0.25282
2382,0.26359
2358.86,0.27333
2335.71,0.27886
2312.57,0.28198
2289.42,0.28066
2266.28,0.27659
2243.13,0.27237
2219.99,0.27074
2196.84,0.26623
2173.7,0.25364
2150.55,0.24443
2127.41,0.24315
2104.26,0.24634
2081.12,0.24721
2057.97,0.24319
2034.83,0.24898
2011.68,0.26178
1988.54,0.26904
1965.39,0.27492
1942.25,0.28670
1919.1,0.29297
1895.96,0.29039
1872.81,0.28860
1849.67,0.28511
1826.52,0.27451
1803.38,0.25386
1780.23,0.21252
1757.09,0.12372
1733.94,0.09076
1710.8,0.11578
1687.65,0.12049
1664.51,0.09114
1641.36,0.08645
1618.22,0.08656
1595.07,0.08208
1571.93,0.11815
1548.78,0.13830
1525.64,0.09124
1502.49,0.06608
1479.35,0.07361
1456.2,0.05749
1433.06,0.05570
1409.91,0.06309
1386.77,0.05675
1363.62,0.05600
1340.48,0.05732
1317.33,0.05576
1294.19,0.05621
1271.04,0.05049
1247.9,0.05468
1224.75,0.05479
1201.61,0.05441
1178.46,0.04701
1155.32,0.05123
1132.17,0.04188
1109.03,0.04924
1085.88,0.04886
1062.74,0.07415
1039.59,0.07603
1016.45,0.08718
993.304,0.09489
970.159,0.11521
947.014,0.12488
923.869,0.13333
900.724,0.11149
877.579,0.11872
854.434,0.12116
831.289,0.12116
808.144,0.10643
784.999,0.10913
761.854,0.09895
738.709,0.09341
715.565,0.08631
692.42,0.08029
669.275,0.07707
646.13,0.07692
622.985,0.07550
599.84,0.07929