File: 01_Data/Pine_Siding/FTIR/IS/Pine_Siding_IS_S_220916_R4.dpt
7497.03,0.83663
7473.89,0.82476
7450.74,0.81895
7427.6,0.80744
7404.45,0.79546
7381.31,0.78670
7358.16,0.77901
7335.02,0.77515
7311.87,0.77852
7288.73,0.76724
7265.58,0.76196
7242.44,0.76157
7219.29,0.75620
7196.15,0.75536
7173,0.75162
7149.86,0.73417
7126.71,0.71811
7103.57,0.70102
7080.42,0.67985
7057.28,0.65787
7034.13,0.63568
7010.99,0.61681
6987.84,0.60423
6964.7,0.59594
6941.55,0.59157
6918.41,0.58491
6895.26,0.58308
6872.12,0.58252
6848.97,0.58789
6825.83,0.58145
6802.68,0.58393
6779.54,0.58514
6756.39,0.58523
6733.25,0.58740
6710.1,0.58563
6686.96,0.59204
6663.82,0.59454
6640.67,0.59553
6617.53,0.60063
6594.38,0.60216
6571.24,0.60936
6548.09,0.60912
6524.95,0.61270
6501.8,0.61077
6478.66,0.61762
6455.51,0.61464
6432.37,0.61965
6409.22,0.62236
6386.08,0.62322
6362.93,0.62667
6339.79,0.62511
6316.64,0.63112
6293.5,0.63084
6270.35,0.64052
6247.21,0.64650
6224.06,0.65243
6200.92,0.65674
6177.77,0.66493
6154.63,0.67281
6131.48,0.67701
6108.34,0.67987
6085.19,0.68199
6062.05,0.68140
6038.9,0.67604
6015.76,0.66852
5992.61,0.66426
5969.47,0.65914
5946.32,0.65997
5923.18,0.66082
5900.03,0.65895
5876.89,0.65338
5853.74,0.65307
5830.6,0.65506
5807.45,0.64960
5784.31,0.64851
5761.16,0.65026
5738.02,0.65239
5714.87,0.65172
5691.73,0.65101
5668.58,0.65051
5645.44,0.64918
5622.29,0.64953
5599.15,0.64929
5576,0.64892
5552.86,0.65371
5529.71,0.65478
5506.57,0.65533
5483.42,0.65895
5460.28,0.66014
5437.13,0.66480
5413.99,0.66822
5390.84,0.67210
5367.7,0.67302
5344.55,0.66952
5321.41,0.66022
5298.26,0.63832
5275.12,0.60124
5251.97,0.55239
5228.83,0.52246
5205.68,0.50563
5182.54,0.50328
5159.39,0.51022
5136.25,0.52207
5113.1,0.53539
5089.96,0.54689
5066.81,0.55869
5043.67,0.56847
5020.52,0.57574
4997.38,0.57890
4974.23,0.57174
4951.09,0.55695
4927.94,0.53566
4904.8,0.51334
4881.65,0.49182
4858.51,0.47159
4835.36,0.45507
4812.22,0.44278
4789.07,0.43647
4765.93,0.43284
4742.78,0.43118
4719.64,0.43410
4696.49,0.43765
4673.35,0.44236
4650.2,0.45131
4627.06,0.46160
4603.92,0.47571
4580.77,0.48729
4557.63,0.49468
4534.48,0.50045
4511.34,0.50302
4488.19,0.49513
4465.05,0.47371
4441.9,0.44520
4418.76,0.41367
4395.61,0.39865
4372.47,0.40687
4349.32,0.41244
4326.18,0.40676
4303.03,0.39643
4279.89,0.38937
4256.74,0.39335
4233.6,0.39648
4210.45,0.39664
4187.31,0.39720
4164.16,0.40244
4141.02,0.39784
4117.87,0.38382
4094.73,0.36354
4071.58,0.33944
4048.44,0.31724
4025.29,0.30492
4002.15,0.30302
3979,0.30907
3955.86,0.31831
3932.71,0.33032
3909.57,0.34155
3886.42,0.34997
3863.28,0.35874
3840.13,0.36899
3816.99,0.37149
3793.84,0.36999
3770.7,0.36678
3747.55,0.35978
3724.41,0.34405
3701.26,0.31568
3678.12,0.26185
3654.97,0.19168
3631.83,0.14319
3608.68,0.10841
3585.54,0.08377
3562.39,0.06855
3539.25,0.06000
3516.1,0.05377
3492.96,0.04953
3469.81,0.04748
3446.67,0.04626
3423.52,0.04548
3400.38,0.04598
3377.23,0.04717
3354.09,0.04823
3330.94,0.05253
3307.8,0.05467
3284.65,0.05686
3261.51,0.06202
3238.36,0.06712
3215.22,0.07311
3192.07,0.07969
3168.93,0.08731
3145.78,0.09654
3122.64,0.10459
3099.49,0.11136
3076.35,0.11709
3053.2,0.12351
3030.06,0.12742
3006.91,0.12193
2983.77,0.10868
2960.62,0.08501
2937.48,0.07429
2914.33,0.07387
2891.19,0.07651
2868.04,0.08242
2844.9,0.09389
2821.75,0.11722
2798.61,0.13489
2775.46,0.14310
2752.32,0.14647
2729.17,0.14884
2706.03,0.15578
2682.88,0.16471
2659.74,0.17062
2636.59,0.17661
2613.45,0.18358
2590.3,0.18963
2567.16,0.19320
2544.02,0.19486
2520.87,0.20042
2497.73,0.21012
2474.58,0.21963
2451.44,0.22851
2428.29,0.23918
2405.15,0.25144
2382,0.26193
2358.86,0.27094
2335.71,0.27722
2312.57,0.27997
2289.42,0.27833
2266.28,0.27446
2243.13,0.27002
2219.99,0.26782
2196.84,0.26369
2173.7,0.25100
2150.55,0.24220
2127.41,0.24050
2104.26,0.24386
2081.12,0.24464
2057.97,0.24041
2034.83,0.24659
2011.68,0.25898
1988.54,0.26640
1965.39,0.27258
1942.25,0.28408
1919.1,0.28997
1895.96,0.28755
1872.81,0.28599
1849.67,0.28212
1826.52,0.27210
1803.38,0.25168
1780.23,0.21137
1757.09,0.12321
1733.94,0.09052
1710.8,0.11523
1687.65,0.11892
1664.51,0.09019
1641.36,0.08531
1618.22,0.08516
1595.07,0.08145
1571.93,0.11740
1548.78,0.13701
1525.64,0.09078
1502.49,0.06575
1479.35,0.07350
1456.2,0.05805
1433.06,0.05569
1409.91,0.06294
1386.77,0.05708
1363.62,0.05604
1340.48,0.05711
1317.33,0.05582
1294.19,0.05599
1271.04,0.05030
1247.9,0.05440
1224.75,0.05431
1201.61,0.05513
1178.46,0.04739
1155.32,0.05158
1132.17,0.04158
1109.03,0.04893
1085.88,0.04946
1062.74,0.07344
1039.59,0.07655
1016.45,0.08756
993.304,0.09511
970.159,0.11467
947.014,0.12430
923.869,0.13214
900.724,0.11131
877.579,0.11838
854.434,0.12010
831.289,0.12042
808.144,0.10510
784.999,0.10750
761.854,0.09848
738.709,0.09335
715.565,0.08457
692.42,0.08038
669.275,0.07475
646.13,0.07687
622.985,0.07243
599.84,0.07971