File: 01_Data/Pine_Siding/FTIR/IS/Pine_Siding_IS_S_220916_R3.dpt
7497.03,0.83009
7473.89,0.82917
7450.74,0.80973
7427.6,0.81321
7404.45,0.79565
7381.31,0.79067
7358.16,0.78075
7335.02,0.78239
7311.87,0.77289
7288.73,0.77163
7265.58,0.76924
7242.44,0.76121
7219.29,0.76263
7196.15,0.75073
7173,0.74373
7149.86,0.72808
7126.71,0.72812
7103.57,0.70279
7080.42,0.67400
7057.28,0.65521
7034.13,0.62468
7010.99,0.61167
6987.84,0.60007
6964.7,0.59744
6941.55,0.58754
6918.41,0.58630
6895.26,0.58468
6872.12,0.58023
6848.97,0.58057
6825.83,0.58088
6802.68,0.58858
6779.54,0.58558
6756.39,0.58204
6733.25,0.58752
6710.1,0.58259
6686.96,0.59358
6663.82,0.59545
6640.67,0.59414
6617.53,0.59645
6594.38,0.60558
6571.24,0.60768
6548.09,0.60982
6524.95,0.61306
6501.8,0.61699
6478.66,0.61364
6455.51,0.61620
6432.37,0.62033
6409.22,0.61883
6386.08,0.62503
6362.93,0.62683
6339.79,0.62717
6316.64,0.62728
6293.5,0.63118
6270.35,0.63848
6247.21,0.64300
6224.06,0.65408
6200.92,0.65920
6177.77,0.66219
6154.63,0.67416
6131.48,0.67483
6108.34,0.67966
6085.19,0.68378
6062.05,0.67849
6038.9,0.67642
6015.76,0.67058
5992.61,0.66135
5969.47,0.65674
5946.32,0.66076
5923.18,0.66218
5900.03,0.65659
5876.89,0.65467
5853.74,0.65566
5830.6,0.65324
5807.45,0.65037
5784.31,0.65062
5761.16,0.65342
5738.02,0.65436
5714.87,0.65102
5691.73,0.65211
5668.58,0.65048
5645.44,0.64907
5622.29,0.64888
5599.15,0.64677
5576,0.64953
5552.86,0.65122
5529.71,0.65482
5506.57,0.65584
5483.42,0.65859
5460.28,0.65896
5437.13,0.66618
5413.99,0.66995
5390.84,0.67282
5367.7,0.67390
5344.55,0.67118
5321.41,0.65938
5298.26,0.63602
5275.12,0.59752
5251.97,0.55140
5228.83,0.51771
5205.68,0.50259
5182.54,0.49940
5159.39,0.50672
5136.25,0.51807
5113.1,0.53087
5089.96,0.54407
5066.81,0.55573
5043.67,0.56680
5020.52,0.57408
4997.38,0.57630
4974.23,0.57166
4951.09,0.55703
4927.94,0.53652
4904.8,0.51290
4881.65,0.49102
4858.51,0.47228
4835.36,0.45562
4812.22,0.44414
4789.07,0.43605
4765.93,0.43250
4742.78,0.43255
4719.64,0.43487
4696.49,0.43708
4673.35,0.44218
4650.2,0.45213
4627.06,0.46133
4603.92,0.47608
4580.77,0.48729
4557.63,0.49460
4534.48,0.50104
4511.34,0.50302
4488.19,0.49606
4465.05,0.47462
4441.9,0.44675
4418.76,0.41462
4395.61,0.39898
4372.47,0.40746
4349.32,0.41253
4326.18,0.40744
4303.03,0.39688
4279.89,0.38931
4256.74,0.39502
4233.6,0.39650
4210.45,0.39617
4187.31,0.39776
4164.16,0.40340
4141.02,0.39841
4117.87,0.38389
4094.73,0.36240
4071.58,0.33932
4048.44,0.31806
4025.29,0.30436
4002.15,0.30338
3979,0.30888
3955.86,0.31809
3932.71,0.32971
3909.57,0.34027
3886.42,0.34959
3863.28,0.35863
3840.13,0.36826
3816.99,0.37008
3793.84,0.36904
3770.7,0.36597
3747.55,0.35722
3724.41,0.34201
3701.26,0.31313
3678.12,0.25874
3654.97,0.18802
3631.83,0.14044
3608.68,0.10681
3585.54,0.08303
3562.39,0.06836
3539.25,0.05929
3516.1,0.05357
3492.96,0.04954
3469.81,0.04701
3446.67,0.04579
3423.52,0.04588
3400.38,0.04594
3377.23,0.04611
3354.09,0.04865
3330.94,0.05241
3307.8,0.05483
3284.65,0.05670
3261.51,0.06171
3238.36,0.06611
3215.22,0.07317
3192.07,0.08012
3168.93,0.08727
3145.78,0.09565
3122.64,0.10306
3099.49,0.11084
3076.35,0.11665
3053.2,0.12298
3030.06,0.12694
3006.91,0.12135
2983.77,0.10814
2960.62,0.08518
2937.48,0.07396
2914.33,0.07321
2891.19,0.07640
2868.04,0.08246
2844.9,0.09393
2821.75,0.11714
2798.61,0.13526
2775.46,0.14342
2752.32,0.14659
2729.17,0.14858
2706.03,0.15598
2682.88,0.16433
2659.74,0.17053
2636.59,0.17661
2613.45,0.18352
2590.3,0.18946
2567.16,0.19350
2544.02,0.19479
2520.87,0.20066
2497.73,0.20999
2474.58,0.21938
2451.44,0.22803
2428.29,0.23916
2405.15,0.25112
2382,0.26196
2358.86,0.27080
2335.71,0.27652
2312.57,0.27922
2289.42,0.27787
2266.28,0.27392
2243.13,0.26914
2219.99,0.26728
2196.84,0.26283
2173.7,0.25025
2150.55,0.24124
2127.41,0.23920
2104.26,0.24290
2081.12,0.24376
2057.97,0.23963
2034.83,0.24571
2011.68,0.25790
1988.54,0.26537
1965.39,0.27137
1942.25,0.28300
1919.1,0.28876
1895.96,0.28682
1872.81,0.28522
1849.67,0.28146
1826.52,0.27141
1803.38,0.25101
1780.23,0.21115
1757.09,0.12330
1733.94,0.09061
1710.8,0.11490
1687.65,0.11833
1664.51,0.08919
1641.36,0.08450
1618.22,0.08490
1595.07,0.08130
1571.93,0.11705
1548.78,0.13680
1525.64,0.09077
1502.49,0.06598
1479.35,0.07326
1456.2,0.05759
1433.06,0.05564
1409.91,0.06313
1386.77,0.05702
1363.62,0.05576
1340.48,0.05702
1317.33,0.05567
1294.19,0.05657
1271.04,0.05017
1247.9,0.05445
1224.75,0.05470
1201.61,0.05495
1178.46,0.04703
1155.32,0.05188
1132.17,0.04229
1109.03,0.04891
1085.88,0.04924
1062.74,0.07314
1039.59,0.07602
1016.45,0.08796
993.304,0.09536
970.159,0.11445
947.014,0.12422
923.869,0.13160
900.724,0.11113
877.579,0.11837
854.434,0.11977
831.289,0.11964
808.144,0.10493
784.999,0.10610
761.854,0.09711
738.709,0.09218
715.565,0.08471
692.42,0.08015
669.275,0.07348
646.13,0.07585
622.985,0.07384
599.84,0.07711