File: 01_Data/Pine_Siding/FTIR/IS/Pine_Siding_IS_S_220916_R1.dpt
7497.03,0.83752
7473.89,0.82659
7450.74,0.81073
7427.6,0.80640
7404.45,0.79634
7381.31,0.79651
7358.16,0.78258
7335.02,0.76468
7311.87,0.76670
7288.73,0.76038
7265.58,0.75917
7242.44,0.75989
7219.29,0.76061
7196.15,0.75156
7173,0.74453
7149.86,0.73203
7126.71,0.70888
7103.57,0.69285
7080.42,0.67168
7057.28,0.64853
7034.13,0.62680
7010.99,0.60555
6987.84,0.59873
6964.7,0.59172
6941.55,0.58548
6918.41,0.58066
6895.26,0.57810
6872.12,0.57900
6848.97,0.57846
6825.83,0.57579
6802.68,0.57894
6779.54,0.58161
6756.39,0.58147
6733.25,0.58209
6710.1,0.57926
6686.96,0.58575
6663.82,0.58852
6640.67,0.59285
6617.53,0.59626
6594.38,0.60601
6571.24,0.60177
6548.09,0.60631
6524.95,0.60420
6501.8,0.60778
6478.66,0.61022
6455.51,0.61027
6432.37,0.61822
6409.22,0.61597
6386.08,0.62025
6362.93,0.61953
6339.79,0.62480
6316.64,0.62235
6293.5,0.62935
6270.35,0.63341
6247.21,0.64100
6224.06,0.64811
6200.92,0.65723
6177.77,0.65758
6154.63,0.66773
6131.48,0.67300
6108.34,0.67287
6085.19,0.67694
6062.05,0.67671
6038.9,0.66763
6015.76,0.66555
5992.61,0.65644
5969.47,0.65741
5946.32,0.65669
5923.18,0.65973
5900.03,0.65321
5876.89,0.65102
5853.74,0.65340
5830.6,0.65277
5807.45,0.64750
5784.31,0.64583
5761.16,0.65010
5738.02,0.64978
5714.87,0.64819
5691.73,0.64557
5668.58,0.64453
5645.44,0.64845
5622.29,0.64537
5599.15,0.64632
5576,0.64576
5552.86,0.64594
5529.71,0.65032
5506.57,0.65233
5483.42,0.65344
5460.28,0.65501
5437.13,0.66051
5413.99,0.66557
5390.84,0.66808
5367.7,0.66783
5344.55,0.66523
5321.41,0.65240
5298.26,0.62630
5275.12,0.58393
5251.97,0.53305
5228.83,0.49779
5205.68,0.48046
5182.54,0.47669
5159.39,0.48415
5136.25,0.49684
5113.1,0.51091
5089.96,0.52441
5066.81,0.53645
5043.67,0.54966
5020.52,0.55850
4997.38,0.56383
4974.23,0.55908
4951.09,0.54834
4927.94,0.52970
4904.8,0.50888
4881.65,0.48793
4858.51,0.46843
4835.36,0.45221
4812.22,0.44030
4789.07,0.43447
4765.93,0.42970
4742.78,0.42925
4719.64,0.43108
4696.49,0.43454
4673.35,0.43819
4650.2,0.44939
4627.06,0.45823
4603.92,0.47176
4580.77,0.48363
4557.63,0.49091
4534.48,0.49786
4511.34,0.49960
4488.19,0.49146
4465.05,0.47087
4441.9,0.44190
4418.76,0.41149
4395.61,0.39632
4372.47,0.40499
4349.32,0.40985
4326.18,0.40524
4303.03,0.39406
4279.89,0.38648
4256.74,0.39022
4233.6,0.39359
4210.45,0.39279
4187.31,0.39385
4164.16,0.39853
4141.02,0.39370
4117.87,0.37862
4094.73,0.35841
4071.58,0.33586
4048.44,0.31398
4025.29,0.30103
4002.15,0.29919
3979,0.30517
3955.86,0.31364
3932.71,0.32415
3909.57,0.33519
3886.42,0.34389
3863.28,0.35243
3840.13,0.36243
3816.99,0.36327
3793.84,0.36087
3770.7,0.35663
3747.55,0.34762
3724.41,0.33014
3701.26,0.29937
3678.12,0.24210
3654.97,0.17150
3631.83,0.12680
3608.68,0.09773
3585.54,0.07731
3562.39,0.06581
3539.25,0.05809
3516.1,0.05258
3492.96,0.04879
3469.81,0.04603
3446.67,0.04502
3423.52,0.04514
3400.38,0.04500
3377.23,0.04650
3354.09,0.04772
3330.94,0.05131
3307.8,0.05346
3284.65,0.05641
3261.51,0.06000
3238.36,0.06482
3215.22,0.07123
3192.07,0.07701
3168.93,0.08313
3145.78,0.09081
3122.64,0.09828
3099.49,0.10519
3076.35,0.11133
3053.2,0.11762
3030.06,0.12132
3006.91,0.11756
2983.77,0.10575
2960.62,0.08455
2937.48,0.07404
2914.33,0.07259
2891.19,0.07605
2868.04,0.08190
2844.9,0.09308
2821.75,0.11537
2798.61,0.13264
2775.46,0.14041
2752.32,0.14367
2729.17,0.14587
2706.03,0.15198
2682.88,0.16122
2659.74,0.16700
2636.59,0.17343
2613.45,0.18006
2590.3,0.18639
2567.16,0.18984
2544.02,0.19163
2520.87,0.19728
2497.73,0.20684
2474.58,0.21584
2451.44,0.22489
2428.29,0.23519
2405.15,0.24677
2382,0.25748
2358.86,0.26549
2335.71,0.27065
2312.57,0.27313
2289.42,0.27121
2266.28,0.26675
2243.13,0.26229
2219.99,0.25918
2196.84,0.25433
2173.7,0.24179
2150.55,0.23329
2127.41,0.23148
2104.26,0.23421
2081.12,0.23524
2057.97,0.23204
2034.83,0.23784
2011.68,0.25015
1988.54,0.25747
1965.39,0.26322
1942.25,0.27464
1919.1,0.28056
1895.96,0.27934
1872.81,0.27730
1849.67,0.27412
1826.52,0.26456
1803.38,0.24489
1780.23,0.20710
1757.09,0.12314
1733.94,0.08939
1710.8,0.11140
1687.65,0.11306
1664.51,0.08552
1641.36,0.08016
1618.22,0.08162
1595.07,0.07972
1571.93,0.11412
1548.78,0.13259
1525.64,0.08903
1502.49,0.06550
1479.35,0.07243
1456.2,0.05725
1433.06,0.05494
1409.91,0.06241
1386.77,0.05628
1363.62,0.05578
1340.48,0.05676
1317.33,0.05562
1294.19,0.05625
1271.04,0.05012
1247.9,0.05398
1224.75,0.05441
1201.61,0.05476
1178.46,0.04734
1155.32,0.05118
1132.17,0.04169
1109.03,0.04918
1085.88,0.04876
1062.74,0.07301
1039.59,0.07521
1016.45,0.08634
993.304,0.09467
970.159,0.11357
947.014,0.12333
923.869,0.12995
900.724,0.10890
877.579,0.11573
854.434,0.11634
831.289,0.11495
808.144,0.10092
784.999,0.10163
761.854,0.09305
738.709,0.08934
715.565,0.08227
692.42,0.07648
669.275,0.07280
646.13,0.07413
622.985,0.07150
599.84,0.07652