File: 01_Data/Pine_Siding/FTIR/IS/Pine_Siding_IS_S_220916_R8.dpt
7497.03,0.84227
7473.89,0.83078
7450.74,0.81986
7427.6,0.81561
7404.45,0.80553
7381.31,0.79559
7358.16,0.78666
7335.02,0.77678
7311.87,0.77037
7288.73,0.77042
7265.58,0.77630
7242.44,0.76135
7219.29,0.76798
7196.15,0.75583
7173,0.74585
7149.86,0.73609
7126.71,0.72184
7103.57,0.70523
7080.42,0.68252
7057.28,0.66136
7034.13,0.63672
7010.99,0.61190
6987.84,0.60363
6964.7,0.59604
6941.55,0.58523
6918.41,0.58924
6895.26,0.59014
6872.12,0.58554
6848.97,0.58351
6825.83,0.58681
6802.68,0.58357
6779.54,0.58287
6756.39,0.59284
6733.25,0.58840
6710.1,0.59325
6686.96,0.59347
6663.82,0.59496
6640.67,0.60310
6617.53,0.60682
6594.38,0.61129
6571.24,0.61748
6548.09,0.61136
6524.95,0.62000
6501.8,0.62049
6478.66,0.61988
6455.51,0.62352
6432.37,0.62028
6409.22,0.62071
6386.08,0.62536
6362.93,0.62689
6339.79,0.62942
6316.64,0.62966
6293.5,0.63886
6270.35,0.63955
6247.21,0.64695
6224.06,0.65982
6200.92,0.66125
6177.77,0.66999
6154.63,0.67360
6131.48,0.67933
6108.34,0.68337
6085.19,0.68503
6062.05,0.68020
6038.9,0.67765
6015.76,0.67134
5992.61,0.66052
5969.47,0.66088
5946.32,0.66173
5923.18,0.66677
5900.03,0.66276
5876.89,0.65691
5853.74,0.65607
5830.6,0.65534
5807.45,0.65440
5784.31,0.65555
5761.16,0.65709
5738.02,0.65355
5714.87,0.65489
5691.73,0.65426
5668.58,0.65130
5645.44,0.65226
5622.29,0.65253
5599.15,0.65154
5576,0.65305
5552.86,0.65503
5529.71,0.65785
5506.57,0.65867
5483.42,0.66037
5460.28,0.66363
5437.13,0.66742
5413.99,0.67408
5390.84,0.67561
5367.7,0.67667
5344.55,0.67436
5321.41,0.66471
5298.26,0.64628
5275.12,0.60933
5251.97,0.56579
5228.83,0.53433
5205.68,0.52043
5182.54,0.51689
5159.39,0.52270
5136.25,0.53620
5113.1,0.54615
5089.96,0.55909
5066.81,0.57016
5043.67,0.57926
5020.52,0.58589
4997.38,0.58611
4974.23,0.57944
4951.09,0.56220
4927.94,0.53907
4904.8,0.51514
4881.65,0.49430
4858.51,0.47237
4835.36,0.45689
4812.22,0.44495
4789.07,0.43816
4765.93,0.43302
4742.78,0.43402
4719.64,0.43649
4696.49,0.43917
4673.35,0.44482
4650.2,0.45380
4627.06,0.46352
4603.92,0.47822
4580.77,0.48948
4557.63,0.49757
4534.48,0.50342
4511.34,0.50660
4488.19,0.49805
4465.05,0.47650
4441.9,0.44748
4418.76,0.41568
4395.61,0.40000
4372.47,0.40854
4349.32,0.41357
4326.18,0.40864
4303.03,0.39805
4279.89,0.39089
4256.74,0.39490
4233.6,0.39823
4210.45,0.39804
4187.31,0.39990
4164.16,0.40546
4141.02,0.40090
4117.87,0.38597
4094.73,0.36590
4071.58,0.34201
4048.44,0.31972
4025.29,0.30679
4002.15,0.30537
3979,0.31133
3955.86,0.32046
3932.71,0.33289
3909.57,0.34371
3886.42,0.35314
3863.28,0.36250
3840.13,0.37246
3816.99,0.37482
3793.84,0.37376
3770.7,0.37229
3747.55,0.36634
3724.41,0.35118
3701.26,0.32331
3678.12,0.27062
3654.97,0.20014
3631.83,0.15029
3608.68,0.11266
3585.54,0.08542
3562.39,0.07034
3539.25,0.05968
3516.1,0.05452
3492.96,0.05017
3469.81,0.04753
3446.67,0.04546
3423.52,0.04641
3400.38,0.04635
3377.23,0.04702
3354.09,0.04845
3330.94,0.05254
3307.8,0.05482
3284.65,0.05740
3261.51,0.06183
3238.36,0.06799
3215.22,0.07411
3192.07,0.08132
3168.93,0.08955
3145.78,0.09753
3122.64,0.10610
3099.49,0.11380
3076.35,0.11998
3053.2,0.12671
3030.06,0.12982
3006.91,0.12370
2983.77,0.10928
2960.62,0.08560
2937.48,0.07443
2914.33,0.07352
2891.19,0.07669
2868.04,0.08239
2844.9,0.09441
2821.75,0.11790
2798.61,0.13655
2775.46,0.14437
2752.32,0.14805
2729.17,0.14988
2706.03,0.15711
2682.88,0.16583
2659.74,0.17219
2636.59,0.17803
2613.45,0.18507
2590.3,0.19103
2567.16,0.19544
2544.02,0.19638
2520.87,0.20221
2497.73,0.21139
2474.58,0.22088
2451.44,0.22990
2428.29,0.24127
2405.15,0.25335
2382,0.26432
2358.86,0.27387
2335.71,0.27983
2312.57,0.28280
2289.42,0.28151
2266.28,0.27795
2243.13,0.27365
2219.99,0.27191
2196.84,0.26794
2173.7,0.25512
2150.55,0.24608
2127.41,0.24414
2104.26,0.24826
2081.12,0.24855
2057.97,0.24447
2034.83,0.25082
2011.68,0.26330
1988.54,0.27059
1965.39,0.27650
1942.25,0.28825
1919.1,0.29398
1895.96,0.29188
1872.81,0.28974
1849.67,0.28627
1826.52,0.27583
1803.38,0.25504
1780.23,0.21280
1757.09,0.12324
1733.94,0.09158
1710.8,0.11609
1687.65,0.12130
1664.51,0.09195
1641.36,0.08654
1618.22,0.08669
1595.07,0.08216
1571.93,0.11862
1548.78,0.13859
1525.64,0.09203
1502.49,0.06586
1479.35,0.07352
1456.2,0.05775
1433.06,0.05579
1409.91,0.06298
1386.77,0.05687
1363.62,0.05618
1340.48,0.05716
1317.33,0.05545
1294.19,0.05590
1271.04,0.05053
1247.9,0.05491
1224.75,0.05454
1201.61,0.05461
1178.46,0.04719
1155.32,0.05147
1132.17,0.04233
1109.03,0.04932
1085.88,0.04987
1062.74,0.07357
1039.59,0.07613
1016.45,0.08777
993.304,0.09606
970.159,0.11468
947.014,0.12530
923.869,0.13295
900.724,0.11207
877.579,0.11882
854.434,0.12191
831.289,0.12236
808.144,0.10703
784.999,0.10872
761.854,0.09970
738.709,0.09431
715.565,0.08619
692.42,0.08166
669.275,0.07559
646.13,0.07797
622.985,0.07432
599.84,0.08088