File: 01_Data/Pine_Siding/FTIR/IS/Pine_Siding_IS_S_220916_R5.dpt
7497.03,0.83468
7473.89,0.82978
7450.74,0.82281
7427.6,0.80918
7404.45,0.79845
7381.31,0.78994
7358.16,0.78154
7335.02,0.77398
7311.87,0.77331
7288.73,0.76498
7265.58,0.76212
7242.44,0.76290
7219.29,0.76638
7196.15,0.76399
7173,0.74536
7149.86,0.73627
7126.71,0.71996
7103.57,0.70300
7080.42,0.68053
7057.28,0.66634
7034.13,0.63371
7010.99,0.61853
6987.84,0.60730
6964.7,0.60021
6941.55,0.59089
6918.41,0.58725
6895.26,0.59035
6872.12,0.58981
6848.97,0.58633
6825.83,0.58518
6802.68,0.58340
6779.54,0.58595
6756.39,0.58132
6733.25,0.58931
6710.1,0.58730
6686.96,0.58865
6663.82,0.59279
6640.67,0.60360
6617.53,0.60395
6594.38,0.60514
6571.24,0.60506
6548.09,0.61273
6524.95,0.61179
6501.8,0.61309
6478.66,0.61636
6455.51,0.61900
6432.37,0.62336
6409.22,0.62587
6386.08,0.62557
6362.93,0.62956
6339.79,0.62752
6316.64,0.62802
6293.5,0.63513
6270.35,0.63902
6247.21,0.64824
6224.06,0.65631
6200.92,0.66044
6177.77,0.66818
6154.63,0.67196
6131.48,0.67878
6108.34,0.68389
6085.19,0.68392
6062.05,0.68186
6038.9,0.67604
6015.76,0.67045
5992.61,0.66113
5969.47,0.66219
5946.32,0.66242
5923.18,0.66399
5900.03,0.66097
5876.89,0.65782
5853.74,0.65618
5830.6,0.65380
5807.45,0.65057
5784.31,0.64892
5761.16,0.65489
5738.02,0.65382
5714.87,0.65509
5691.73,0.65165
5668.58,0.65082
5645.44,0.64969
5622.29,0.65054
5599.15,0.65175
5576,0.65133
5552.86,0.65595
5529.71,0.65588
5506.57,0.65734
5483.42,0.66066
5460.28,0.66311
5437.13,0.66746
5413.99,0.67204
5390.84,0.67393
5367.7,0.67560
5344.55,0.67263
5321.41,0.66275
5298.26,0.64063
5275.12,0.60443
5251.97,0.55922
5228.83,0.52810
5205.68,0.50982
5182.54,0.50900
5159.39,0.51627
5136.25,0.52776
5113.1,0.54025
5089.96,0.55149
5066.81,0.56465
5043.67,0.57380
5020.52,0.58021
4997.38,0.58052
4974.23,0.57600
4951.09,0.55943
4927.94,0.53856
4904.8,0.51450
4881.65,0.49275
4858.51,0.47298
4835.36,0.45705
4812.22,0.44375
4789.07,0.43724
4765.93,0.43259
4742.78,0.43340
4719.64,0.43533
4696.49,0.43964
4673.35,0.44317
4650.2,0.45401
4627.06,0.46329
4603.92,0.47761
4580.77,0.48728
4557.63,0.49560
4534.48,0.50168
4511.34,0.50525
4488.19,0.49671
4465.05,0.47560
4441.9,0.44759
4418.76,0.41513
4395.61,0.39909
4372.47,0.40841
4349.32,0.41279
4326.18,0.40744
4303.03,0.39708
4279.89,0.39032
4256.74,0.39382
4233.6,0.39731
4210.45,0.39759
4187.31,0.39927
4164.16,0.40441
4141.02,0.39957
4117.87,0.38549
4094.73,0.36419
4071.58,0.34089
4048.44,0.31954
4025.29,0.30574
4002.15,0.30385
3979,0.31045
3955.86,0.32023
3932.71,0.33225
3909.57,0.34236
3886.42,0.35202
3863.28,0.36072
3840.13,0.37080
3816.99,0.37315
3793.84,0.37214
3770.7,0.36998
3747.55,0.36239
3724.41,0.34640
3701.26,0.31915
3678.12,0.26609
3654.97,0.19470
3631.83,0.14566
3608.68,0.10982
3585.54,0.08459
3562.39,0.06957
3539.25,0.06049
3516.1,0.05415
3492.96,0.05062
3469.81,0.04752
3446.67,0.04512
3423.52,0.04601
3400.38,0.04671
3377.23,0.04625
3354.09,0.04861
3330.94,0.05174
3307.8,0.05468
3284.65,0.05722
3261.51,0.06135
3238.36,0.06789
3215.22,0.07321
3192.07,0.08072
3168.93,0.08828
3145.78,0.09611
3122.64,0.10498
3099.49,0.11247
3076.35,0.11861
3053.2,0.12537
3030.06,0.12858
3006.91,0.12230
2983.77,0.10854
2960.62,0.08541
2937.48,0.07463
2914.33,0.07362
2891.19,0.07628
2868.04,0.08202
2844.9,0.09428
2821.75,0.11711
2798.61,0.13580
2775.46,0.14383
2752.32,0.14707
2729.17,0.14921
2706.03,0.15679
2682.88,0.16533
2659.74,0.17125
2636.59,0.17736
2613.45,0.18413
2590.3,0.19011
2567.16,0.19415
2544.02,0.19549
2520.87,0.20140
2497.73,0.21076
2474.58,0.22073
2451.44,0.22910
2428.29,0.24011
2405.15,0.25271
2382,0.26336
2358.86,0.27266
2335.71,0.27830
2312.57,0.28167
2289.42,0.27984
2266.28,0.27605
2243.13,0.27167
2219.99,0.27006
2196.84,0.26561
2173.7,0.25295
2150.55,0.24410
2127.41,0.24209
2104.26,0.24584
2081.12,0.24613
2057.97,0.24252
2034.83,0.24817
2011.68,0.26098
1988.54,0.26835
1965.39,0.27442
1942.25,0.28590
1919.1,0.29197
1895.96,0.28958
1872.81,0.28816
1849.67,0.28412
1826.52,0.27413
1803.38,0.25351
1780.23,0.21212
1757.09,0.12323
1733.94,0.09081
1710.8,0.11592
1687.65,0.12017
1664.51,0.09127
1641.36,0.08593
1618.22,0.08575
1595.07,0.08182
1571.93,0.11774
1548.78,0.13791
1525.64,0.09133
1502.49,0.06598
1479.35,0.07348
1456.2,0.05792
1433.06,0.05621
1409.91,0.06304
1386.77,0.05705
1363.62,0.05608
1340.48,0.05713
1317.33,0.05532
1294.19,0.05639
1271.04,0.05063
1247.9,0.05501
1224.75,0.05397
1201.61,0.05459
1178.46,0.04715
1155.32,0.05120
1132.17,0.04201
1109.03,0.04914
1085.88,0.04945
1062.74,0.07377
1039.59,0.07601
1016.45,0.08750
993.304,0.09581
970.159,0.11484
947.014,0.12469
923.869,0.13297
900.724,0.11128
877.579,0.11864
854.434,0.12081
831.289,0.12104
808.144,0.10559
784.999,0.10763
761.854,0.09850
738.709,0.09341
715.565,0.08576
692.42,0.08018
669.275,0.07423
646.13,0.07645
622.985,0.07406
599.84,0.07869