File: 01_Data/Bamboo_Rug_Bamboo/MCC/Bamboo_Rug_Bamboo_MCC_30K_min_211124_R1.txt
Sample ID:	C:\MCC\MCC Cal\Test\Bamboo_RugA_MCC_30K_min_211124_R1.txt
Sample Weight (mg):	4.9
Heating Rate (C/s):	0.5
Combustor Temp (C):	900
N2 Flow Rate (cc/min):	80
O2 Flow Rate (cc/min):	20
Calibration File:	C:\MCC\MCC Cal\Coeff1 JN10440_30_210304.txt.txt
T Correction Coefficients:	0	1.024463	0
Time Shift (s):	14
*
Time (s)	Temperature (C)	N2 flow rate (cc/min)	O2 flow rate (cc/min)	Flow Rate (cc/min)	Oxygen (%)	HRR (W/g)	Heating rate (C/s)
0.000	108.064	80.011	19.994	103.127	20.100	-0.175	-0.004
7.999	108.118	80.008	19.994	103.130	20.097	-0.004	0.015
15.999	108.084	80.008	19.995	103.151	20.097	0.005	-0.003
23.999	108.196	80.008	19.995	103.274	20.075	1.424	0.052
31.999	108.874	80.008	19.995	103.367	20.061	2.347	0.132
40.000	110.005	80.006	19.994	103.362	20.055	2.747	0.224
48.000	111.672	80.008	19.995	103.372	20.054	2.828	0.235
55.999	113.661	80.010	19.995	103.366	20.053	2.920	0.282
64.001	115.915	80.009	19.996	103.386	20.047	3.282	0.288
71.999	118.495	80.009	19.995	103.391	20.049	3.177	0.295
79.999	121.221	80.010	19.994	103.398	20.045	3.403	0.352
88.000	124.189	80.009	19.994	103.402	20.045	3.414	0.350
96.000	127.370	80.007	19.995	103.399	20.046	3.392	0.398
103.999	130.690	80.006	19.994	103.403	20.043	3.552	0.430
111.999	134.132	80.008	19.994	103.400	20.045	3.459	0.438
119.999	137.702	80.007	19.994	103.398	20.042	3.600	0.477
128.000	141.335	80.008	19.995	103.380	20.041	3.676	0.443
136.000	145.026	80.008	19.995	103.393	20.044	3.486	0.473
144.000	148.690	80.008	19.994	103.388	20.038	3.886	0.468
152.000	152.498	80.008	19.995	103.395	20.041	3.713	0.513
160.000	156.245	80.008	19.994	103.392	20.041	3.698	0.493
168.000	160.129	80.009	19.995	103.389	20.038	3.859	0.496
176.000	164.047	80.007	19.994	103.375	20.038	3.872	0.492
184.000	167.968	80.007	19.996	103.388	20.037	3.966	0.492
192.000	171.881	80.009	19.995	103.373	20.036	3.993	0.501
200.000	175.908	80.009	19.994	103.371	20.038	3.901	0.505
208.000	179.854	80.007	19.994	103.364	20.034	4.153	0.511
216.000	183.824	80.008	19.993	103.363	20.035	4.057	0.504
224.000	187.914	80.010	19.995	103.371	20.025	4.753	0.542
232.000	191.883	80.008	19.994	103.363	20.026	4.691	0.498
240.000	195.919	80.008	19.994	103.357	20.028	4.561	0.508
248.000	199.895	80.011	19.995	103.359	20.020	5.088	0.504
256.000	203.911	80.007	19.995	103.357	20.019	5.106	0.492
264.000	207.880	80.006	19.996	103.356	20.012	5.598	0.489
272.000	211.836	80.008	19.995	103.348	20.003	6.219	0.499
280.000	215.683	80.007	19.993	103.357	19.999	6.484	0.483
288.000	219.587	80.007	19.994	103.354	19.996	6.669	0.497
296.000	223.452	80.008	19.995	103.359	19.988	7.210	0.490
304.000	227.359	80.011	19.995	103.359	19.979	7.762	0.506
312.000	231.279	80.010	19.994	103.360	19.973	8.180	0.506
320.000	235.185	80.009	19.994	103.360	19.965	8.723	0.502
328.000	239.102	80.010	19.995	103.411	19.947	9.865	0.493
336.000	243.043	80.011	19.994	103.367	19.931	10.957	0.505
344.000	246.986	80.007	19.996	103.365	19.918	11.791	0.508
352.000	251.009	80.007	19.996	103.380	19.896	13.214	0.500
360.000	255.008	80.008	19.994	103.401	19.873	14.784	0.501
368.000	258.978	80.009	19.995	103.397	19.846	16.517	0.511
376.000	262.938	80.008	19.995	103.401	19.817	18.458	0.502
384.000	266.939	80.009	19.995	103.405	19.785	20.527	0.481
392.000	270.965	80.009	19.995	103.419	19.752	22.712	0.521
400.000	274.927	80.008	19.993	103.441	19.722	24.685	0.520
408.001	278.874	80.008	19.994	103.451	19.681	27.391	0.514
416.000	282.881	80.011	19.994	103.473	19.647	29.627	0.499
424.000	286.823	80.007	19.994	103.472	19.612	31.935	0.502
432.000	290.828	80.009	19.995	103.478	19.583	33.865	0.479
440.000	294.702	80.008	19.996	103.477	19.552	35.913	0.567
448.000	298.904	80.008	19.996	103.479	19.522	37.863	0.550
456.000	302.907	80.007	19.996	103.493	19.500	39.359	0.470
464.000	306.989	80.010	19.996	103.498	19.473	41.151	0.546
472.000	311.040	80.010	19.995	103.498	19.456	42.222	0.541
480.000	315.109	80.009	19.995	103.495	19.440	43.317	0.508
488.000	319.151	80.010	19.993	103.507	19.429	44.052	0.508
496.000	323.183	80.011	19.994	103.497	19.415	44.929	0.504
504.000	327.170	80.013	19.996	103.511	19.399	46.041	0.513
512.000	331.139	80.008	19.994	103.517	19.376	47.555	0.510
520.000	335.114	80.010	19.994	103.521	19.336	50.179	0.516
528.000	339.106	80.008	19.995	103.557	19.281	53.840	0.469
536.000	343.022	80.008	19.993	103.599	19.204	58.956	0.493
544.000	346.931	80.009	19.995	103.639	19.098	65.987	0.468
552.000	351.010	80.007	19.995	103.681	18.979	73.828	0.490
560.000	355.131	80.011	19.993	103.697	18.874	80.690	0.507
568.000	359.244	80.010	19.994	103.649	18.843	82.649	0.513
576.000	363.347	80.008	19.995	103.539	18.950	75.490	0.530
584.000	367.373	80.012	19.995	103.423	19.189	59.715	0.484
592.000	371.465	80.007	19.994	103.358	19.464	41.672	0.504
600.000	375.491	80.009	19.994	103.324	19.677	27.614	0.499
608.000	379.554	80.009	19.995	103.306	19.810	18.909	0.509
616.000	383.529	80.009	19.995	103.283	19.883	14.064	0.489
624.000	387.504	80.006	19.995	103.286	19.920	11.658	0.493
632.000	391.488	80.009	19.994	103.281	19.937	10.551	0.498
640.000	395.582	80.009	19.994	103.269	19.948	9.833	0.520
648.000	399.714	80.009	19.995	103.279	19.950	9.662	0.541
656.000	403.796	80.010	19.994	103.279	19.960	9.034	0.524
664.000	407.911	80.011	19.994	103.277	19.964	8.741	0.504
672.000	412.035	80.008	19.994	103.270	19.969	8.407	0.512
680.000	416.038	80.008	19.993	103.263	19.970	8.342	0.518
688.000	420.137	80.008	19.992	103.265	19.974	8.060	0.495
696.000	424.174	80.009	19.995	103.263	19.975	8.047	0.472
704.000	428.245	80.008	19.994	103.257	19.988	7.156	0.500
712.000	432.215	80.009	19.996	103.266	19.993	6.837	0.472
720.000	436.347	80.010	19.996	103.258	19.996	6.652	0.495
728.000	440.383	80.008	19.995	103.254	19.999	6.432	0.472
736.000	444.379	80.010	19.996	103.262	20.004	6.114	0.498
744.000	448.313	80.010	19.993	103.251	20.005	6.029	0.493
752.000	452.312	80.011	19.993	103.257	20.014	5.473	0.489
760.000	456.375	80.008	19.994	103.245	20.011	5.633	0.517
768.000	460.399	80.008	19.995	103.266	20.017	5.284	0.487
776.000	464.453	80.009	19.994	103.247	20.020	5.085	0.487
784.000	468.545	80.010	19.994	103.258	20.024	4.799	0.487
792.000	472.614	80.007	19.995	103.251	20.025	4.760	0.534
800.000	476.741	80.010	19.994	103.258	20.028	4.544	0.520
808.000	480.880	80.012	19.994	103.256	20.029	4.503	0.545
816.000	485.032	80.010	19.995	103.251	20.030	4.428	0.549
824.000	489.101	80.009	19.996	103.247	20.028	4.559	0.516
832.000	493.165	80.011	19.996	103.240	20.030	4.412	0.511
840.000	497.155	80.008	19.995	103.242	20.037	3.921	0.497
848.000	501.175	80.008	19.995	103.244	20.040	3.742	0.527
856.000	505.153	80.009	19.994	103.244	20.039	3.824	0.500
864.000	509.176	80.009	19.995	103.249	20.037	3.944	0.501
872.000	513.213	80.008	19.995	103.246	20.040	3.749	0.491
880.000	517.267	80.009	19.993	103.246	20.040	3.735	0.522
888.000	521.445	80.011	19.995	103.252	20.038	3.898	0.510
896.000	525.724	80.008	19.994	103.245	20.038	3.859	0.529
904.000	530.027	80.009	19.996	103.245	20.039	3.804	0.538
912.000	534.480	80.012	19.995	103.242	20.035	4.079	0.566
920.000	538.838	80.008	19.994	103.239	20.041	3.675	0.552
928.000	543.169	80.007	19.996	103.246	20.037	3.950	0.558
936.000	547.393	80.010	19.995	103.242	20.044	3.488	0.522
944.000	551.586	80.009	19.994	103.239	20.039	3.790	0.531
952.000	555.669	80.009	19.995	103.244	20.042	3.619	0.494
960.000	559.755	80.009	19.994	103.233	20.046	3.362	0.502
968.000	563.781	80.011	19.994	103.237	20.044	3.472	0.468
976.000	567.743	80.009	19.994	103.232	20.043	3.548	0.481
984.000	571.819	80.011	19.995	103.236	20.043	3.542	0.537
992.000	575.890	80.010	19.996	103.230	20.047	3.279	0.504
1000.000	579.894	80.010	19.993	103.238	20.041	3.678	0.494
1008.000	583.928	80.008	19.994	103.245	20.049	3.135	0.486
1016.000	587.968	80.009	19.996	103.227	20.041	3.675	0.513
1024.001	591.991	80.009	19.996	103.235	20.044	3.460	0.488
1031.999	596.080	80.009	19.996	103.235	20.038	3.854	0.502
1040.000	600.145	80.007	19.996	103.233	20.040	3.743	0.494
1048.000	604.242	80.010	19.995	103.230	20.037	3.973	0.533
1055.999	608.289	80.010	19.996	103.234	20.037	3.922	0.498
1063.999	612.388	80.010	19.995	103.239	20.045	3.431	0.509
1071.999	616.515	80.008	19.993	103.231	20.042	3.630	0.514
1080.000	620.564	80.010	19.994	103.228	20.039	3.784	0.497
1087.999	624.564	80.007	19.996	103.235	20.039	3.847	0.507
1095.999	628.601	80.007	19.995	103.220	20.040	3.720	0.488
1104.000	632.627	80.008	19.994	103.223	20.043	3.544	0.519
1112.001	636.699	80.008	19.996	103.212	20.040	3.751	0.536
1119.999	640.745	80.006	19.996	103.219	20.038	3.865	0.528
1128.000	644.722	80.008	19.995	103.212	20.032	4.301	0.500
1135.999	648.674	80.010	19.993	103.220	20.036	3.993	0.496
1143.999	652.701	80.010	19.994	103.217	20.041	3.664	0.518
1151.999	656.729	80.009	19.995	103.218	20.040	3.718	0.491
1159.999	660.763	80.011	19.994	103.221	20.037	3.962	0.482
1168.000	664.915	80.010	19.994	103.211	20.039	3.837	0.537
1175.999	669.152	80.009	19.994	103.224	20.040	3.771	0.553
1183.999	673.387	80.009	19.995	103.234	20.044	3.507	0.546
1191.999	677.729	80.009	19.995	103.208	20.043	3.548	0.550
1199.999	681.940	80.009	19.994	103.208	20.041	3.688	0.529
1208.000	686.029	80.009	19.996	103.209	20.038	3.859	0.531
1215.999	690.108	80.010	19.996	103.207	20.040	3.732	0.517
1223.999	694.182	80.011	19.994	103.210	20.041	3.682	0.526
1231.999	698.286	80.012	19.995	103.211	20.042	3.650	0.526
1240.000	702.408	80.011	19.994	103.212	20.042	3.590	0.500
1248.000	706.463	80.011	19.994	103.204	20.038	3.852	0.557
1256.001	710.556	80.008	19.995	103.207	20.041	3.704	0.526
1264.001	714.628	80.008	19.995	103.207	20.037	3.948	0.510
1272.000	718.681	80.007	19.994	103.210	20.037	3.955	0.504
1280.000	722.821	80.009	19.995	103.206	20.046	3.377	0.506
1288.001	726.905	80.008	19.996	103.207	20.047	3.305	0.501
1295.999	730.979	80.010	19.995	103.208	20.044	3.489	0.494
1303.999	735.068	80.010	19.995	103.205	20.044	3.459	0.519
1312.000	739.125	80.009	19.995	103.202	20.048	3.232	0.494
1319.999	743.246	80.011	19.994	103.206	20.042	3.636	0.514
1320.499	743.464	80.011	19.994	103.207	20.041	3.703	0.489