File: 01_Data/Bamboo_Rug_Bamboo/MCC/Bamboo_Rug_Bamboo_MCC_30K_min_211124_R2.txt
Sample ID:	C:\MCC\MCC Cal\Test\Bamboo_RugA_MCC_30K_min_211124_R2.txt
Sample Weight (mg):	4.67
Heating Rate (C/s):	0.5
Combustor Temp (C):	900
N2 Flow Rate (cc/min):	80
O2 Flow Rate (cc/min):	20
Calibration File:	C:\MCC\MCC Cal\Coeff1 JN10440_30_210304.txt.txt
T Correction Coefficients:	0	1.024463	0
Time Shift (s):	14
*
Time (s)	Temperature (C)	N2 flow rate (cc/min)	O2 flow rate (cc/min)	Flow Rate (cc/min)	Oxygen (%)	HRR (W/g)	Heating rate (C/s)
-0.001	108.987	80.009	19.998	103.115	20.144	-0.039	-0.000
8.000	108.947	80.007	19.995	103.104	20.147	-0.283	0.000
16.000	108.993	80.008	19.993	103.169	20.134	0.671	0.041
24.000	109.262	80.008	19.993	103.279	20.126	1.223	0.059
32.000	109.863	80.010	19.994	103.093	20.139	0.329	0.089
40.001	110.213	80.005	19.995	103.089	20.145	-0.097	0.045
47.999	110.484	80.005	19.994	103.094	20.142	0.067	0.024
55.999	110.636	80.005	19.994	103.094	20.147	-0.229	0.009
64.000	110.754	80.006	19.996	103.091	20.145	-0.097	0.006
71.999	110.782	80.004	19.996	103.093	20.151	-0.541	-0.015
79.999	110.787	80.005	19.994	103.094	20.149	-0.422	-0.014
87.999	110.795	80.008	19.995	103.088	20.149	-0.366	-0.011
96.000	110.713	80.007	19.994	103.088	20.144	-0.054	-0.008
103.999	110.637	80.007	19.994	103.086	20.151	-0.524	-0.012
112.000	110.545	80.010	19.993	103.090	20.150	-0.431	-0.029
119.999	110.519	80.006	19.994	103.086	20.147	-0.262	0.018
127.999	110.402	80.006	19.994	103.090	20.150	-0.492	-0.023
136.000	110.296	80.005	19.995	103.091	20.147	-0.242	-0.010
144.000	110.207	80.007	19.994	103.091	20.145	-0.091	-0.002
152.000	110.097	80.004	19.996	103.090	20.146	-0.162	0.007
160.000	110.027	80.007	19.996	103.088	20.148	-0.301	0.015
168.000	109.905	80.009	19.993	103.086	20.148	-0.342	-0.005
176.000	109.805	80.007	19.994	103.088	20.149	-0.403	-0.016
184.000	109.698	80.006	19.994	103.092	20.149	-0.405	-0.016
192.000	109.643	80.008	19.994	103.091	20.148	-0.314	0.011
200.000	109.535	80.009	19.994	103.091	20.147	-0.230	-0.012
208.000	109.479	80.007	19.994	103.088	20.146	-0.184	-0.016
216.000	109.364	80.007	19.994	103.088	20.146	-0.157	-0.039
224.000	109.288	80.007	19.996	103.108	20.101	2.958	-0.035
232.000	110.871	80.006	19.994	104.131	19.978	11.457	0.376
240.000	115.677	80.005	19.995	104.035	19.959	12.800	0.691
248.000	122.817	80.007	19.995	103.948	19.976	11.598	0.958
256.000	131.364	80.006	19.996	103.822	19.999	9.993	1.099
264.000	140.620	80.007	19.995	103.714	20.016	8.805	1.176
272.000	150.123	80.009	19.994	103.645	20.030	7.870	1.189
280.000	159.525	80.008	19.994	103.596	20.039	7.207	1.188
288.000	168.786	80.007	19.994	103.554	20.042	6.989	1.097
296.000	177.685	80.009	19.994	103.510	20.044	6.849	1.091
304.000	186.255	80.008	19.995	103.490	20.045	6.798	1.059
312.000	194.514	80.009	19.995	103.480	20.042	6.969	1.011
320.000	202.407	80.006	19.994	103.461	20.034	7.542	0.965
328.000	210.081	80.008	19.995	103.440	20.029	7.891	0.935
336.000	217.297	80.009	19.994	103.405	20.020	8.541	0.872
344.000	224.173	80.008	19.996	103.398	20.006	9.495	0.849
352.000	230.787	80.008	19.995	103.389	19.988	10.694	0.787
360.000	236.994	80.011	19.995	103.373	19.972	11.832	0.759
368.000	242.865	80.008	19.995	103.365	19.956	12.929	0.692
376.000	248.462	80.006	19.995	103.371	19.941	14.003	0.699
384.000	253.770	80.007	19.994	103.377	19.910	16.094	0.632
392.000	258.869	80.006	19.994	103.392	19.879	18.289	0.624
400.000	263.660	80.008	19.993	103.382	19.846	20.552	0.612
408.000	268.238	80.007	19.996	103.400	19.809	23.104	0.512
416.000	272.776	80.008	19.995	103.399	19.770	25.796	0.540
424.000	277.115	80.009	19.995	103.404	19.730	28.582	0.517
432.000	281.302	80.008	19.995	103.426	19.692	31.211	0.507
440.000	285.427	80.008	19.996	103.433	19.657	33.627	0.491
448.000	289.457	80.008	19.995	103.439	19.625	35.840	0.510
456.000	293.514	80.007	19.994	103.444	19.596	37.809	0.487
464.000	297.476	80.008	19.994	103.449	19.572	39.477	0.478
472.000	301.467	80.008	19.994	103.445	19.556	40.622	0.506
480.000	305.393	80.007	19.995	103.462	19.545	41.379	0.505
488.000	309.352	80.008	19.995	103.451	19.529	42.462	0.499
496.000	313.349	80.009	19.993	103.451	19.519	43.124	0.507
504.000	317.248	80.008	19.995	103.443	19.514	43.467	0.460
512.000	321.229	80.007	19.995	103.458	19.509	43.831	0.481
520.000	325.198	80.007	19.994	103.466	19.497	44.696	0.489
528.000	329.237	80.009	19.995	103.468	19.473	46.366	0.526
536.000	333.233	80.007	19.996	103.477	19.446	48.198	0.530
544.000	337.253	80.008	19.995	103.495	19.402	51.279	0.535
552.000	341.268	80.008	19.993	103.520	19.342	55.460	0.483
560.000	345.274	80.007	19.995	103.556	19.257	61.358	0.512
568.000	349.276	80.005	19.995	103.601	19.152	68.662	0.492
576.000	353.348	80.008	19.996	103.638	19.038	76.547	0.533
584.000	357.338	80.009	19.995	103.651	18.949	82.602	0.482
592.000	361.384	80.008	19.993	103.580	18.951	82.388	0.514
600.000	365.376	80.009	19.996	103.459	19.102	71.910	0.477
608.000	369.453	80.010	19.996	103.363	19.355	54.398	0.502
616.000	373.521	80.008	19.995	103.311	19.614	36.488	0.549
624.000	377.566	80.005	19.997	103.282	19.797	23.920	0.498
632.000	381.687	80.006	19.996	103.272	19.898	16.920	0.527
640.000	385.670	80.007	19.994	103.258	19.952	13.224	0.472
648.000	389.650	80.007	19.994	103.258	19.981	11.176	0.496
656.000	393.687	80.008	19.995	103.261	19.994	10.332	0.531
664.000	397.683	80.008	19.995	103.253	19.999	9.922	0.495
672.000	401.713	80.009	19.997	103.251	20.004	9.575	0.492
680.000	405.699	80.008	19.994	103.255	20.011	9.125	0.494
688.000	409.789	80.010	19.994	103.253	20.016	8.780	0.480
696.000	413.880	80.007	19.994	103.244	20.029	7.894	0.476
704.000	418.013	80.007	19.995	103.260	20.026	8.084	0.575
712.000	422.114	80.006	19.997	103.246	20.028	7.933	0.368
720.000	426.160	80.007	19.995	103.254	20.033	7.629	0.547
728.000	430.212	80.007	19.996	103.244	20.035	7.447	0.507
736.000	434.321	80.007	19.995	103.245	20.040	7.153	0.542
744.000	438.473	80.009	19.995	103.245	20.043	6.918	0.540
752.000	442.502	80.007	19.994	103.243	20.048	6.605	0.514
760.000	446.595	80.008	19.994	103.243	20.049	6.483	0.486
768.000	450.651	80.010	19.994	103.246	20.053	6.204	0.500
776.000	454.750	80.009	19.993	103.247	20.056	6.007	0.532
784.000	458.827	80.006	19.996	103.243	20.064	5.482	0.524
792.000	462.819	80.007	19.996	103.230	20.067	5.259	0.487
800.000	466.852	80.009	19.994	103.236	20.068	5.197	0.513
808.000	470.909	80.006	19.996	103.238	20.071	4.988	0.519
816.000	474.968	80.007	19.997	103.239	20.068	5.186	0.510
824.000	479.051	80.008	19.995	103.225	20.071	4.981	0.538
832.000	483.079	80.009	19.994	103.239	20.069	5.118	0.494
840.000	487.213	80.008	19.997	103.246	20.070	5.052	0.522
848.000	491.307	80.008	19.994	103.236	20.070	5.063	0.486
856.000	495.531	80.009	19.994	103.224	20.071	5.003	0.523
864.000	499.677	80.007	19.994	103.227	20.070	5.038	0.547
872.000	503.846	80.007	19.995	103.220	20.073	4.867	0.516
880.000	507.919	80.008	19.995	103.227	20.076	4.613	0.494
888.000	511.979	80.007	19.995	103.233	20.076	4.651	0.481
896.000	516.101	80.008	19.996	103.217	20.076	4.616	0.516
904.000	520.177	80.006	19.995	103.231	20.080	4.369	0.520
912.000	524.226	80.009	19.995	103.223	20.076	4.649	0.503
920.000	528.339	80.009	19.996	103.228	20.081	4.276	0.507
928.000	532.462	80.008	19.995	103.221	20.081	4.315	0.528
936.000	536.784	80.011	19.994	103.226	20.076	4.638	0.524
944.000	541.225	80.007	19.996	103.219	20.075	4.704	0.541
952.000	545.680	80.009	19.994	103.229	20.077	4.562	0.536
960.000	550.218	80.009	19.995	103.228	20.074	4.778	0.577
968.000	554.770	80.007	19.996	103.240	20.078	4.486	0.572
976.000	559.179	80.007	19.995	103.229	20.077	4.569	0.540
984.000	563.570	80.008	19.994	103.215	20.076	4.626	0.566
992.000	567.884	80.009	19.996	103.212	20.077	4.546	0.511
1000.000	572.185	80.008	19.995	103.205	20.073	4.855	0.541
1008.000	576.546	80.008	19.996	103.220	20.078	4.535	0.546
1016.000	580.597	80.010	19.995	103.227	20.075	4.727	0.480
1024.000	584.595	80.008	19.994	103.214	20.073	4.857	0.498
1032.000	588.513	80.007	19.995	103.208	20.076	4.650	0.478
1039.999	592.447	80.007	19.994	103.214	20.073	4.853	0.478
1048.000	596.424	80.009	19.994	103.209	20.074	4.747	0.490
1055.999	600.265	80.007	19.994	103.205	20.076	4.643	0.454
1063.999	604.138	80.006	19.994	103.206	20.075	4.690	0.510
1072.000	607.919	80.009	19.996	103.216	20.074	4.753	0.475
1079.999	611.815	80.009	19.997	103.213	20.073	4.844	0.469
1088.001	615.789	80.008	19.995	103.207	20.073	4.879	0.507
1095.999	619.684	80.009	19.995	103.205	20.071	4.965	0.453
1104.000	623.635	80.007	19.995	103.206	20.067	5.266	0.489
1111.999	627.558	80.007	19.994	103.208	20.067	5.259	0.476
1119.999	631.489	80.009	19.996	103.204	20.068	5.221	0.487
1127.999	635.537	80.009	19.995	103.205	20.068	5.177	0.518
1135.999	639.543	80.008	19.995	103.207	20.067	5.244	0.493
1143.999	643.671	80.008	19.996	103.206	20.064	5.475	0.522
1151.999	647.727	80.007	19.993	103.209	20.063	5.566	0.509
1160.000	651.805	80.011	19.996	103.211	20.061	5.698	0.524
1168.001	655.892	80.008	19.996	103.204	20.057	5.921	0.523
1175.999	659.953	80.010	19.996	103.208	20.059	5.837	0.505
1184.000	664.072	80.011	19.996	103.206	20.056	6.016	0.505
1192.000	668.127	80.008	19.994	103.200	20.057	5.956	0.494
1199.999	672.246	80.006	19.996	103.204	20.058	5.893	0.528
1207.999	676.332	80.008	19.993	103.202	20.056	5.999	0.500
1216.000	680.409	80.010	19.996	103.208	20.052	6.298	0.524
1223.999	684.464	80.008	19.994	103.206	20.056	6.003	0.523
1232.001	688.486	80.007	19.995	103.203	20.056	6.051	0.497
1240.000	692.488	80.010	19.994	103.198	20.052	6.287	0.509
1248.000	696.460	80.008	19.996	103.196	20.050	6.450	0.491
1256.000	700.515	80.009	19.994	103.198	20.044	6.810	0.497
1263.999	704.533	80.009	19.995	103.181	20.047	6.614	0.484
1272.000	708.507	80.009	19.995	103.183	20.051	6.350	0.486
1279.999	712.565	80.007	19.994	103.192	20.046	6.712	0.474
1287.999	716.704	80.008	19.995	103.195	20.045	6.767	0.521
1295.999	720.733	80.006	19.995	103.205	20.042	6.997	0.487
1303.999	724.791	80.007	19.995	103.193	20.038	7.266	0.531
1311.999	728.769	80.009	19.994	103.195	20.042	6.996	0.540
1319.999	732.736	80.007	19.996	103.176	20.037	7.301	0.474
1328.000	736.598	80.009	19.996	103.188	20.040	7.118	0.483
1335.999	740.367	80.009	19.994	103.200	20.039	7.217	0.472
1343.500	743.958	80.010	19.994	103.195	20.034	7.532	0.457