File: 01_Data/Nylon/FTIR/IS/Nylon_1.575_Trans_S_IS_221213_R2.dpt
7496.63,0.70580
7473.48,0.71705
7450.34,0.70341
7427.2,0.70386
7404.05,0.70060
7380.91,0.69042
7357.77,0.69654
7334.62,0.68105
7311.48,0.66517
7288.33,0.65036
7265.19,0.62066
7242.05,0.60552
7218.9,0.59546
7195.76,0.58718
7172.62,0.60295
7149.47,0.59744
7126.33,0.59352
7103.18,0.58408
7080.04,0.57917
7056.9,0.59059
7033.75,0.58714
7010.61,0.58630
6987.47,0.59105
6964.32,0.59259
6941.18,0.59144
6918.04,0.59966
6894.89,0.60304
6871.75,0.60745
6848.6,0.60865
6825.46,0.60732
6802.32,0.60353
6779.17,0.59162
6756.03,0.57779
6732.89,0.58240
6709.74,0.56952
6686.6,0.56261
6663.45,0.54906
6640.31,0.53098
6617.17,0.50397
6594.02,0.50252
6570.88,0.50409
6547.74,0.48810
6524.59,0.46024
6501.45,0.45601
6478.3,0.45839
6455.16,0.52128
6432.02,0.56341
6408.87,0.56609
6385.73,0.54526
6362.59,0.52149
6339.44,0.52570
6316.3,0.55769
6293.16,0.56892
6270.01,0.55466
6246.87,0.54143
6223.72,0.54284
6200.58,0.56704
6177.44,0.59062
6154.29,0.62429
6131.15,0.64293
6108.01,0.65263
6084.86,0.65325
6061.72,0.64849
6038.57,0.64534
6015.43,0.64281
5992.29,0.63492
5969.14,0.62033
5946,0.59563
5922.86,0.54286
5899.71,0.44829
5876.57,0.33209
5853.43,0.23881
5830.28,0.18402
5807.14,0.21826
5783.99,0.26366
5760.85,0.29022
5737.71,0.26464
5714.56,0.22668
5691.42,0.24198
5668.28,0.29606
5645.13,0.34714
5621.99,0.38604
5598.84,0.39877
5575.7,0.41066
5552.56,0.42210
5529.41,0.43323
5506.27,0.44499
5483.13,0.45675
5459.98,0.46444
5436.84,0.47260
5413.7,0.47638
5390.55,0.50173
5367.41,0.51890
5344.26,0.52056
5321.12,0.51837
5297.98,0.48041
5274.83,0.44029
5251.69,0.40973
5228.55,0.37043
5205.4,0.32550
5182.26,0.28228
5159.11,0.24880
5135.97,0.23042
5112.83,0.23531
5089.68,0.25702
5066.54,0.27871
5043.4,0.30080
5020.25,0.30747
4997.11,0.27632
4973.97,0.18810
4950.82,0.18175
4927.68,0.17732
4904.53,0.11842
4881.39,0.05520
4858.25,0.07085
4835.1,0.19033
4811.96,0.25716
4788.82,0.24791
4765.67,0.23909
4742.53,0.20843
4719.38,0.16680
4696.24,0.11938
4673.1,0.10988
4649.95,0.10443
4626.81,0.08189
4603.67,0.05348
4580.52,0.03647
4557.38,0.04777
4534.23,0.05438
4511.09,0.07435
4487.95,0.09014
4464.8,0.08474
4441.66,0.05997
4418.52,0.03386
4395.37,0.00864
4372.23,0.00046
4349.09,0.00042
4325.94,0.00209
4302.8,0.00587
4279.65,0.00251
4256.51,0.00068
4233.37,0.00124
4210.22,0.00016
4187.08,0.00130
4163.94,0.00307
4140.79,0.00731
4117.65,0.00967
4094.5,0.00756
4071.36,0.00784
4048.22,0.00534
4025.07,0.00281
4001.93,0.00276
3978.79,0.00810
3955.64,0.02165
3932.5,0.03338
3909.36,0.04664
3886.21,0.05873
3863.07,0.07207
3839.92,0.05335
3816.78,0.06137
3793.64,0.07148
3770.49,0.08221
3747.35,0.07197
3724.21,0.06374
3701.06,0.04379
3677.92,0.00384
3654.77,0.00049
3631.63,0.00058
3608.49,0.00004
3585.34,0.00043
3562.2,0.00024
3539.06,0.00034
3515.91,0.00031
3492.77,0.00047
3469.63,0.00034
3446.48,0.00068
3423.34,0.00012
3400.19,0.00082
3377.05,0.00059
3353.91,0.00042
3330.76,0.00067
3307.62,0.00024
3284.48,0.00065
3261.33,0.00041
3238.19,0.00042
3215.04,0.00040
3191.9,0.00006
3168.76,0.00058
3145.61,0.00078
3122.47,0.00068
3099.33,0.00055
3076.18,0.00025
3053.04,0.00030
3029.89,0.00013
3006.75,0.00028
2983.61,0.00069
2960.46,0.00038
2937.32,0.00033
2914.18,0.00036
2891.03,0.00038
2867.89,0.00047
2844.75,0.00030
2821.6,0.00062
2798.46,0.00019
2775.31,0.00053
2752.17,0.00055
2729.03,0.00040
2705.88,0.00055
2682.74,0.00038
2659.6,0.00026
2636.45,0.00028
2613.31,0.00006
2590.16,0.00054
2567.02,0.00017
2543.88,0.00046
2520.73,0.00081
2497.59,0.00141
2474.45,0.00167
2451.3,0.00465
2428.16,0.00600
2405.02,0.00699
2381.87,0.00588
2358.73,0.00492
2335.58,0.00322
2312.44,0.00425
2289.3,0.00679
2266.15,0.00577
2243.01,0.00453
2219.87,0.00275
2196.72,0.00212
2173.58,0.00173
2150.43,0.00162
2127.29,0.00264
2104.15,0.00316
2081,0.00411
2057.86,0.00456
2034.72,0.00650
2011.57,0.01044
1988.43,0.01252
1965.29,0.01239
1942.14,0.01691
1919,0.01742
1895.85,0.01147
1872.71,0.00775
1849.57,0.00756
1826.42,0.00426
1803.28,0.00137
1780.14,0.00010
1756.99,0.00039
1733.85,0.00004
1710.7,0.00032
1687.56,0.00030
1664.42,0.00027
1641.27,0.00022
1618.13,0.00041
1594.99,0.00034
1571.84,0.00007
1548.7,0.00022
1525.56,0.00051
1502.41,0.00017
1479.27,0.00017
1456.12,0.00021
1432.98,0.00039
1409.84,0.00021
1386.69,0.00043
1363.55,0.00021
1340.41,0.00027
1317.26,0.00029
1294.12,0.00020
1270.97,0.00038
1247.83,0.00004
1224.69,0.00035
1201.54,0.00035
1178.4,0.00023
1155.26,-0.00002
1132.11,0.00072
1108.97,0.00050
1085.82,0.00039
1062.68,0.00036
1039.54,0.00057
1016.39,0.00080
993.25,0.00021
970.106,0.00039
946.963,0.00066
923.819,0.00107
900.675,-0.00001
877.532,0.00051
854.388,0.00013
831.244,0.00096
808.101,0.00065
784.957,0.00076
761.813,0.00007
738.669,0.00045
715.526,0.00108
692.382,0.00153
669.238,0.00128
646.095,0.00073
622.951,0.00123
599.807,0.00183