File: 01_Data/Nylon/FTIR/IS/Nylon_1.575_Trans_S_IS_221213_R1.dpt
7496.63,0.70788
7473.48,0.70164
7450.34,0.70110
7427.2,0.69807
7404.05,0.69569
7380.91,0.70022
7357.77,0.68455
7334.62,0.67909
7311.48,0.66716
7288.33,0.65165
7265.19,0.62869
7242.05,0.60954
7218.9,0.59646
7195.76,0.58988
7172.62,0.59884
7149.47,0.59581
7126.33,0.58409
7103.18,0.57988
7080.04,0.57498
7056.9,0.58386
7033.75,0.58495
7010.61,0.58660
6987.47,0.59112
6964.32,0.59887
6941.18,0.59018
6918.04,0.60536
6894.89,0.59764
6871.75,0.60302
6848.6,0.60060
6825.46,0.59885
6802.32,0.60483
6779.17,0.59520
6756.03,0.58444
6732.89,0.57419
6709.74,0.57104
6686.6,0.56476
6663.45,0.54595
6640.31,0.52426
6617.17,0.50236
6594.02,0.50518
6570.88,0.50041
6547.74,0.48422
6524.59,0.46060
6501.45,0.45559
6478.3,0.45486
6455.16,0.52328
6432.02,0.56641
6408.87,0.56605
6385.73,0.54815
6362.59,0.52435
6339.44,0.52577
6316.3,0.55197
6293.16,0.56834
6270.01,0.55206
6246.87,0.53662
6223.72,0.54260
6200.58,0.56958
6177.44,0.58964
6154.29,0.62099
6131.15,0.64175
6108.01,0.65060
6084.86,0.65197
6061.72,0.64846
6038.57,0.64669
6015.43,0.63983
5992.29,0.63238
5969.14,0.61821
5946,0.59581
5922.86,0.54186
5899.71,0.44570
5876.57,0.33191
5853.43,0.23780
5830.28,0.18429
5807.14,0.21485
5783.99,0.26273
5760.85,0.29042
5737.71,0.26355
5714.56,0.22629
5691.42,0.24094
5668.28,0.29377
5645.13,0.34721
5621.99,0.38630
5598.84,0.39932
5575.7,0.40874
5552.56,0.42268
5529.41,0.43307
5506.27,0.44294
5483.13,0.45378
5459.98,0.46235
5436.84,0.47204
5413.7,0.47343
5390.55,0.50050
5367.41,0.51736
5344.26,0.51755
5321.12,0.51586
5297.98,0.48010
5274.83,0.44028
5251.69,0.40830
5228.55,0.37170
5205.4,0.32571
5182.26,0.28129
5159.11,0.24932
5135.97,0.23084
5112.83,0.23614
5089.68,0.25652
5066.54,0.27925
5043.4,0.29969
5020.25,0.30493
4997.11,0.27595
4973.97,0.18660
4950.82,0.18223
4927.68,0.17664
4904.53,0.11943
4881.39,0.05475
4858.25,0.06956
4835.1,0.18932
4811.96,0.25748
4788.82,0.24738
4765.67,0.23822
4742.53,0.20900
4719.38,0.16595
4696.24,0.11819
4673.1,0.10966
4649.95,0.10492
4626.81,0.08270
4603.67,0.05438
4580.52,0.03612
4557.38,0.04825
4534.23,0.05398
4511.09,0.07464
4487.95,0.09046
4464.8,0.08449
4441.66,0.05957
4418.52,0.03302
4395.37,0.00962
4372.23,0.00063
4349.09,0.00069
4325.94,0.00223
4302.8,0.00538
4279.65,0.00337
4256.51,0.00141
4233.37,0.00158
4210.22,0.00085
4187.08,0.00153
4163.94,0.00301
4140.79,0.00727
4117.65,0.01040
4094.5,0.00774
4071.36,0.00770
4048.22,0.00530
4025.07,0.00259
4001.93,0.00232
3978.79,0.00798
3955.64,0.02147
3932.5,0.03355
3909.36,0.04650
3886.21,0.05784
3863.07,0.07134
3839.92,0.05293
3816.78,0.06026
3793.64,0.07111
3770.49,0.08168
3747.35,0.07074
3724.21,0.06292
3701.06,0.04344
3677.92,0.00369
3654.77,0.00095
3631.63,0.00027
3608.49,0.00031
3585.34,0.00047
3562.2,0.00032
3539.06,0.00061
3515.91,0.00058
3492.77,0.00039
3469.63,0.00050
3446.48,0.00012
3423.34,0.00023
3400.19,0.00052
3377.05,0.00019
3353.91,0.00066
3330.76,0.00026
3307.62,0.00059
3284.48,0.00016
3261.33,0.00080
3238.19,0.00030
3215.04,0.00005
3191.9,0.00052
3168.76,0.00029
3145.61,0.00038
3122.47,0.00039
3099.33,0.00020
3076.18,-0.00003
3053.04,0.00036
3029.89,0.00014
3006.75,0.00030
2983.61,0.00014
2960.46,0.00067
2937.32,0.00042
2914.18,0.00061
2891.03,0.00029
2867.89,0.00032
2844.75,0.00057
2821.6,0.00026
2798.46,0.00041
2775.31,0.00044
2752.17,0.00030
2729.03,0.00069
2705.88,0.00022
2682.74,0.00041
2659.6,0.00035
2636.45,0.00026
2613.31,0.00029
2590.16,0.00024
2567.02,0.00025
2543.88,0.00020
2520.73,0.00114
2497.59,0.00141
2474.45,0.00171
2451.3,0.00454
2428.16,0.00592
2405.02,0.00697
2381.87,0.00569
2358.73,0.00456
2335.58,0.00307
2312.44,0.00385
2289.3,0.00677
2266.15,0.00593
2243.01,0.00465
2219.87,0.00281
2196.72,0.00236
2173.58,0.00170
2150.43,0.00173
2127.29,0.00260
2104.15,0.00327
2081,0.00419
2057.86,0.00468
2034.72,0.00641
2011.57,0.01039
1988.43,0.01253
1965.29,0.01265
1942.14,0.01706
1919,0.01715
1895.85,0.01130
1872.71,0.00794
1849.57,0.00795
1826.42,0.00440
1803.28,0.00155
1780.14,0.00038
1756.99,0.00018
1733.85,0.00044
1710.7,0.00013
1687.56,0.00024
1664.42,0.00010
1641.27,0.00040
1618.13,0.00019
1594.99,0.00022
1571.84,0.00024
1548.7,0.00025
1525.56,0.00029
1502.41,0.00023
1479.27,0.00014
1456.12,0.00072
1432.98,0.00027
1409.84,0.00027
1386.69,0.00034
1363.55,0.00026
1340.41,0.00010
1317.26,0.00032
1294.12,0.00033
1270.97,0.00032
1247.83,0.00026
1224.69,0.00010
1201.54,0.00021
1178.4,0.00047
1155.26,0.00039
1132.11,0.00046
1108.97,0.00079
1085.82,0.00099
1062.68,0.00032
1039.54,0.00040
1016.39,0.00087
993.25,0.00035
970.106,0.00038
946.963,0.00072
923.819,0.00020
900.675,0.00049
877.532,0.00014
854.388,0.00073
831.244,0.00081
808.101,0.00068
784.957,0.00068
761.813,0.00080
738.669,0.00069
715.526,0.00067
692.382,0.00084
669.238,0.00076
646.095,0.00057
622.951,0.00103
599.807,0.00186