File: 01_Data/Nylon/FTIR/IS/Nylon_1.575_Trans_S_IS_221213_R3.dpt
7496.63,0.70325
7473.48,0.69205
7450.34,0.70914
7427.2,0.69998
7404.05,0.70277
7380.91,0.69655
7357.77,0.67522
7334.62,0.67988
7311.48,0.66046
7288.33,0.64111
7265.19,0.62069
7242.05,0.60410
7218.9,0.59043
7195.76,0.59152
7172.62,0.59700
7149.47,0.59813
7126.33,0.58772
7103.18,0.58313
7080.04,0.58702
7056.9,0.58345
7033.75,0.59009
7010.61,0.58543
6987.47,0.58490
6964.32,0.59271
6941.18,0.59823
6918.04,0.59780
6894.89,0.60596
6871.75,0.59994
6848.6,0.59778
6825.46,0.59918
6802.32,0.60198
6779.17,0.59266
6756.03,0.57883
6732.89,0.57770
6709.74,0.56998
6686.6,0.56467
6663.45,0.55367
6640.31,0.53037
6617.17,0.50666
6594.02,0.50175
6570.88,0.49993
6547.74,0.48308
6524.59,0.46118
6501.45,0.45412
6478.3,0.45733
6455.16,0.52340
6432.02,0.56433
6408.87,0.56607
6385.73,0.54402
6362.59,0.52214
6339.44,0.52401
6316.3,0.55680
6293.16,0.56804
6270.01,0.54831
6246.87,0.53701
6223.72,0.54337
6200.58,0.56650
6177.44,0.59018
6154.29,0.61960
6131.15,0.63881
6108.01,0.65229
6084.86,0.65151
6061.72,0.65118
6038.57,0.64859
6015.43,0.64011
5992.29,0.63409
5969.14,0.61798
5946,0.59237
5922.86,0.53900
5899.71,0.44649
5876.57,0.33259
5853.43,0.23665
5830.28,0.18362
5807.14,0.21586
5783.99,0.26107
5760.85,0.28937
5737.71,0.26300
5714.56,0.22645
5691.42,0.24142
5668.28,0.29357
5645.13,0.34649
5621.99,0.38500
5598.84,0.39792
5575.7,0.40819
5552.56,0.42204
5529.41,0.43149
5506.27,0.44130
5483.13,0.45317
5459.98,0.46204
5436.84,0.47018
5413.7,0.47264
5390.55,0.49906
5367.41,0.51400
5344.26,0.51442
5321.12,0.51440
5297.98,0.47761
5274.83,0.44040
5251.69,0.40738
5228.55,0.36894
5205.4,0.32423
5182.26,0.28085
5159.11,0.24857
5135.97,0.23186
5112.83,0.23609
5089.68,0.25612
5066.54,0.27921
5043.4,0.29834
5020.25,0.30594
4997.11,0.27631
4973.97,0.18765
4950.82,0.18264
4927.68,0.17655
4904.53,0.11945
4881.39,0.05568
4858.25,0.07027
4835.1,0.18895
4811.96,0.25597
4788.82,0.24691
4765.67,0.23788
4742.53,0.20794
4719.38,0.16517
4696.24,0.11815
4673.1,0.10922
4649.95,0.10424
4626.81,0.08283
4603.67,0.05360
4580.52,0.03631
4557.38,0.04838
4534.23,0.05448
4511.09,0.07489
4487.95,0.08952
4464.8,0.08379
4441.66,0.05971
4418.52,0.03319
4395.37,0.00968
4372.23,0.00107
4349.09,0.00079
4325.94,0.00287
4302.8,0.00514
4279.65,0.00292
4256.51,0.00141
4233.37,0.00136
4210.22,0.00052
4187.08,0.00155
4163.94,0.00332
4140.79,0.00729
4117.65,0.00983
4094.5,0.00770
4071.36,0.00735
4048.22,0.00527
4025.07,0.00339
4001.93,0.00219
3978.79,0.00769
3955.64,0.02161
3932.5,0.03331
3909.36,0.04679
3886.21,0.05838
3863.07,0.07098
3839.92,0.05244
3816.78,0.06006
3793.64,0.07170
3770.49,0.08105
3747.35,0.06965
3724.21,0.06253
3701.06,0.04302
3677.92,0.00271
3654.77,0.00009
3631.63,0.00063
3608.49,0.00030
3585.34,0.00028
3562.2,0.00049
3539.06,0.00058
3515.91,0.00027
3492.77,0.00009
3469.63,0.00039
3446.48,0.00018
3423.34,0.00011
3400.19,0.00038
3377.05,0.00055
3353.91,0.00021
3330.76,0.00028
3307.62,0.00036
3284.48,0.00033
3261.33,0.00038
3238.19,0.00080
3215.04,0.00039
3191.9,0.00013
3168.76,0.00044
3145.61,0.00014
3122.47,0.00042
3099.33,0.00045
3076.18,0.00067
3053.04,0.00041
3029.89,0.00082
3006.75,0.00034
2983.61,0.00042
2960.46,0.00074
2937.32,0.00016
2914.18,0.00016
2891.03,0.00012
2867.89,0.00014
2844.75,0.00036
2821.6,0.00012
2798.46,0.00043
2775.31,0.00019
2752.17,0.00034
2729.03,0.00027
2705.88,0.00031
2682.74,-0.00004
2659.6,0.00040
2636.45,0.00035
2613.31,0.00016
2590.16,0.00036
2567.02,0.00052
2543.88,0.00045
2520.73,0.00128
2497.59,0.00167
2474.45,0.00153
2451.3,0.00482
2428.16,0.00599
2405.02,0.00714
2381.87,0.00548
2358.73,0.00394
2335.58,0.00291
2312.44,0.00382
2289.3,0.00652
2266.15,0.00593
2243.01,0.00460
2219.87,0.00283
2196.72,0.00220
2173.58,0.00182
2150.43,0.00155
2127.29,0.00277
2104.15,0.00338
2081,0.00418
2057.86,0.00448
2034.72,0.00664
2011.57,0.01041
1988.43,0.01240
1965.29,0.01206
1942.14,0.01702
1919,0.01717
1895.85,0.01136
1872.71,0.00784
1849.57,0.00791
1826.42,0.00420
1803.28,0.00154
1780.14,0.00017
1756.99,0.00015
1733.85,0.00048
1710.7,0.00005
1687.56,0.00028
1664.42,0.00024
1641.27,0.00016
1618.13,0.00021
1594.99,0.00025
1571.84,0.00031
1548.7,0.00052
1525.56,0.00038
1502.41,0.00040
1479.27,0.00048
1456.12,0.00019
1432.98,0.00025
1409.84,0.00017
1386.69,0.00027
1363.55,0.00006
1340.41,0.00022
1317.26,0.00046
1294.12,0.00037
1270.97,0.00010
1247.83,0.00015
1224.69,0.00039
1201.54,0.00054
1178.4,0.00070
1155.26,0.00039
1132.11,0.00055
1108.97,0.00038
1085.82,0.00057
1062.68,0.00013
1039.54,0.00035
1016.39,0.00049
993.25,0.00033
970.106,0.00024
946.963,0.00057
923.819,0.00074
900.675,0.00060
877.532,0.00112
854.388,0.00062
831.244,0.00024
808.101,0.00035
784.957,0.00066
761.813,0.00075
738.669,0.00046
715.526,0.00075
692.382,0.00077
669.238,0.00070
646.095,0.00168
622.951,0.00068
599.807,0.00160