File: 01_Data/Nylon/FTIR/IS/Nylon_3.175_T_IS_221212_R4.dpt
7497.02,0.03483
7473.87,0.02190
7450.73,0.03885
7427.58,0.03136
7404.44,0.02777
7381.29,0.02298
7358.15,0.02351
7335,0.03061
7311.86,0.01883
7288.71,0.01721
7265.57,0.01832
7242.42,0.03008
7219.28,0.03024
7196.13,0.01833
7172.99,0.02425
7149.84,0.02357
7126.7,0.01791
7103.55,0.02619
7080.41,0.01980
7057.26,0.02584
7034.12,0.01856
7010.98,0.01984
6987.83,0.02247
6964.69,0.02554
6941.54,0.01563
6918.4,0.02360
6895.25,0.02750
6872.11,0.02644
6848.96,0.02041
6825.82,0.02267
6802.67,0.02325
6779.53,0.02261
6756.38,0.02401
6733.24,0.02287
6710.09,0.02265
6686.95,0.02373
6663.8,0.02242
6640.66,0.02584
6617.51,0.01663
6594.37,0.02413
6571.22,0.01924
6548.08,0.02130
6524.93,0.01822
6501.79,0.02363
6478.64,0.01976
6455.5,0.02608
6432.35,0.02407
6409.21,0.03055
6386.06,0.02213
6362.92,0.01776
6339.77,0.02260
6316.63,0.02521
6293.48,0.02191
6270.34,0.02501
6247.19,0.02317
6224.05,0.02450
6200.9,0.02710
6177.76,0.02447
6154.61,0.02475
6131.47,0.02533
6108.32,0.02265
6085.18,0.02268
6062.03,0.02287
6038.89,0.02334
6015.74,0.02354
5992.6,0.02309
5969.45,0.02614
5946.31,0.02163
5923.16,0.02217
5900.02,0.02097
5876.88,0.02390
5853.73,0.02341
5830.59,0.02369
5807.44,0.02361
5784.3,0.02155
5761.15,0.02296
5738.01,0.02313
5714.86,0.02200
5691.72,0.02317
5668.57,0.02355
5645.43,0.02358
5622.28,0.02272
5599.14,0.02442
5575.99,0.02153
5552.85,0.02139
5529.7,0.02429
5506.56,0.02260
5483.41,0.02171
5460.27,0.02296
5437.12,0.02296
5413.98,0.02361
5390.83,0.02256
5367.69,0.02339
5344.54,0.02231
5321.4,0.02227
5298.25,0.02282
5275.11,0.02223
5251.96,0.02302
5228.82,0.02309
5205.67,0.02349
5182.53,0.02203
5159.38,0.02293
5136.24,0.02391
5113.09,0.02225
5089.95,0.02348
5066.8,0.02334
5043.66,0.02329
5020.51,0.02228
4997.37,0.02387
4974.22,0.02305
4951.08,0.02234
4927.93,0.02284
4904.79,0.02415
4881.64,0.02358
4858.5,0.02237
4835.35,0.02371
4812.21,0.02361
4789.06,0.02264
4765.92,0.02274
4742.78,0.02311
4719.63,0.02262
4696.49,0.02315
4673.34,0.02333
4650.2,0.02420
4627.05,0.02332
4603.91,0.02396
4580.76,0.02454
4557.62,0.02369
4534.47,0.02356
4511.33,0.02265
4488.18,0.02312
4465.04,0.02411
4441.89,0.02389
4418.75,0.02357
4395.6,0.02316
4372.46,0.02302
4349.31,0.02398
4326.17,0.02269
4303.02,0.02280
4279.88,0.02356
4256.73,0.02380
4233.59,0.02370
4210.44,0.02380
4187.3,0.02367
4164.15,0.02324
4141.01,0.02468
4117.86,0.02323
4094.72,0.02364
4071.57,0.02345
4048.43,0.02264
4025.28,0.02304
4002.14,0.02328
3978.99,0.02386
3955.85,0.02408
3932.7,0.02327
3909.56,0.02357
3886.41,0.02407
3863.27,0.02384
3840.12,0.02426
3816.98,0.02361
3793.83,0.02356
3770.69,0.02350
3747.54,0.02383
3724.4,0.02356
3701.25,0.02393
3678.11,0.02387
3654.97,0.02325
3631.82,0.02328
3608.68,0.02311
3585.53,0.02155
3562.39,0.02234
3539.24,0.02289
3516.1,0.02196
3492.95,0.02131
3469.81,0.02183
3446.66,0.02171
3423.52,0.02125
3400.37,0.02091
3377.23,0.02091
3354.08,0.02152
3330.94,0.02112
3307.79,0.02121
3284.65,0.02100
3261.5,0.02165
3238.36,0.02201
3215.21,0.02166
3192.07,0.02216
3168.92,0.02215
3145.78,0.02187
3122.63,0.02198
3099.49,0.02213
3076.34,0.02166
3053.2,0.02195
3030.05,0.02194
3006.91,0.02133
2983.76,0.02100
2960.62,0.02083
2937.47,0.02056
2914.33,0.02157
2891.18,0.02176
2868.04,0.02179
2844.89,0.02180
2821.75,0.02261
2798.6,0.02244
2775.46,0.02243
2752.31,0.02238
2729.17,0.02284
2706.02,0.02298
2682.88,0.02279
2659.73,0.02254
2636.59,0.02312
2613.44,0.02240
2590.3,0.02313
2567.15,0.02267
2544.01,0.02264
2520.87,0.02285
2497.72,0.02259
2474.58,0.02254
2451.43,0.02239
2428.29,0.02280
2405.14,0.02283
2382,0.02252
2358.85,0.02235
2335.71,0.02277
2312.56,0.02291
2289.42,0.02284
2266.27,0.02258
2243.13,0.02227
2219.98,0.02237
2196.84,0.02246
2173.69,0.02232
2150.55,0.02289
2127.4,0.02212
2104.26,0.02217
2081.11,0.02220
2057.97,0.02235
2034.82,0.02248
2011.68,0.02215
1988.53,0.02264
1965.39,0.02238
1942.24,0.02247
1919.1,0.02216
1895.95,0.02204
1872.81,0.02184
1849.66,0.02195
1826.52,0.02172
1803.37,0.02129
1780.23,0.02057
1757.08,0.01925
1733.94,0.02072
1710.79,0.02169
1687.65,0.02027
1664.5,0.01982
1641.36,0.02002
1618.21,0.02044
1595.07,0.01995
1571.92,0.01961
1548.78,0.01944
1525.63,0.01996
1502.49,0.02029
1479.34,0.01964
1456.2,0.01994
1433.05,0.02008
1409.91,0.01969
1386.77,0.01909
1363.62,0.01997
1340.48,0.01923
1317.33,0.01819
1294.19,0.01911
1271.04,0.02067
1247.9,0.02125
1224.75,0.02087
1201.61,0.01987
1178.46,0.01941
1155.32,0.01900
1132.17,0.01912
1109.03,0.01963
1085.88,0.01946
1062.74,0.02185
1039.59,0.02111
1016.45,0.02095
993.302,0.02259
970.157,0.02173
947.012,0.02128
923.867,0.02110
900.722,0.02064
877.577,0.01937
854.432,0.02008
831.288,0.02068
808.143,0.02077
784.998,0.02028
761.853,0.01992
738.708,0.01948
715.563,0.01891
692.418,0.01913
669.273,0.01799
646.128,0.01871
622.983,0.01742
599.839,0.01710