File: 01_Data/Nylon/FTIR/IS/Nylon_3.175_Trans_S_IS_221212_R1.dpt
7497.02,0.58692
7473.87,0.58613
7450.73,0.57973
7427.58,0.57809
7404.44,0.58168
7381.29,0.57641
7358.15,0.56781
7335,0.55147
7311.86,0.52689
7288.71,0.49481
7265.57,0.46747
7242.42,0.43527
7219.28,0.41518
7196.13,0.41811
7172.99,0.42036
7149.84,0.42364
7126.7,0.40783
7103.55,0.39960
7080.41,0.39929
7057.26,0.40081
7034.12,0.40186
7010.98,0.40153
6987.83,0.40255
6964.69,0.41159
6941.54,0.41434
6918.4,0.41974
6895.25,0.42440
6872.11,0.42892
6848.96,0.42438
6825.82,0.42652
6802.67,0.42345
6779.53,0.40887
6756.38,0.39543
6733.24,0.38837
6710.09,0.38021
6686.95,0.37002
6663.8,0.35390
6640.66,0.32383
6617.51,0.29308
6594.37,0.29439
6571.22,0.28752
6548.08,0.27007
6524.93,0.23578
6501.79,0.23184
6478.64,0.23998
6455.5,0.31120
6432.35,0.37502
6409.21,0.37869
6386.06,0.34562
6362.92,0.31834
6339.77,0.31751
6316.63,0.36059
6293.48,0.37860
6270.34,0.35644
6247.19,0.34268
6224.05,0.34315
6200.9,0.37965
6177.76,0.40921
6154.61,0.45743
6131.47,0.48697
6108.32,0.49647
6085.18,0.50227
6062.03,0.49589
6038.89,0.49588
6015.74,0.48543
5992.6,0.46897
5969.45,0.44803
5946.31,0.41086
5923.16,0.33733
5900.02,0.22921
5876.88,0.12172
5853.73,0.05858
5830.59,0.03380
5807.44,0.04716
5784.3,0.07245
5761.15,0.09068
5738.01,0.07202
5714.86,0.05573
5691.72,0.06312
5668.57,0.09341
5645.43,0.13260
5622.28,0.16628
5599.14,0.17879
5575.99,0.18952
5552.85,0.19880
5529.7,0.21208
5506.56,0.22235
5483.41,0.23323
5460.27,0.24394
5437.12,0.25429
5413.98,0.26005
5390.83,0.28552
5367.69,0.30534
5344.54,0.31222
5321.4,0.30364
5298.25,0.25661
5275.11,0.21196
5251.96,0.17994
5228.82,0.14495
5205.67,0.10980
5182.53,0.07910
5159.38,0.06046
5136.24,0.05195
5113.09,0.05609
5089.95,0.06609
5066.8,0.07879
5043.66,0.09243
5020.51,0.09699
4997.37,0.07746
4974.22,0.03356
4951.08,0.03121
4927.93,0.03053
4904.79,0.01324
4881.64,0.00370
4858.5,0.00398
4835.35,0.03681
4812.21,0.06930
4789.06,0.06296
4765.92,0.05933
4742.78,0.04367
4719.63,0.02748
4696.49,0.01332
4673.34,0.01111
4650.2,0.01016
4627.05,0.00588
4603.91,0.00210
4580.76,0.00075
4557.62,0.00178
4534.47,0.00199
4511.33,0.00466
4488.18,0.00705
4465.04,0.00659
4441.89,0.00320
4418.75,0.00164
4395.6,0.00083
4372.46,0.00070
4349.31,0.00045
4326.17,0.00046
4303.02,0.00056
4279.88,0.00041
4256.73,0.00026
4233.59,0.00062
4210.44,0.00013
4187.3,0.00042
4164.15,0.00014
4141.01,0.00047
4117.86,0.00057
4094.72,0.00068
4071.57,0.00031
4048.43,0.00027
4025.28,0.00089
4002.14,0.00045
3978.99,0.00038
3955.85,0.00061
3932.7,0.00085
3909.56,0.00163
3886.41,0.00221
3863.27,0.00367
3840.12,0.00249
3816.98,0.00306
3793.83,0.00464
3770.69,0.00516
3747.54,0.00449
3724.4,0.00340
3701.25,0.00121
3678.11,0.00053
3654.97,0.00051
3631.82,0.00049
3608.68,0.00030
3585.53,0.00020
3562.39,0.00006
3539.24,0.00023
3516.1,0.00023
3492.95,0.00041
3469.81,0.00057
3446.66,0.00028
3423.52,0.00023
3400.37,0.00032
3377.23,0.00038
3354.08,0.00021
3330.94,0.00054
3307.79,0.00112
3284.65,0.00125
3261.5,0.00078
3238.36,0.00030
3215.21,0.00034
3192.07,0.00003
3168.92,0.00034
3145.78,0.00078
3122.63,0.00038
3099.49,0.00047
3076.34,0.00022
3053.2,0.00036
3030.05,0.00040
3006.91,0.00018
2983.76,0.00042
2960.62,0.00022
2937.47,0.00037
2914.33,0.00059
2891.18,0.00044
2868.04,0.00025
2844.89,0.00038
2821.75,0.00010
2798.6,0.00030
2775.46,0.00021
2752.31,0.00038
2729.17,0.00023
2706.02,0.00040
2682.88,0.00032
2659.73,0.00009
2636.59,0.00025
2613.44,0.00025
2590.3,0.00027
2567.15,0.00019
2544.01,0.00031
2520.87,0.00044
2497.72,0.00023
2474.58,0.00017
2451.43,0.00033
2428.29,0.00029
2405.14,0.00023
2382,0.00023
2358.85,0.00013
2335.71,-0.00000
2312.56,0.00048
2289.42,0.00014
2266.27,0.00008
2243.13,0.00020
2219.98,0.00015
2196.84,-0.00007
2173.69,0.00025
2150.55,0.00007
2127.4,0.00024
2104.26,0.00041
2081.11,0.00018
2057.97,0.00034
2034.82,0.00014
2011.68,0.00017
1988.53,0.00030
1965.39,0.00015
1942.24,0.00043
1919.1,0.00018
1895.95,0.00016
1872.81,0.00014
1849.66,0.00004
1826.52,0.00007
1803.37,0.00012
1780.23,0.00014
1757.08,0.00034
1733.94,0.00030
1710.79,0.00029
1687.65,0.00026
1664.5,0.00020
1641.36,0.00060
1618.21,0.00041
1595.07,0.00016
1571.92,0.00042
1548.78,0.00032
1525.63,0.00025
1502.49,0.00021
1479.34,0.00016
1456.2,0.00023
1433.05,0.00018
1409.91,0.00008
1386.77,0.00014
1363.62,0.00035
1340.48,0.00012
1317.33,0.00037
1294.19,0.00059
1271.04,0.00026
1247.9,0.00033
1224.75,-0.00017
1201.61,0.00057
1178.46,0.00035
1155.32,0.00019
1132.17,0.00012
1109.03,0.00031
1085.88,0.00040
1062.74,0.00063
1039.59,0.00056
1016.45,0.00049
993.302,0.00068
970.157,0.00061
947.012,0.00030
923.867,0.00007
900.722,0.00042
877.577,0.00070
854.432,0.00051
831.288,0.00019
808.143,0.00059
784.998,0.00055
761.853,0.00049
738.708,0.00086
715.563,0.00074
692.418,0.00108
669.273,0.00148
646.128,0.00129
622.983,0.00205
599.839,0.00216