File: 01_Data/Nylon/FTIR/IS/Nylon_3.175_Trans_S_IS_221212_R2.dpt
7497.02,0.58173
7473.87,0.59193
7450.73,0.58609
7427.58,0.57648
7404.44,0.58348
7381.29,0.58028
7358.15,0.56735
7335,0.54815
7311.86,0.52443
7288.71,0.49549
7265.57,0.46763
7242.42,0.42618
7219.28,0.40792
7196.13,0.41664
7172.99,0.41994
7149.84,0.42179
7126.7,0.41133
7103.55,0.40592
7080.41,0.39539
7057.26,0.40338
7034.12,0.40132
7010.98,0.40699
6987.83,0.40492
6964.69,0.40675
6941.54,0.42215
6918.4,0.41900
6895.25,0.42176
6872.11,0.42219
6848.96,0.43257
6825.82,0.42874
6802.67,0.42819
6779.53,0.41347
6756.38,0.39767
6733.24,0.38938
6710.09,0.38172
6686.95,0.37377
6663.8,0.35587
6640.66,0.32365
6617.51,0.29376
6594.37,0.29497
6571.22,0.29043
6548.08,0.27416
6524.93,0.23934
6501.79,0.23168
6478.64,0.24309
6455.5,0.31523
6432.35,0.37456
6409.21,0.37727
6386.06,0.34385
6362.92,0.31628
6339.77,0.31697
6316.63,0.35919
6293.48,0.38061
6270.34,0.35633
6247.19,0.34083
6224.05,0.34598
6200.9,0.37832
6177.76,0.40948
6154.61,0.45727
6131.47,0.48861
6108.32,0.49977
6085.18,0.50275
6062.03,0.50185
6038.89,0.49428
6015.74,0.48976
5992.6,0.47445
5969.45,0.44996
5946.31,0.41236
5923.16,0.33883
5900.02,0.22836
5876.88,0.12025
5853.73,0.05849
5830.59,0.03485
5807.44,0.04794
5784.3,0.07382
5761.15,0.09061
5738.01,0.07352
5714.86,0.05165
5691.72,0.06236
5668.57,0.09293
5645.43,0.13245
5622.28,0.16590
5599.14,0.17940
5575.99,0.18947
5552.85,0.20248
5529.7,0.21244
5506.56,0.22348
5483.41,0.23464
5460.27,0.24455
5437.12,0.25323
5413.98,0.25956
5390.83,0.28576
5367.69,0.30504
5344.54,0.30836
5321.4,0.30422
5298.25,0.25724
5275.11,0.21307
5251.96,0.17952
5228.82,0.14463
5205.67,0.11035
5182.53,0.07829
5159.38,0.06130
5136.24,0.05235
5113.09,0.05549
5089.95,0.06644
5066.8,0.07965
5043.66,0.09189
5020.51,0.09526
4997.37,0.07763
4974.22,0.03401
4951.08,0.03215
4927.93,0.03072
4904.79,0.01416
4881.64,0.00236
4858.5,0.00425
4835.35,0.03702
4812.21,0.06931
4789.06,0.06223
4765.92,0.05972
4742.78,0.04539
4719.63,0.02696
4696.49,0.01230
4673.34,0.00994
4650.2,0.01016
4627.05,0.00642
4603.91,0.00270
4580.76,0.00070
4557.62,0.00196
4534.47,0.00211
4511.33,0.00442
4488.18,0.00822
4465.04,0.00642
4441.89,0.00304
4418.75,0.00090
4395.6,0.00034
4372.46,0.00057
4349.31,0.00023
4326.17,0.00093
4303.02,0.00009
4279.88,0.00021
4256.73,0.00048
4233.59,0.00039
4210.44,0.00038
4187.3,-0.00014
4164.15,0.00029
4141.01,0.00043
4117.86,0.00057
4094.72,0.00028
4071.57,0.00043
4048.43,0.00022
4025.28,0.00059
4002.14,0.00066
3978.99,0.00025
3955.85,0.00048
3932.7,0.00103
3909.56,0.00155
3886.41,0.00278
3863.27,0.00397
3840.12,0.00236
3816.98,0.00305
3793.83,0.00402
3770.69,0.00549
3747.54,0.00425
3724.4,0.00325
3701.25,0.00128
3678.11,0.00004
3654.97,0.00106
3631.82,0.00050
3608.68,0.00065
3585.53,0.00053
3562.39,0.00046
3539.24,0.00041
3516.1,0.00050
3492.95,0.00043
3469.81,0.00029
3446.66,0.00078
3423.52,-0.00002
3400.37,0.00049
3377.23,0.00032
3354.08,0.00120
3330.94,0.00065
3307.79,0.00063
3284.65,0.00052
3261.5,0.00024
3238.36,0.00113
3215.21,0.00078
3192.07,0.00083
3168.92,0.00090
3145.78,-0.00012
3122.63,0.00011
3099.49,0.00041
3076.34,0.00056
3053.2,0.00021
3030.05,0.00026
3006.91,0.00045
2983.76,0.00010
2960.62,0.00023
2937.47,0.00032
2914.33,0.00005
2891.18,0.00035
2868.04,0.00011
2844.89,0.00030
2821.75,-0.00002
2798.6,0.00018
2775.46,0.00007
2752.31,0.00022
2729.17,0.00003
2706.02,0.00014
2682.88,0.00047
2659.73,0.00015
2636.59,0.00048
2613.44,0.00035
2590.3,0.00050
2567.15,0.00040
2544.01,0.00025
2520.87,0.00023
2497.72,0.00018
2474.58,0.00022
2451.43,0.00030
2428.29,0.00027
2405.14,0.00011
2382,0.00013
2358.85,0.00008
2335.71,0.00013
2312.56,0.00026
2289.42,0.00003
2266.27,0.00009
2243.13,0.00017
2219.98,0.00022
2196.84,0.00021
2173.69,0.00019
2150.55,0.00008
2127.4,0.00008
2104.26,0.00036
2081.11,0.00018
2057.97,0.00024
2034.82,0.00034
2011.68,0.00011
1988.53,0.00016
1965.39,0.00026
1942.24,0.00028
1919.1,0.00023
1895.95,0.00022
1872.81,0.00026
1849.66,0.00015
1826.52,0.00013
1803.37,0.00017
1780.23,0.00005
1757.08,0.00021
1733.94,0.00023
1710.79,0.00027
1687.65,0.00002
1664.5,0.00024
1641.36,0.00054
1618.21,0.00028
1595.07,0.00013
1571.92,0.00019
1548.78,0.00019
1525.63,0.00030
1502.49,0.00024
1479.34,0.00006
1456.2,0.00015
1433.05,0.00011
1409.91,0.00024
1386.77,0.00009
1363.62,0.00022
1340.48,0.00018
1317.33,0.00017
1294.19,-0.00003
1271.04,0.00026
1247.9,0.00007
1224.75,0.00033
1201.61,0.00063
1178.46,0.00043
1155.32,0.00003
1132.17,0.00013
1109.03,0.00036
1085.88,0.00053
1062.74,0.00067
1039.59,0.00069
1016.45,0.00037
993.302,0.00067
970.157,0.00023
947.012,0.00030
923.867,0.00076
900.722,0.00033
877.577,0.00066
854.432,0.00100
831.288,0.00075
808.143,0.00102
784.998,0.00049
761.853,0.00035
738.708,0.00078
715.563,0.00058
692.418,0.00051
669.273,0.00074
646.128,0.00186
622.983,0.00025
599.839,0.00164