File: 01_Data/Nylon/FTIR/IS/Nylon_3.175_S_IS_221212_R5.dpt
7497.02,0.13272
7473.87,0.13450
7450.73,0.13018
7427.58,0.11602
7404.44,0.12605
7381.29,0.12424
7358.15,0.11977
7335,0.10191
7311.86,0.10348
7288.71,0.10181
7265.57,0.09611
7242.42,0.08539
7219.28,0.08372
7196.13,0.08205
7172.99,0.07617
7149.84,0.08250
7126.7,0.07715
7103.55,0.07929
7080.41,0.08362
7057.26,0.07833
7034.12,0.08748
7010.98,0.08095
6987.83,0.08250
6964.69,0.07951
6941.54,0.08391
6918.4,0.07923
6895.25,0.09169
6872.11,0.08308
6848.96,0.08384
6825.82,0.09155
6802.67,0.07772
6779.53,0.07785
6756.38,0.07678
6733.24,0.07649
6710.09,0.07317
6686.95,0.07403
6663.8,0.06586
6640.66,0.06399
6617.51,0.06769
6594.37,0.06805
6571.22,0.06381
6548.08,0.06515
6524.93,0.05893
6501.79,0.06042
6478.64,0.06371
6455.5,0.06662
6432.35,0.07080
6409.21,0.07476
6386.06,0.07386
6362.92,0.06969
6339.77,0.06942
6316.63,0.07026
6293.48,0.07566
6270.34,0.06972
6247.19,0.07025
6224.05,0.06951
6200.9,0.07225
6177.76,0.07379
6154.61,0.07416
6131.47,0.08331
6108.32,0.08543
6085.18,0.08801
6062.03,0.08807
6038.89,0.08502
6015.74,0.08347
5992.6,0.08356
5969.45,0.07842
5946.31,0.07221
5923.16,0.06834
5900.02,0.06204
5876.88,0.05694
5853.73,0.05450
5830.59,0.05544
5807.44,0.05309
5784.3,0.05706
5761.15,0.05414
5738.01,0.05837
5714.86,0.05546
5691.72,0.05396
5668.57,0.05866
5645.43,0.05762
5622.28,0.05871
5599.14,0.05884
5575.99,0.06082
5552.85,0.06113
5529.7,0.06174
5506.56,0.06315
5483.41,0.06175
5460.27,0.06353
5437.12,0.06326
5413.98,0.06259
5390.83,0.06442
5367.69,0.06575
5344.54,0.06619
5321.4,0.06605
5298.25,0.06270
5275.11,0.06176
5251.96,0.05991
5228.82,0.05863
5205.67,0.05901
5182.53,0.05603
5159.38,0.05793
5136.24,0.05762
5113.09,0.05740
5089.95,0.05682
5066.8,0.05751
5043.66,0.05812
5020.51,0.05882
4997.37,0.05828
4974.22,0.05596
4951.08,0.05690
4927.93,0.05639
4904.79,0.05624
4881.64,0.05573
4858.5,0.05793
4835.35,0.05712
4812.21,0.05837
4789.06,0.05787
4765.92,0.05746
4742.78,0.05738
4719.63,0.05782
4696.49,0.05770
4673.34,0.05772
4650.2,0.05704
4627.05,0.05820
4603.91,0.05676
4580.76,0.05760
4557.62,0.05779
4534.47,0.05804
4511.33,0.05840
4488.18,0.05790
4465.04,0.05788
4441.89,0.05804
4418.75,0.05833
4395.6,0.05802
4372.46,0.05803
4349.31,0.05790
4326.17,0.05863
4303.02,0.05841
4279.88,0.05846
4256.73,0.05850
4233.59,0.05846
4210.44,0.05838
4187.3,0.05878
4164.15,0.05970
4141.01,0.05823
4117.86,0.05816
4094.72,0.05787
4071.57,0.05813
4048.43,0.05890
4025.28,0.05823
4002.14,0.05804
3978.99,0.05872
3955.85,0.05868
3932.7,0.05895
3909.56,0.05849
3886.41,0.05864
3863.27,0.05866
3840.12,0.05921
3816.98,0.05849
3793.83,0.05810
3770.69,0.05866
3747.54,0.05819
3724.4,0.05769
3701.25,0.05853
3678.11,0.05837
3654.97,0.05780
3631.82,0.05738
3608.68,0.05685
3585.53,0.05690
3562.39,0.05620
3539.24,0.05551
3516.1,0.05585
3492.95,0.05578
3469.81,0.05502
3446.66,0.05476
3423.52,0.05396
3400.37,0.05226
3377.23,0.05125
3354.08,0.04862
3330.94,0.04479
3307.79,0.05392
3284.65,0.06976
3261.5,0.06743
3238.36,0.06507
3215.21,0.06305
3192.07,0.06263
3168.92,0.06160
3145.78,0.06201
3122.63,0.06054
3099.49,0.05983
3076.34,0.06008
3053.2,0.06102
3030.05,0.06005
3006.91,0.05918
2983.76,0.05678
2960.62,0.05528
2937.47,0.05739
2914.33,0.06538
2891.18,0.06309
2868.04,0.06289
2844.89,0.06844
2821.75,0.06510
2798.6,0.06370
2775.46,0.06366
2752.31,0.06305
2729.17,0.06270
2706.02,0.06235
2682.88,0.06243
2659.73,0.06209
2636.59,0.06172
2613.44,0.06163
2590.3,0.06204
2567.15,0.06169
2544.01,0.06152
2520.87,0.06094
2497.72,0.06124
2474.58,0.06122
2451.43,0.06059
2428.29,0.06081
2405.14,0.06064
2382,0.06046
2358.85,0.06059
2335.71,0.06063
2312.56,0.06060
2289.42,0.06063
2266.27,0.06018
2243.13,0.06010
2219.98,0.05965
2196.84,0.05960
2173.69,0.05951
2150.55,0.05924
2127.4,0.05922
2104.26,0.05900
2081.11,0.05900
2057.97,0.05879
2034.82,0.05873
2011.68,0.05807
1988.53,0.05790
1965.39,0.05722
1942.24,0.05717
1919.1,0.05665
1895.95,0.05580
1872.81,0.05549
1849.66,0.05469
1826.52,0.05400
1803.37,0.05259
1780.23,0.05112
1757.08,0.05008
1733.94,0.04809
1710.79,0.04375
1687.65,0.03715
1664.5,0.03488
1641.36,0.11406
1618.21,0.09694
1595.07,0.07017
1571.92,0.05137
1548.78,0.05893
1525.63,0.09696
1502.49,0.07795
1479.34,0.06841
1456.2,0.07436
1433.05,0.07032
1409.91,0.07576
1386.77,0.06853
1363.62,0.07207
1340.48,0.07040
1317.33,0.06764
1294.19,0.06496
1271.04,0.07072
1247.9,0.07321
1224.75,0.07077
1201.61,0.06942
1178.46,0.07466
1155.32,0.07241
1132.17,0.07257
1109.03,0.07043
1085.88,0.06908
1062.74,0.06908
1039.59,0.06846
1016.45,0.06850
993.302,0.06777
970.157,0.06625
947.012,0.06435
923.867,0.06823
900.722,0.06638
877.577,0.06486
854.432,0.06367
831.288,0.06241
808.143,0.06211
784.998,0.06072
761.853,0.05779
738.708,0.05370
715.563,0.05583
692.418,0.05951
669.273,0.06942
646.128,0.06772
622.983,0.06460
599.839,0.06065