File: 01_Data/Nylon/FTIR/IS/Nylon_2.362_Trans_S_IS_221213_R2.dpt
7496.63,0.62393
7473.48,0.62839
7450.34,0.61318
7427.2,0.61207
7404.05,0.61495
7380.91,0.60909
7357.77,0.60039
7334.62,0.59147
7311.48,0.56561
7288.33,0.54292
7265.19,0.53330
7242.05,0.49514
7218.9,0.48216
7195.76,0.47755
7172.62,0.48410
7149.47,0.49727
7126.33,0.48254
7103.18,0.47061
7080.04,0.47337
7056.9,0.47181
7033.75,0.47022
7010.61,0.48008
6987.47,0.47738
6964.32,0.48680
6941.18,0.48819
6918.04,0.49542
6894.89,0.49840
6871.75,0.50156
6848.6,0.49995
6825.46,0.50556
6802.32,0.50037
6779.17,0.48498
6756.03,0.47134
6732.89,0.46869
6709.74,0.46519
6686.6,0.45387
6663.45,0.43676
6640.31,0.41415
6617.17,0.38131
6594.02,0.37959
6570.88,0.37604
6547.74,0.35987
6524.59,0.33158
6501.45,0.32584
6478.3,0.32869
6455.16,0.39974
6432.02,0.45172
6408.87,0.45189
6385.73,0.42682
6362.59,0.40009
6339.44,0.40578
6316.3,0.43913
6293.16,0.45680
6270.01,0.43712
6246.87,0.42316
6223.72,0.42465
6200.58,0.45297
6177.44,0.48258
6154.29,0.51939
6131.15,0.54424
6108.01,0.55493
6084.86,0.55856
6061.72,0.55302
6038.57,0.55144
6015.43,0.54578
5992.29,0.53273
5969.14,0.51510
5946,0.48487
5922.86,0.42218
5899.71,0.31576
5876.57,0.20399
5853.43,0.12289
5830.28,0.08260
5807.14,0.10471
5783.99,0.14169
5760.85,0.16543
5737.71,0.14288
5714.56,0.11635
5691.42,0.12879
5668.28,0.17070
5645.13,0.21832
5621.99,0.25588
5598.84,0.26977
5575.7,0.28004
5552.56,0.29130
5529.41,0.30252
5506.27,0.31392
5483.13,0.32763
5459.98,0.33569
5436.84,0.34665
5413.7,0.35077
5390.55,0.37695
5367.41,0.39619
5344.26,0.39980
5321.12,0.40024
5297.98,0.36110
5274.83,0.32200
5251.69,0.29289
5228.55,0.25809
5205.4,0.21470
5182.26,0.17666
5159.11,0.14824
5135.97,0.13374
5112.83,0.13718
5089.68,0.15319
5066.54,0.17161
5043.4,0.18864
5020.25,0.19257
4997.11,0.16273
4973.97,0.08986
4950.82,0.08509
4927.68,0.08189
4904.53,0.04536
4881.39,0.01456
4858.25,0.02020
4835.1,0.09084
4811.96,0.14346
4788.82,0.13364
4765.67,0.12659
4742.53,0.10441
4719.38,0.07345
4696.24,0.04378
4673.1,0.03893
4649.95,0.03734
4626.81,0.02501
4603.67,0.01278
4580.52,0.00754
4557.38,0.01112
4534.23,0.01377
4511.09,0.02190
4487.95,0.03012
4464.8,0.02671
4441.66,0.01631
4418.52,0.00722
4395.37,0.00140
4372.23,0.00069
4349.09,0.00070
4325.94,0.00044
4302.8,0.00034
4279.65,0.00064
4256.51,0.00038
4233.37,0.00050
4210.22,0.00027
4187.08,0.00043
4163.94,0.00042
4140.79,0.00090
4117.65,0.00122
4094.5,0.00098
4071.36,0.00073
4048.22,0.00024
4025.07,0.00049
4001.93,0.00055
3978.79,0.00065
3955.64,0.00356
3932.5,0.00684
3909.36,0.01116
3886.21,0.01550
3863.07,0.02157
3839.92,0.01332
3816.78,0.01698
3793.64,0.02159
3770.49,0.02669
3747.35,0.02240
3724.21,0.01933
3701.06,0.01136
3677.92,0.00078
3654.77,0.00024
3631.63,0.00033
3608.49,0.00076
3585.34,0.00076
3562.2,0.00075
3539.06,0.00026
3515.91,-0.00007
3492.77,0.00008
3469.63,0.00018
3446.48,0.00040
3423.34,0.00064
3400.19,0.00025
3377.05,0.00048
3353.91,0.00058
3330.76,0.00032
3307.62,0.00072
3284.48,0.00045
3261.33,0.00017
3238.19,0.00087
3215.04,0.00054
3191.9,0.00019
3168.76,0.00052
3145.61,0.00050
3122.47,0.00028
3099.33,0.00028
3076.18,0.00027
3053.04,0.00022
3029.89,0.00043
3006.75,0.00023
2983.61,0.00047
2960.46,0.00014
2937.32,0.00058
2914.18,0.00024
2891.03,0.00041
2867.89,0.00019
2844.75,0.00037
2821.6,0.00027
2798.46,0.00013
2775.31,0.00037
2752.17,0.00011
2729.03,0.00005
2705.88,0.00028
2682.74,0.00020
2659.6,0.00020
2636.45,0.00044
2613.31,0.00034
2590.16,0.00022
2567.02,0.00036
2543.88,0.00025
2520.73,0.00007
2497.59,0.00031
2474.45,0.00033
2451.3,0.00048
2428.16,0.00039
2405.02,0.00022
2381.87,0.00050
2358.73,0.00045
2335.58,0.00035
2312.44,0.00040
2289.3,0.00045
2266.15,0.00062
2243.01,0.00053
2219.87,0.00023
2196.72,0.00023
2173.58,0.00031
2150.43,0.00028
2127.29,0.00031
2104.15,0.00030
2081,0.00051
2057.86,0.00033
2034.72,0.00055
2011.57,0.00117
1988.43,0.00144
1965.29,0.00137
1942.14,0.00222
1919,0.00239
1895.85,0.00109
1872.71,0.00074
1849.57,0.00083
1826.42,0.00020
1803.28,0.00022
1780.14,0.00029
1756.99,-0.00002
1733.85,0.00049
1710.7,0.00018
1687.56,0.00028
1664.42,0.00038
1641.27,0.00037
1618.13,0.00010
1594.99,0.00032
1571.84,0.00029
1548.7,0.00037
1525.56,0.00015
1502.41,0.00019
1479.27,0.00021
1456.12,0.00031
1432.98,0.00039
1409.84,0.00029
1386.69,0.00015
1363.55,0.00037
1340.41,0.00021
1317.26,0.00004
1294.12,0.00024
1270.97,0.00026
1247.83,0.00025
1224.69,0.00036
1201.54,0.00000
1178.4,0.00026
1155.26,0.00025
1132.11,0.00045
1108.97,0.00034
1085.82,0.00049
1062.68,0.00012
1039.54,0.00029
1016.39,0.00013
993.25,0.00050
970.106,0.00015
946.963,0.00023
923.819,0.00019
900.675,0.00072
877.532,-0.00018
854.388,0.00072
831.244,0.00096
808.101,0.00063
784.957,0.00080
761.813,0.00066
738.669,0.00026
715.526,0.00040
692.382,0.00038
669.238,0.00135
646.095,0.00171
622.951,0.00118
599.807,0.00203