File: 01_Data/Nylon/FTIR/IS/Nylon_3.175_S_IS_221212_R8.dpt
7497.02,0.12120
7473.87,0.11464
7450.73,0.11838
7427.58,0.12344
7404.44,0.11862
7381.29,0.11649
7358.15,0.12178
7335,0.11411
7311.86,0.10207
7288.71,0.09203
7265.57,0.08777
7242.42,0.08402
7219.28,0.08494
7196.13,0.08424
7172.99,0.08362
7149.84,0.08134
7126.7,0.08348
7103.55,0.08069
7080.41,0.08083
7057.26,0.07185
7034.12,0.07834
7010.98,0.08282
6987.83,0.08073
6964.69,0.08032
6941.54,0.08301
6918.4,0.08362
6895.25,0.08158
6872.11,0.08369
6848.96,0.07976
6825.82,0.07884
6802.67,0.07982
6779.53,0.07953
6756.38,0.07437
6733.24,0.07323
6710.09,0.07597
6686.95,0.07429
6663.8,0.07377
6640.66,0.07231
6617.51,0.06251
6594.37,0.06664
6571.22,0.06802
6548.08,0.06128
6524.93,0.06542
6501.79,0.06553
6478.64,0.06371
6455.5,0.06466
6432.35,0.06984
6409.21,0.07137
6386.06,0.07054
6362.92,0.06477
6339.77,0.06580
6316.63,0.07054
6293.48,0.07039
6270.34,0.07213
6247.19,0.06750
6224.05,0.06802
6200.9,0.07184
6177.76,0.07671
6154.61,0.08160
6131.47,0.08741
6108.32,0.08508
6085.18,0.08658
6062.03,0.08457
6038.89,0.08527
6015.74,0.08366
5992.6,0.07937
5969.45,0.07962
5946.31,0.07537
5923.16,0.06675
5900.02,0.06262
5876.88,0.05655
5853.73,0.05309
5830.59,0.05401
5807.44,0.05354
5784.3,0.05492
5761.15,0.05682
5738.01,0.05776
5714.86,0.05603
5691.72,0.05607
5668.57,0.05755
5645.43,0.05695
5622.28,0.05897
5599.14,0.05919
5575.99,0.05847
5552.85,0.06029
5529.7,0.06155
5506.56,0.06286
5483.41,0.06215
5460.27,0.06131
5437.12,0.06440
5413.98,0.06134
5390.83,0.06509
5367.69,0.06623
5344.54,0.06644
5321.4,0.06574
5298.25,0.06310
5275.11,0.06202
5251.96,0.05878
5228.82,0.05796
5205.67,0.05713
5182.53,0.05734
5159.38,0.05720
5136.24,0.05622
5113.09,0.05681
5089.95,0.05795
5066.8,0.05786
5043.66,0.05816
5020.51,0.05776
4997.37,0.05785
4974.22,0.05705
4951.08,0.05603
4927.93,0.05690
4904.79,0.05664
4881.64,0.05702
4858.5,0.05710
4835.35,0.05706
4812.21,0.05800
4789.06,0.05741
4765.92,0.05734
4742.78,0.05825
4719.63,0.05800
4696.49,0.05743
4673.34,0.05823
4650.2,0.05802
4627.05,0.05630
4603.91,0.05729
4580.76,0.05786
4557.62,0.05817
4534.47,0.05740
4511.33,0.05694
4488.18,0.05824
4465.04,0.05819
4441.89,0.05771
4418.75,0.05713
4395.6,0.05704
4372.46,0.05745
4349.31,0.05819
4326.17,0.05834
4303.02,0.05799
4279.88,0.05778
4256.73,0.05782
4233.59,0.05794
4210.44,0.05832
4187.3,0.05758
4164.15,0.05756
4141.01,0.05737
4117.86,0.05798
4094.72,0.05822
4071.57,0.05791
4048.43,0.05780
4025.28,0.05848
4002.14,0.05806
3978.99,0.05855
3955.85,0.05843
3932.7,0.05806
3909.56,0.05842
3886.41,0.05861
3863.27,0.05842
3840.12,0.05853
3816.98,0.05776
3793.83,0.05811
3770.69,0.05777
3747.54,0.05860
3724.4,0.05818
3701.25,0.05727
3678.11,0.05752
3654.97,0.05792
3631.82,0.05745
3608.68,0.05666
3585.53,0.05680
3562.39,0.05614
3539.24,0.05667
3516.1,0.05593
3492.95,0.05525
3469.81,0.05559
3446.66,0.05428
3423.52,0.05422
3400.37,0.05236
3377.23,0.05076
3354.08,0.04859
3330.94,0.04606
3307.79,0.05483
3284.65,0.06964
3261.5,0.06645
3238.36,0.06458
3215.21,0.06197
3192.07,0.06247
3168.92,0.06153
3145.78,0.06121
3122.63,0.05971
3099.49,0.05866
3076.34,0.05940
3053.2,0.06036
3030.05,0.05993
3006.91,0.05892
2983.76,0.05649
2960.62,0.05493
2937.47,0.05676
2914.33,0.06566
2891.18,0.06274
2868.04,0.06240
2844.89,0.06800
2821.75,0.06425
2798.6,0.06297
2775.46,0.06275
2752.31,0.06261
2729.17,0.06252
2706.02,0.06204
2682.88,0.06212
2659.73,0.06174
2636.59,0.06147
2613.44,0.06132
2590.3,0.06152
2567.15,0.06123
2544.01,0.06115
2520.87,0.06098
2497.72,0.06059
2474.58,0.06073
2451.43,0.06062
2428.29,0.06052
2405.14,0.06054
2382,0.06065
2358.85,0.06013
2335.71,0.06046
2312.56,0.05997
2289.42,0.06014
2266.27,0.05987
2243.13,0.05985
2219.98,0.05932
2196.84,0.05911
2173.69,0.05942
2150.55,0.05909
2127.4,0.05921
2104.26,0.05849
2081.11,0.05889
2057.97,0.05822
2034.82,0.05809
2011.68,0.05785
1988.53,0.05756
1965.39,0.05709
1942.24,0.05690
1919.1,0.05637
1895.95,0.05581
1872.81,0.05511
1849.66,0.05474
1826.52,0.05367
1803.37,0.05257
1780.23,0.05092
1757.08,0.04920
1733.94,0.04816
1710.79,0.04345
1687.65,0.03687
1664.5,0.03477
1641.36,0.11336
1618.21,0.09641
1595.07,0.07015
1571.92,0.05116
1548.78,0.05831
1525.63,0.09615
1502.49,0.07728
1479.34,0.06791
1456.2,0.07413
1433.05,0.07004
1409.91,0.07536
1386.77,0.06850
1363.62,0.07194
1340.48,0.07005
1317.33,0.06716
1294.19,0.06505
1271.04,0.07045
1247.9,0.07254
1224.75,0.07070
1201.61,0.06915
1178.46,0.07396
1155.32,0.07153
1132.17,0.07187
1109.03,0.06968
1085.88,0.06916
1062.74,0.06776
1039.59,0.06786
1016.45,0.06854
993.302,0.06729
970.157,0.06579
947.012,0.06436
923.867,0.06711
900.722,0.06559
877.577,0.06515
854.432,0.06381
831.288,0.06353
808.143,0.06169
784.998,0.05964
761.853,0.05777
738.708,0.05419
715.563,0.05569
692.418,0.05828
669.273,0.06945
646.128,0.06778
622.983,0.06570
599.839,0.06089