File: 01_Data/Nylon/FTIR/IS/Nylon_2.362_Trans_S_IS_221213_R3.dpt
7496.63,0.62623
7473.48,0.61255
7450.34,0.62101
7427.2,0.62103
7404.05,0.61418
7380.91,0.61932
7357.77,0.60388
7334.62,0.59107
7311.48,0.56647
7288.33,0.54733
7265.19,0.52768
7242.05,0.49282
7218.9,0.48694
7195.76,0.48423
7172.62,0.48842
7149.47,0.48732
7126.33,0.47357
7103.18,0.47267
7080.04,0.47241
7056.9,0.47574
7033.75,0.47984
7010.61,0.47303
6987.47,0.47286
6964.32,0.48783
6941.18,0.48690
6918.04,0.49280
6894.89,0.50604
6871.75,0.50342
6848.6,0.50348
6825.46,0.50444
6802.32,0.50201
6779.17,0.49563
6756.03,0.46982
6732.89,0.47070
6709.74,0.46283
6686.6,0.45228
6663.45,0.44184
6640.31,0.41088
6617.17,0.38301
6594.02,0.38282
6570.88,0.37982
6547.74,0.36389
6524.59,0.33173
6501.45,0.32704
6478.3,0.32891
6455.16,0.40183
6432.02,0.45395
6408.87,0.45461
6385.73,0.42846
6362.59,0.40450
6339.44,0.40790
6316.3,0.43831
6293.16,0.45522
6270.01,0.43670
6246.87,0.42028
6223.72,0.42371
6200.58,0.45656
6177.44,0.48203
6154.29,0.52146
6131.15,0.54451
6108.01,0.55539
6084.86,0.55805
6061.72,0.55690
6038.57,0.55217
6015.43,0.54792
5992.29,0.53724
5969.14,0.51701
5946,0.48729
5922.86,0.42165
5899.71,0.31969
5876.57,0.20557
5853.43,0.12375
5830.28,0.08279
5807.14,0.10595
5783.99,0.14220
5760.85,0.16756
5737.71,0.14517
5714.56,0.11615
5691.42,0.12688
5668.28,0.17077
5645.13,0.21822
5621.99,0.25560
5598.84,0.26968
5575.7,0.28153
5552.56,0.29377
5529.41,0.30404
5506.27,0.31611
5483.13,0.32896
5459.98,0.33823
5436.84,0.34526
5413.7,0.35040
5390.55,0.37704
5367.41,0.39816
5344.26,0.40140
5321.12,0.40034
5297.98,0.36239
5274.83,0.32427
5251.69,0.29287
5228.55,0.25609
5205.4,0.21476
5182.26,0.17536
5159.11,0.14869
5135.97,0.13421
5112.83,0.13755
5089.68,0.15456
5066.54,0.17261
5043.4,0.18883
5020.25,0.19315
4997.11,0.16422
4973.97,0.08994
4950.82,0.08565
4927.68,0.08264
4904.53,0.04591
4881.39,0.01392
4858.25,0.02008
4835.1,0.09177
4811.96,0.14371
4788.82,0.13450
4765.67,0.12603
4742.53,0.10350
4719.38,0.07236
4696.24,0.04342
4673.1,0.03902
4649.95,0.03622
4626.81,0.02588
4603.67,0.01382
4580.52,0.00698
4557.38,0.01159
4534.23,0.01331
4511.09,0.02209
4487.95,0.02909
4464.8,0.02709
4441.66,0.01534
4418.52,0.00648
4395.37,0.00072
4372.23,0.00076
4349.09,0.00025
4325.94,0.00108
4302.8,0.00083
4279.65,0.00075
4256.51,0.00056
4233.37,0.00044
4210.22,0.00013
4187.08,0.00077
4163.94,0.00045
4140.79,0.00052
4117.65,0.00075
4094.5,0.00093
4071.36,0.00114
4048.22,0.00056
4025.07,0.00075
4001.93,0.00057
3978.79,0.00112
3955.64,0.00401
3932.5,0.00652
3909.36,0.01156
3886.21,0.01584
3863.07,0.02165
3839.92,0.01368
3816.78,0.01678
3793.64,0.02196
3770.49,0.02674
3747.35,0.02282
3724.21,0.01923
3701.06,0.01185
3677.92,0.00026
3654.77,0.00060
3631.63,0.00035
3608.49,0.00030
3585.34,0.00071
3562.2,0.00031
3539.06,0.00058
3515.91,0.00053
3492.77,0.00033
3469.63,0.00039
3446.48,0.00048
3423.34,0.00036
3400.19,0.00072
3377.05,0.00062
3353.91,0.00042
3330.76,0.00049
3307.62,0.00021
3284.48,0.00026
3261.33,0.00055
3238.19,0.00040
3215.04,0.00020
3191.9,0.00030
3168.76,0.00060
3145.61,0.00043
3122.47,0.00035
3099.33,0.00049
3076.18,0.00010
3053.04,0.00032
3029.89,0.00053
3006.75,0.00031
2983.61,0.00015
2960.46,0.00004
2937.32,0.00051
2914.18,0.00027
2891.03,0.00031
2867.89,0.00040
2844.75,0.00034
2821.6,0.00013
2798.46,0.00030
2775.31,0.00025
2752.17,0.00000
2729.03,0.00013
2705.88,0.00028
2682.74,0.00017
2659.6,0.00029
2636.45,0.00034
2613.31,0.00019
2590.16,0.00043
2567.02,0.00017
2543.88,0.00021
2520.73,0.00027
2497.59,0.00030
2474.45,0.00025
2451.3,0.00040
2428.16,0.00031
2405.02,0.00035
2381.87,0.00031
2358.73,0.00066
2335.58,0.00032
2312.44,0.00028
2289.3,0.00079
2266.15,0.00050
2243.01,0.00052
2219.87,0.00033
2196.72,0.00032
2173.58,0.00002
2150.43,0.00015
2127.29,0.00012
2104.15,0.00033
2081,0.00040
2057.86,0.00020
2034.72,0.00038
2011.57,0.00105
1988.43,0.00143
1965.29,0.00147
1942.14,0.00247
1919,0.00178
1895.85,0.00097
1872.71,0.00038
1849.57,0.00068
1826.42,0.00024
1803.28,0.00029
1780.14,0.00015
1756.99,0.00010
1733.85,0.00028
1710.7,0.00024
1687.56,-0.00008
1664.42,0.00026
1641.27,0.00041
1618.13,0.00030
1594.99,0.00030
1571.84,0.00047
1548.7,0.00040
1525.56,0.00027
1502.41,0.00006
1479.27,0.00037
1456.12,0.00017
1432.98,0.00042
1409.84,0.00043
1386.69,0.00027
1363.55,0.00015
1340.41,-0.00007
1317.26,0.00026
1294.12,0.00030
1270.97,0.00041
1247.83,0.00020
1224.69,-0.00002
1201.54,0.00036
1178.4,0.00065
1155.26,0.00037
1132.11,0.00018
1108.97,0.00046
1085.82,0.00038
1062.68,0.00031
1039.54,0.00058
1016.39,0.00033
993.25,0.00076
970.106,0.00046
946.963,0.00087
923.819,0.00020
900.675,0.00010
877.532,0.00019
854.388,0.00023
831.244,0.00023
808.101,0.00060
784.957,0.00034
761.813,0.00035
738.669,0.00081
715.526,0.00041
692.382,0.00111
669.238,0.00096
646.095,0.00116
622.951,0.00169
599.807,0.00155