File: 01_Data/Nylon/FTIR/IS/Nylon_1.575_Trans_T_IS_221213_R1.dpt
7496.63,0.03282
7473.48,0.02569
7450.34,0.01177
7427.2,0.00649
7404.05,0.00520
7380.91,0.01809
7357.77,0.02090
7334.62,0.02172
7311.48,0.01460
7288.33,0.00598
7265.19,0.00868
7242.05,0.01464
7218.9,0.00910
7195.76,0.01364
7172.62,0.00742
7149.47,0.00493
7126.33,0.01133
7103.18,0.01886
7080.04,0.01135
7056.9,0.00946
7033.75,0.01159
7010.61,0.02183
6987.47,0.01119
6964.32,-0.00083
6941.18,0.01381
6918.04,0.00551
6894.89,0.00638
6871.75,0.01143
6848.6,0.01315
6825.46,0.01055
6802.32,0.01478
6779.17,0.00650
6756.03,0.00173
6732.89,0.00848
6709.74,0.00739
6686.6,0.01154
6663.45,0.00618
6640.31,0.01117
6617.17,0.01392
6594.02,0.00617
6570.88,0.00606
6547.74,0.01277
6524.59,-0.00057
6501.45,0.00562
6478.3,0.00374
6455.16,0.00925
6432.02,0.00206
6408.87,0.00708
6385.73,0.00816
6362.59,0.00535
6339.44,0.00372
6316.3,0.00518
6293.16,0.00889
6270.01,0.00527
6246.87,0.00880
6223.72,0.00542
6200.58,0.00841
6177.44,0.00171
6154.29,0.00112
6131.15,0.00540
6108.01,0.00465
6084.86,0.00331
6061.72,0.00887
6038.57,0.00819
6015.43,0.00092
5992.29,0.00681
5969.14,0.00573
5946,0.00387
5922.86,0.00448
5899.71,0.00501
5876.57,0.00701
5853.43,0.00879
5830.28,0.00734
5807.14,0.00580
5783.99,0.00531
5760.85,0.00474
5737.71,0.00515
5714.56,0.00348
5691.42,0.00483
5668.28,0.00274
5645.13,0.00235
5621.99,0.00510
5598.84,0.00333
5575.7,0.00543
5552.56,0.00418
5529.41,0.00493
5506.27,0.00384
5483.13,0.00335
5459.98,0.00039
5436.84,0.00685
5413.7,0.00201
5390.55,0.00015
5367.41,0.00188
5344.26,0.00511
5321.12,0.00020
5297.98,0.00415
5274.83,0.00298
5251.69,0.00446
5228.55,0.00544
5205.4,0.00076
5182.26,0.00240
5159.11,0.00108
5135.97,0.00110
5112.83,0.00142
5089.68,0.00295
5066.54,0.00240
5043.4,0.00337
5020.25,0.00193
4997.11,0.00160
4973.97,0.00207
4950.82,0.00328
4927.68,0.00305
4904.53,0.00203
4881.39,0.00149
4858.25,0.00158
4835.1,0.00231
4811.96,0.00247
4788.82,-0.00053
4765.67,0.00332
4742.53,0.00159
4719.38,-0.00060
4696.24,0.00299
4673.1,0.00167
4649.95,0.00206
4626.81,0.00003
4603.67,0.00153
4580.52,0.00182
4557.38,0.00146
4534.23,0.00201
4511.09,0.00158
4487.95,0.00196
4464.8,0.00071
4441.66,0.00089
4418.52,0.00238
4395.37,0.00223
4372.23,0.00117
4349.09,0.00145
4325.94,0.00272
4302.8,0.00180
4279.65,0.00157
4256.51,0.00049
4233.37,0.00052
4210.22,0.00109
4187.08,0.00066
4163.94,0.00087
4140.79,0.00059
4117.65,0.00218
4094.5,0.00135
4071.36,0.00118
4048.22,0.00144
4025.07,0.00132
4001.93,0.00150
3978.79,0.00057
3955.64,0.00155
3932.5,0.00003
3909.36,0.00146
3886.21,0.00059
3863.07,0.00110
3839.92,0.00175
3816.78,0.00122
3793.64,0.00130
3770.49,0.00205
3747.35,0.00247
3724.21,0.00179
3701.06,0.00039
3677.92,0.00215
3654.77,0.00191
3631.63,0.00068
3608.49,0.00057
3585.34,0.00187
3562.2,0.00092
3539.06,0.00247
3515.91,0.00056
3492.77,0.00113
3469.63,0.00119
3446.48,0.00033
3423.34,0.00113
3400.19,0.00092
3377.05,0.00122
3353.91,0.00141
3330.76,0.00088
3307.62,0.00136
3284.48,0.00077
3261.33,0.00077
3238.19,0.00126
3215.04,0.00207
3191.9,0.00087
3168.76,0.00160
3145.61,0.00082
3122.47,0.00107
3099.33,0.00175
3076.18,0.00099
3053.04,0.00097
3029.89,0.00190
3006.75,0.00134
2983.61,-0.00000
2960.46,0.00066
2937.32,0.00061
2914.18,0.00129
2891.03,0.00044
2867.89,0.00041
2844.75,0.00122
2821.6,0.00044
2798.46,0.00051
2775.31,0.00093
2752.17,0.00117
2729.03,0.00067
2705.88,0.00016
2682.74,0.00058
2659.6,0.00085
2636.45,0.00099
2613.31,0.00086
2590.16,0.00033
2567.02,0.00096
2543.88,0.00100
2520.73,0.00057
2497.59,0.00080
2474.45,0.00059
2451.3,0.00040
2428.16,0.00029
2405.02,0.00005
2381.87,0.00056
2358.73,0.00092
2335.58,0.00023
2312.44,0.00058
2289.3,0.00091
2266.15,0.00061
2243.01,0.00049
2219.87,0.00028
2196.72,0.00076
2173.58,0.00093
2150.43,0.00010
2127.29,0.00056
2104.15,0.00063
2081,0.00007
2057.86,0.00039
2034.72,0.00043
2011.57,0.00044
1988.43,0.00004
1965.29,0.00012
1942.14,0.00025
1919,0.00067
1895.85,0.00036
1872.71,0.00068
1849.57,0.00013
1826.42,0.00093
1803.28,0.00077
1780.14,0.00022
1756.99,0.00035
1733.85,0.00015
1710.7,0.00048
1687.56,0.00107
1664.42,0.00053
1641.27,0.00025
1618.13,0.00052
1594.99,0.00056
1571.84,0.00041
1548.7,0.00036
1525.56,0.00003
1502.41,0.00049
1479.27,0.00084
1456.12,0.00084
1432.98,0.00063
1409.84,0.00017
1386.69,0.00048
1363.55,0.00040
1340.41,0.00091
1317.26,0.00028
1294.12,0.00033
1270.97,0.00105
1247.83,0.00063
1224.69,0.00129
1201.54,0.00086
1178.4,0.00072
1155.26,0.00011
1132.11,0.00100
1108.97,0.00102
1085.82,0.00100
1062.68,0.00083
1039.54,0.00004
1016.39,0.00092
993.25,0.00243
970.106,0.00094
946.963,0.00212
923.819,0.00157
900.675,0.00157
877.532,0.00083
854.388,0.00092
831.244,0.00269
808.101,0.00156
784.957,0.00096
761.813,0.00073
738.669,0.00169
715.526,0.00023
692.382,0.00168
669.238,0.00093
646.095,0.00355
622.951,0.00205
599.807,0.00010