File: 01_Data/Nylon/FTIR/IS/Nylon_3.175_T_IS_221212_R7.dpt
7497.02,0.02213
7473.87,0.02976
7450.73,0.03435
7427.58,0.02098
7404.44,0.03059
7381.29,0.02651
7358.15,0.02190
7335,0.02676
7311.86,0.02199
7288.71,0.02621
7265.57,0.01237
7242.42,0.02132
7219.28,0.02708
7196.13,0.03053
7172.99,0.02169
7149.84,0.03074
7126.7,0.01835
7103.55,0.02825
7080.41,0.01815
7057.26,0.01768
7034.12,0.02651
7010.98,0.02133
6987.83,0.02416
6964.69,0.02255
6941.54,0.03398
6918.4,0.02663
6895.25,0.02706
6872.11,0.02276
6848.96,0.02774
6825.82,0.02816
6802.67,0.02820
6779.53,0.02315
6756.38,0.02168
6733.24,0.02490
6710.09,0.02107
6686.95,0.02885
6663.8,0.02442
6640.66,0.02177
6617.51,0.02356
6594.37,0.02595
6571.22,0.02882
6548.08,0.01728
6524.93,0.02076
6501.79,0.02043
6478.64,0.02698
6455.5,0.02455
6432.35,0.02426
6409.21,0.02385
6386.06,0.02416
6362.92,0.02383
6339.77,0.02129
6316.63,0.02290
6293.48,0.02128
6270.34,0.02525
6247.19,0.02167
6224.05,0.02568
6200.9,0.02394
6177.76,0.01892
6154.61,0.02151
6131.47,0.02491
6108.32,0.02416
6085.18,0.02079
6062.03,0.02521
6038.89,0.02634
6015.74,0.02021
5992.6,0.02160
5969.45,0.02279
5946.31,0.02657
5923.16,0.02041
5900.02,0.02335
5876.88,0.02282
5853.73,0.02211
5830.59,0.02345
5807.44,0.02482
5784.3,0.02240
5761.15,0.02309
5738.01,0.02427
5714.86,0.02511
5691.72,0.02489
5668.57,0.02341
5645.43,0.02182
5622.28,0.02119
5599.14,0.02343
5575.99,0.02264
5552.85,0.02186
5529.7,0.02274
5506.56,0.02307
5483.41,0.02366
5460.27,0.02239
5437.12,0.02265
5413.98,0.02327
5390.83,0.02330
5367.69,0.02300
5344.54,0.02364
5321.4,0.02374
5298.25,0.02412
5275.11,0.02219
5251.96,0.02317
5228.82,0.02362
5205.67,0.02198
5182.53,0.02388
5159.38,0.02321
5136.24,0.02214
5113.09,0.02197
5089.95,0.02404
5066.8,0.02230
5043.66,0.02374
5020.51,0.02260
4997.37,0.02217
4974.22,0.02250
4951.08,0.02275
4927.93,0.02275
4904.79,0.02209
4881.64,0.02256
4858.5,0.02339
4835.35,0.02315
4812.21,0.02303
4789.06,0.02403
4765.92,0.02329
4742.78,0.02339
4719.63,0.02339
4696.49,0.02437
4673.34,0.02300
4650.2,0.02354
4627.05,0.02320
4603.91,0.02319
4580.76,0.02269
4557.62,0.02346
4534.47,0.02368
4511.33,0.02398
4488.18,0.02372
4465.04,0.02353
4441.89,0.02406
4418.75,0.02220
4395.6,0.02357
4372.46,0.02313
4349.31,0.02308
4326.17,0.02330
4303.02,0.02340
4279.88,0.02374
4256.73,0.02398
4233.59,0.02244
4210.44,0.02426
4187.3,0.02322
4164.15,0.02374
4141.01,0.02406
4117.86,0.02338
4094.72,0.02322
4071.57,0.02414
4048.43,0.02407
4025.28,0.02331
4002.14,0.02395
3978.99,0.02339
3955.85,0.02369
3932.7,0.02421
3909.56,0.02380
3886.41,0.02370
3863.27,0.02445
3840.12,0.02424
3816.98,0.02403
3793.83,0.02292
3770.69,0.02439
3747.54,0.02366
3724.4,0.02346
3701.25,0.02330
3678.11,0.02396
3654.97,0.02341
3631.82,0.02367
3608.68,0.02332
3585.53,0.02272
3562.39,0.02246
3539.24,0.02194
3516.1,0.02247
3492.95,0.02284
3469.81,0.02197
3446.66,0.02208
3423.52,0.02233
3400.37,0.02256
3377.23,0.02132
3354.08,0.02126
3330.94,0.02110
3307.79,0.02135
3284.65,0.02178
3261.5,0.02190
3238.36,0.02228
3215.21,0.02144
3192.07,0.02243
3168.92,0.02201
3145.78,0.02185
3122.63,0.02218
3099.49,0.02216
3076.34,0.02194
3053.2,0.02150
3030.05,0.02207
3006.91,0.02176
2983.76,0.02147
2960.62,0.02083
2937.47,0.02077
2914.33,0.02134
2891.18,0.02181
2868.04,0.02157
2844.89,0.02228
2821.75,0.02258
2798.6,0.02224
2775.46,0.02306
2752.31,0.02272
2729.17,0.02284
2706.02,0.02295
2682.88,0.02256
2659.73,0.02281
2636.59,0.02294
2613.44,0.02266
2590.3,0.02281
2567.15,0.02316
2544.01,0.02274
2520.87,0.02311
2497.72,0.02285
2474.58,0.02284
2451.43,0.02289
2428.29,0.02287
2405.14,0.02293
2382,0.02264
2358.85,0.02301
2335.71,0.02270
2312.56,0.02274
2289.42,0.02257
2266.27,0.02276
2243.13,0.02250
2219.98,0.02322
2196.84,0.02284
2173.69,0.02253
2150.55,0.02272
2127.4,0.02310
2104.26,0.02242
2081.11,0.02246
2057.97,0.02270
2034.82,0.02273
2011.68,0.02259
1988.53,0.02249
1965.39,0.02240
1942.24,0.02245
1919.1,0.02253
1895.95,0.02236
1872.81,0.02240
1849.66,0.02230
1826.52,0.02180
1803.37,0.02152
1780.23,0.02094
1757.08,0.01935
1733.94,0.02110
1710.79,0.02221
1687.65,0.02082
1664.5,0.02037
1641.36,0.02022
1618.21,0.02044
1595.07,0.02079
1571.92,0.01993
1548.78,0.01964
1525.63,0.02015
1502.49,0.02009
1479.34,0.02036
1456.2,0.01995
1433.05,0.02017
1409.91,0.01969
1386.77,0.02002
1363.62,0.01949
1340.48,0.01926
1317.33,0.01869
1294.19,0.01905
1271.04,0.02097
1247.9,0.02136
1224.75,0.02117
1201.61,0.02048
1178.46,0.01920
1155.32,0.01902
1132.17,0.01971
1109.03,0.01957
1085.88,0.01952
1062.74,0.02183
1039.59,0.02071
1016.45,0.02018
993.302,0.02286
970.157,0.02158
947.012,0.02146
923.867,0.02118
900.722,0.02094
877.577,0.02049
854.432,0.02104
831.288,0.02055
808.143,0.02060
784.998,0.01883
761.853,0.02025
738.708,0.01920
715.563,0.01886
692.418,0.01884
669.273,0.01875
646.128,0.01792
622.983,0.01625
599.839,0.01602