File: 01_Data/Nylon/FTIR/IS/Nylon_3.175_S_IS_221212_R1.dpt
7497.02,0.12982
7473.87,0.13171
7450.73,0.12724
7427.58,0.12403
7404.44,0.12320
7381.29,0.11540
7358.15,0.11093
7335,0.11507
7311.86,0.10486
7288.71,0.10873
7265.57,0.08913
7242.42,0.08742
7219.28,0.08274
7196.13,0.08494
7172.99,0.08708
7149.84,0.08373
7126.7,0.08605
7103.55,0.08027
7080.41,0.08290
7057.26,0.07829
7034.12,0.07613
7010.98,0.07521
6987.83,0.07583
6964.69,0.08317
6941.54,0.07442
6918.4,0.08230
6895.25,0.08262
6872.11,0.08508
6848.96,0.07735
6825.82,0.08441
6802.67,0.08514
6779.53,0.08131
6756.38,0.08158
6733.24,0.08114
6710.09,0.07060
6686.95,0.07123
6663.8,0.07166
6640.66,0.07268
6617.51,0.06607
6594.37,0.06634
6571.22,0.06556
6548.08,0.06427
6524.93,0.06203
6501.79,0.05898
6478.64,0.06365
6455.5,0.06815
6432.35,0.07421
6409.21,0.07299
6386.06,0.07053
6362.92,0.06784
6339.77,0.06845
6316.63,0.07080
6293.48,0.07325
6270.34,0.06895
6247.19,0.06460
6224.05,0.06907
6200.9,0.07414
6177.76,0.07586
6154.61,0.07827
6131.47,0.08279
6108.32,0.08462
6085.18,0.08775
6062.03,0.08453
6038.89,0.08409
6015.74,0.07981
5992.6,0.08354
5969.45,0.07862
5946.31,0.07541
5923.16,0.06826
5900.02,0.06180
5876.88,0.05411
5853.73,0.05490
5830.59,0.05483
5807.44,0.05553
5784.3,0.05852
5761.15,0.05532
5738.01,0.05357
5714.86,0.05672
5691.72,0.05635
5668.57,0.05706
5645.43,0.05785
5622.28,0.05799
5599.14,0.05959
5575.99,0.05786
5552.85,0.05993
5529.7,0.06008
5506.56,0.06249
5483.41,0.06357
5460.27,0.06256
5437.12,0.06369
5413.98,0.06444
5390.83,0.06524
5367.69,0.06542
5344.54,0.06577
5321.4,0.06586
5298.25,0.06301
5275.11,0.06070
5251.96,0.06022
5228.82,0.05875
5205.67,0.05917
5182.53,0.05716
5159.38,0.05748
5136.24,0.05735
5113.09,0.05531
5089.95,0.05738
5066.8,0.05802
5043.66,0.05643
5020.51,0.05798
4997.37,0.05704
4974.22,0.05549
4951.08,0.05783
4927.93,0.05671
4904.79,0.05668
4881.64,0.05769
4858.5,0.05735
4835.35,0.05752
4812.21,0.05941
4789.06,0.05880
4765.92,0.05833
4742.78,0.05753
4719.63,0.05816
4696.49,0.05771
4673.34,0.05776
4650.2,0.05748
4627.05,0.05673
4603.91,0.05710
4580.76,0.05744
4557.62,0.05811
4534.47,0.05836
4511.33,0.05748
4488.18,0.05879
4465.04,0.05805
4441.89,0.05787
4418.75,0.05721
4395.6,0.05791
4372.46,0.05831
4349.31,0.05766
4326.17,0.05843
4303.02,0.05779
4279.88,0.05846
4256.73,0.05822
4233.59,0.05870
4210.44,0.05872
4187.3,0.05873
4164.15,0.05868
4141.01,0.05840
4117.86,0.05839
4094.72,0.05881
4071.57,0.05803
4048.43,0.05876
4025.28,0.05843
4002.14,0.05866
3978.99,0.05897
3955.85,0.05877
3932.7,0.05829
3909.56,0.05847
3886.41,0.05925
3863.27,0.05928
3840.12,0.05863
3816.98,0.05870
3793.83,0.05852
3770.69,0.05808
3747.54,0.05795
3724.4,0.05802
3701.25,0.05789
3678.11,0.05787
3654.97,0.05789
3631.82,0.05745
3608.68,0.05772
3585.53,0.05745
3562.39,0.05678
3539.24,0.05622
3516.1,0.05597
3492.95,0.05607
3469.81,0.05562
3446.66,0.05488
3423.52,0.05395
3400.37,0.05324
3377.23,0.05122
3354.08,0.04862
3330.94,0.04596
3307.79,0.05467
3284.65,0.06979
3261.5,0.06722
3238.36,0.06540
3215.21,0.06265
3192.07,0.06269
3168.92,0.06200
3145.78,0.06092
3122.63,0.05995
3099.49,0.05940
3076.34,0.06023
3053.2,0.06107
3030.05,0.06003
3006.91,0.05942
2983.76,0.05662
2960.62,0.05540
2937.47,0.05783
2914.33,0.06582
2891.18,0.06317
2868.04,0.06306
2844.89,0.06872
2821.75,0.06495
2798.6,0.06406
2775.46,0.06328
2752.31,0.06313
2729.17,0.06304
2706.02,0.06228
2682.88,0.06216
2659.73,0.06182
2636.59,0.06223
2613.44,0.06217
2590.3,0.06219
2567.15,0.06155
2544.01,0.06135
2520.87,0.06163
2497.72,0.06097
2474.58,0.06105
2451.43,0.06106
2428.29,0.06074
2405.14,0.06050
2382,0.06053
2358.85,0.06058
2335.71,0.06021
2312.56,0.06054
2289.42,0.06060
2266.27,0.06017
2243.13,0.05979
2219.98,0.05995
2196.84,0.05968
2173.69,0.05928
2150.55,0.05965
2127.4,0.05913
2104.26,0.05918
2081.11,0.05895
2057.97,0.05871
2034.82,0.05836
2011.68,0.05794
1988.53,0.05802
1965.39,0.05730
1942.24,0.05715
1919.1,0.05662
1895.95,0.05619
1872.81,0.05552
1849.66,0.05473
1826.52,0.05384
1803.37,0.05271
1780.23,0.05084
1757.08,0.04972
1733.94,0.04844
1710.79,0.04383
1687.65,0.03740
1664.5,0.03465
1641.36,0.11353
1618.21,0.09716
1595.07,0.07028
1571.92,0.05096
1548.78,0.05850
1525.63,0.09691
1502.49,0.07831
1479.34,0.06817
1456.2,0.07443
1433.05,0.07069
1409.91,0.07585
1386.77,0.06896
1363.62,0.07226
1340.48,0.07072
1317.33,0.06776
1294.19,0.06523
1271.04,0.07068
1247.9,0.07271
1224.75,0.07117
1201.61,0.06901
1178.46,0.07443
1155.32,0.07191
1132.17,0.07227
1109.03,0.07045
1085.88,0.06934
1062.74,0.06926
1039.59,0.06965
1016.45,0.06869
993.302,0.06721
970.157,0.06580
947.012,0.06488
923.867,0.06751
900.722,0.06650
877.577,0.06478
854.432,0.06420
831.288,0.06319
808.143,0.06125
784.998,0.06006
761.853,0.05760
738.708,0.05427
715.563,0.05621
692.418,0.05901
669.273,0.06913
646.128,0.06771
622.983,0.06497
599.839,0.05909