File: 01_Data/Nylon/FTIR/IS/Nylon_3.175_T_IS_221212_R8.dpt
7497.02,0.02881
7473.87,0.03463
7450.73,0.02909
7427.58,0.02527
7404.44,0.02416
7381.29,0.01741
7358.15,0.02043
7335,0.02861
7311.86,0.02407
7288.71,0.02676
7265.57,0.02885
7242.42,0.02595
7219.28,0.02454
7196.13,0.02511
7172.99,0.02529
7149.84,0.02371
7126.7,0.01942
7103.55,0.02837
7080.41,0.01929
7057.26,0.02691
7034.12,0.02841
7010.98,0.02055
6987.83,0.02220
6964.69,0.02424
6941.54,0.02421
6918.4,0.02594
6895.25,0.02726
6872.11,0.02261
6848.96,0.01724
6825.82,0.01955
6802.67,0.02339
6779.53,0.03001
6756.38,0.02362
6733.24,0.02651
6710.09,0.02492
6686.95,0.02214
6663.8,0.02767
6640.66,0.02620
6617.51,0.02324
6594.37,0.02518
6571.22,0.02105
6548.08,0.02408
6524.93,0.01908
6501.79,0.02699
6478.64,0.02166
6455.5,0.02433
6432.35,0.02500
6409.21,0.02310
6386.06,0.02267
6362.92,0.02927
6339.77,0.02214
6316.63,0.02540
6293.48,0.02616
6270.34,0.02386
6247.19,0.02117
6224.05,0.02314
6200.9,0.02126
6177.76,0.02331
6154.61,0.02237
6131.47,0.02023
6108.32,0.02369
6085.18,0.02318
6062.03,0.02442
6038.89,0.02286
6015.74,0.02039
5992.6,0.02356
5969.45,0.02152
5946.31,0.02140
5923.16,0.02121
5900.02,0.02423
5876.88,0.02507
5853.73,0.01953
5830.59,0.02211
5807.44,0.02271
5784.3,0.02464
5761.15,0.02265
5738.01,0.02398
5714.86,0.02238
5691.72,0.02430
5668.57,0.02004
5645.43,0.02257
5622.28,0.02318
5599.14,0.02270
5575.99,0.02311
5552.85,0.02334
5529.7,0.02497
5506.56,0.02240
5483.41,0.02347
5460.27,0.02289
5437.12,0.02209
5413.98,0.02251
5390.83,0.02441
5367.69,0.02388
5344.54,0.02165
5321.4,0.02105
5298.25,0.02385
5275.11,0.02166
5251.96,0.02265
5228.82,0.02229
5205.67,0.02328
5182.53,0.02280
5159.38,0.02283
5136.24,0.02224
5113.09,0.02403
5089.95,0.02239
5066.8,0.02327
5043.66,0.02359
5020.51,0.02310
4997.37,0.02384
4974.22,0.02220
4951.08,0.02308
4927.93,0.02293
4904.79,0.02313
4881.64,0.02261
4858.5,0.02287
4835.35,0.02277
4812.21,0.02409
4789.06,0.02228
4765.92,0.02253
4742.78,0.02291
4719.63,0.02251
4696.49,0.02334
4673.34,0.02320
4650.2,0.02330
4627.05,0.02295
4603.91,0.02284
4580.76,0.02332
4557.62,0.02363
4534.47,0.02361
4511.33,0.02324
4488.18,0.02407
4465.04,0.02369
4441.89,0.02366
4418.75,0.02270
4395.6,0.02355
4372.46,0.02300
4349.31,0.02346
4326.17,0.02288
4303.02,0.02344
4279.88,0.02330
4256.73,0.02311
4233.59,0.02300
4210.44,0.02331
4187.3,0.02410
4164.15,0.02307
4141.01,0.02376
4117.86,0.02330
4094.72,0.02376
4071.57,0.02326
4048.43,0.02357
4025.28,0.02355
4002.14,0.02351
3978.99,0.02378
3955.85,0.02302
3932.7,0.02439
3909.56,0.02338
3886.41,0.02396
3863.27,0.02390
3840.12,0.02431
3816.98,0.02339
3793.83,0.02414
3770.69,0.02370
3747.54,0.02367
3724.4,0.02297
3701.25,0.02346
3678.11,0.02344
3654.97,0.02343
3631.82,0.02337
3608.68,0.02276
3585.53,0.02279
3562.39,0.02223
3539.24,0.02186
3516.1,0.02155
3492.95,0.02182
3469.81,0.02128
3446.66,0.02200
3423.52,0.02166
3400.37,0.02132
3377.23,0.02149
3354.08,0.02100
3330.94,0.02076
3307.79,0.02155
3284.65,0.02094
3261.5,0.02070
3238.36,0.02103
3215.21,0.02076
3192.07,0.02127
3168.92,0.02119
3145.78,0.02162
3122.63,0.02237
3099.49,0.02177
3076.34,0.02160
3053.2,0.02187
3030.05,0.02160
3006.91,0.02152
2983.76,0.02114
2960.62,0.02083
2937.47,0.02138
2914.33,0.02137
2891.18,0.02163
2868.04,0.02139
2844.89,0.02203
2821.75,0.02216
2798.6,0.02262
2775.46,0.02223
2752.31,0.02234
2729.17,0.02258
2706.02,0.02274
2682.88,0.02248
2659.73,0.02260
2636.59,0.02325
2613.44,0.02288
2590.3,0.02254
2567.15,0.02263
2544.01,0.02250
2520.87,0.02283
2497.72,0.02258
2474.58,0.02268
2451.43,0.02227
2428.29,0.02263
2405.14,0.02291
2382,0.02211
2358.85,0.02292
2335.71,0.02292
2312.56,0.02268
2289.42,0.02287
2266.27,0.02262
2243.13,0.02290
2219.98,0.02236
2196.84,0.02241
2173.69,0.02231
2150.55,0.02233
2127.4,0.02213
2104.26,0.02231
2081.11,0.02236
2057.97,0.02206
2034.82,0.02232
2011.68,0.02247
1988.53,0.02217
1965.39,0.02233
1942.24,0.02212
1919.1,0.02205
1895.95,0.02223
1872.81,0.02193
1849.66,0.02194
1826.52,0.02169
1803.37,0.02108
1780.23,0.02054
1757.08,0.01929
1733.94,0.02050
1710.79,0.02166
1687.65,0.02064
1664.5,0.01991
1641.36,0.01972
1618.21,0.02034
1595.07,0.02042
1571.92,0.02010
1548.78,0.01942
1525.63,0.01960
1502.49,0.01962
1479.34,0.01946
1456.2,0.02014
1433.05,0.02004
1409.91,0.01912
1386.77,0.01904
1363.62,0.01934
1340.48,0.01923
1317.33,0.01823
1294.19,0.01878
1271.04,0.02063
1247.9,0.02124
1224.75,0.02074
1201.61,0.02000
1178.46,0.01949
1155.32,0.01833
1132.17,0.01920
1109.03,0.02034
1085.88,0.01888
1062.74,0.02063
1039.59,0.02039
1016.45,0.02044
993.302,0.02265
970.157,0.02214
947.012,0.02100
923.867,0.02131
900.722,0.02043
877.577,0.02079
854.432,0.02015
831.288,0.02016
808.143,0.02008
784.998,0.01961
761.853,0.01934
738.708,0.01923
715.563,0.01921
692.418,0.01907
669.273,0.01905
646.128,0.01802
622.983,0.01813
599.839,0.01730