File: 01_Data/Nylon/FTIR/IS/Nylon_3.175_S_IS_221212_R2.dpt
7497.02,0.11707
7473.87,0.13110
7450.73,0.12852
7427.58,0.12040
7404.44,0.11916
7381.29,0.11587
7358.15,0.11151
7335,0.10235
7311.86,0.10724
7288.71,0.10062
7265.57,0.09439
7242.42,0.08492
7219.28,0.08536
7196.13,0.08169
7172.99,0.08148
7149.84,0.07835
7126.7,0.08435
7103.55,0.08312
7080.41,0.08181
7057.26,0.07971
7034.12,0.07794
7010.98,0.07693
6987.83,0.07047
6964.69,0.08370
6941.54,0.08610
6918.4,0.08080
6895.25,0.08397
6872.11,0.08233
6848.96,0.08448
6825.82,0.08005
6802.67,0.08166
6779.53,0.08773
6756.38,0.07634
6733.24,0.07614
6710.09,0.07002
6686.95,0.07434
6663.8,0.07450
6640.66,0.06866
6617.51,0.06304
6594.37,0.06736
6571.22,0.06427
6548.08,0.06309
6524.93,0.06966
6501.79,0.06210
6478.64,0.05965
6455.5,0.06634
6432.35,0.07387
6409.21,0.07300
6386.06,0.06956
6362.92,0.06888
6339.77,0.06721
6316.63,0.06908
6293.48,0.07294
6270.34,0.06830
6247.19,0.06905
6224.05,0.06871
6200.9,0.07313
6177.76,0.07360
6154.61,0.08100
6131.47,0.08528
6108.32,0.08418
6085.18,0.08739
6062.03,0.08616
6038.89,0.08442
6015.74,0.08593
5992.6,0.08132
5969.45,0.07972
5946.31,0.07514
5923.16,0.06939
5900.02,0.06196
5876.88,0.05715
5853.73,0.05615
5830.59,0.05544
5807.44,0.05552
5784.3,0.05475
5761.15,0.05392
5738.01,0.05609
5714.86,0.05606
5691.72,0.05508
5668.57,0.05685
5645.43,0.05798
5622.28,0.05831
5599.14,0.05741
5575.99,0.06070
5552.85,0.06167
5529.7,0.05991
5506.56,0.05989
5483.41,0.06229
5460.27,0.06225
5437.12,0.06279
5413.98,0.06487
5390.83,0.06439
5367.69,0.06568
5344.54,0.06624
5321.4,0.06556
5298.25,0.06400
5275.11,0.06144
5251.96,0.05902
5228.82,0.05936
5205.67,0.05818
5182.53,0.05830
5159.38,0.05707
5136.24,0.05706
5113.09,0.05687
5089.95,0.05656
5066.8,0.05828
5043.66,0.05756
5020.51,0.05746
4997.37,0.05751
4974.22,0.05895
4951.08,0.05733
4927.93,0.05751
4904.79,0.05818
4881.64,0.05712
4858.5,0.05900
4835.35,0.05800
4812.21,0.05844
4789.06,0.05924
4765.92,0.05858
4742.78,0.05891
4719.63,0.05850
4696.49,0.05780
4673.34,0.05822
4650.2,0.05743
4627.05,0.05789
4603.91,0.05885
4580.76,0.05760
4557.62,0.05824
4534.47,0.05846
4511.33,0.05754
4488.18,0.05807
4465.04,0.05794
4441.89,0.05818
4418.75,0.05800
4395.6,0.05865
4372.46,0.05904
4349.31,0.05810
4326.17,0.05800
4303.02,0.05874
4279.88,0.05872
4256.73,0.05834
4233.59,0.05823
4210.44,0.05822
4187.3,0.05854
4164.15,0.05844
4141.01,0.05829
4117.86,0.05871
4094.72,0.05878
4071.57,0.05886
4048.43,0.05943
4025.28,0.05892
4002.14,0.05816
3978.99,0.05886
3955.85,0.05847
3932.7,0.05913
3909.56,0.05926
3886.41,0.05889
3863.27,0.05887
3840.12,0.05945
3816.98,0.05928
3793.83,0.05872
3770.69,0.05861
3747.54,0.05854
3724.4,0.05841
3701.25,0.05817
3678.11,0.05855
3654.97,0.05762
3631.82,0.05861
3608.68,0.05756
3585.53,0.05663
3562.39,0.05674
3539.24,0.05669
3516.1,0.05600
3492.95,0.05567
3469.81,0.05593
3446.66,0.05462
3423.52,0.05407
3400.37,0.05310
3377.23,0.05127
3354.08,0.04900
3330.94,0.04619
3307.79,0.05500
3284.65,0.07014
3261.5,0.06732
3238.36,0.06449
3215.21,0.06382
3192.07,0.06200
3168.92,0.06254
3145.78,0.06142
3122.63,0.06092
3099.49,0.05986
3076.34,0.06008
3053.2,0.06117
3030.05,0.06055
3006.91,0.05918
2983.76,0.05702
2960.62,0.05526
2937.47,0.05761
2914.33,0.06565
2891.18,0.06325
2868.04,0.06287
2844.89,0.06865
2821.75,0.06534
2798.6,0.06430
2775.46,0.06394
2752.31,0.06351
2729.17,0.06301
2706.02,0.06307
2682.88,0.06253
2659.73,0.06262
2636.59,0.06224
2613.44,0.06247
2590.3,0.06224
2567.15,0.06216
2544.01,0.06161
2520.87,0.06160
2497.72,0.06171
2474.58,0.06172
2451.43,0.06112
2428.29,0.06086
2405.14,0.06122
2382,0.06139
2358.85,0.06114
2335.71,0.06138
2312.56,0.06046
2289.42,0.06046
2266.27,0.06036
2243.13,0.06050
2219.98,0.05976
2196.84,0.06030
2173.69,0.06008
2150.55,0.05957
2127.4,0.05987
2104.26,0.05955
2081.11,0.05905
2057.97,0.05870
2034.82,0.05853
2011.68,0.05879
1988.53,0.05795
1965.39,0.05772
1942.24,0.05770
1919.1,0.05681
1895.95,0.05655
1872.81,0.05563
1849.66,0.05505
1826.52,0.05443
1803.37,0.05275
1780.23,0.05140
1757.08,0.04977
1733.94,0.04858
1710.79,0.04377
1687.65,0.03723
1664.5,0.03498
1641.36,0.11431
1618.21,0.09774
1595.07,0.07088
1571.92,0.05161
1548.78,0.05889
1525.63,0.09725
1502.49,0.07870
1479.34,0.06855
1456.2,0.07434
1433.05,0.07114
1409.91,0.07630
1386.77,0.06912
1363.62,0.07250
1340.48,0.07111
1317.33,0.06821
1294.19,0.06548
1271.04,0.07120
1247.9,0.07279
1224.75,0.07096
1201.61,0.06948
1178.46,0.07489
1155.32,0.07207
1132.17,0.07232
1109.03,0.07042
1085.88,0.06957
1062.74,0.06912
1039.59,0.06920
1016.45,0.06851
993.302,0.06783
970.157,0.06647
947.012,0.06523
923.867,0.06820
900.722,0.06660
877.577,0.06528
854.432,0.06378
831.288,0.06255
808.143,0.06220
784.998,0.06036
761.853,0.05642
738.708,0.05365
715.563,0.05646
692.418,0.05760
669.273,0.06852
646.128,0.06654
622.983,0.06401
599.839,0.06248