File: 01_Data/Nylon/FTIR/IS/Nylon_3.175_T_IS_221212_R2.dpt
7497.02,0.01889
7473.87,0.02334
7450.73,0.03985
7427.58,0.03068
7404.44,0.02150
7381.29,0.01957
7358.15,0.02153
7335,0.02532
7311.86,0.02332
7288.71,0.02517
7265.57,0.01898
7242.42,0.01360
7219.28,0.01753
7196.13,0.02429
7172.99,0.02828
7149.84,0.02608
7126.7,0.02822
7103.55,0.02900
7080.41,0.02188
7057.26,0.02647
7034.12,0.02565
7010.98,0.02336
6987.83,0.02461
6964.69,0.02657
6941.54,0.02533
6918.4,0.01906
6895.25,0.01804
6872.11,0.02287
6848.96,0.01909
6825.82,0.02605
6802.67,0.02317
6779.53,0.01727
6756.38,0.01919
6733.24,0.02333
6710.09,0.02661
6686.95,0.02937
6663.8,0.02943
6640.66,0.02463
6617.51,0.02219
6594.37,0.02573
6571.22,0.01781
6548.08,0.02630
6524.93,0.02680
6501.79,0.02213
6478.64,0.02321
6455.5,0.02458
6432.35,0.02380
6409.21,0.02311
6386.06,0.02010
6362.92,0.02351
6339.77,0.02383
6316.63,0.02370
6293.48,0.02780
6270.34,0.02123
6247.19,0.02431
6224.05,0.02038
6200.9,0.02040
6177.76,0.02162
6154.61,0.02180
6131.47,0.01929
6108.32,0.02254
6085.18,0.02336
6062.03,0.02023
6038.89,0.02510
6015.74,0.02181
5992.6,0.02212
5969.45,0.02184
5946.31,0.02297
5923.16,0.02302
5900.02,0.02323
5876.88,0.02297
5853.73,0.02143
5830.59,0.02337
5807.44,0.02160
5784.3,0.02311
5761.15,0.02161
5738.01,0.02336
5714.86,0.02334
5691.72,0.02329
5668.57,0.02292
5645.43,0.02333
5622.28,0.02426
5599.14,0.02418
5575.99,0.02191
5552.85,0.02352
5529.7,0.02332
5506.56,0.02364
5483.41,0.02318
5460.27,0.02005
5437.12,0.02317
5413.98,0.02245
5390.83,0.02312
5367.69,0.02343
5344.54,0.02295
5321.4,0.02199
5298.25,0.02345
5275.11,0.02461
5251.96,0.02248
5228.82,0.02404
5205.67,0.02330
5182.53,0.02416
5159.38,0.02370
5136.24,0.02287
5113.09,0.02372
5089.95,0.02295
5066.8,0.02411
5043.66,0.02447
5020.51,0.02366
4997.37,0.02346
4974.22,0.02362
4951.08,0.02393
4927.93,0.02211
4904.79,0.02367
4881.64,0.02332
4858.5,0.02271
4835.35,0.02251
4812.21,0.02362
4789.06,0.02349
4765.92,0.02282
4742.78,0.02345
4719.63,0.02376
4696.49,0.02332
4673.34,0.02349
4650.2,0.02304
4627.05,0.02398
4603.91,0.02389
4580.76,0.02306
4557.62,0.02338
4534.47,0.02345
4511.33,0.02311
4488.18,0.02327
4465.04,0.02378
4441.89,0.02412
4418.75,0.02311
4395.6,0.02405
4372.46,0.02349
4349.31,0.02327
4326.17,0.02294
4303.02,0.02342
4279.88,0.02385
4256.73,0.02394
4233.59,0.02375
4210.44,0.02358
4187.3,0.02369
4164.15,0.02331
4141.01,0.02366
4117.86,0.02383
4094.72,0.02449
4071.57,0.02410
4048.43,0.02349
4025.28,0.02411
4002.14,0.02411
3978.99,0.02444
3955.85,0.02322
3932.7,0.02381
3909.56,0.02409
3886.41,0.02393
3863.27,0.02399
3840.12,0.02378
3816.98,0.02414
3793.83,0.02384
3770.69,0.02368
3747.54,0.02465
3724.4,0.02369
3701.25,0.02328
3678.11,0.02403
3654.97,0.02330
3631.82,0.02354
3608.68,0.02324
3585.53,0.02230
3562.39,0.02210
3539.24,0.02252
3516.1,0.02254
3492.95,0.02213
3469.81,0.02227
3446.66,0.02148
3423.52,0.02225
3400.37,0.02188
3377.23,0.02136
3354.08,0.02077
3330.94,0.02152
3307.79,0.02062
3284.65,0.02186
3261.5,0.02181
3238.36,0.02190
3215.21,0.02208
3192.07,0.02200
3168.92,0.02199
3145.78,0.02213
3122.63,0.02216
3099.49,0.02183
3076.34,0.02212
3053.2,0.02226
3030.05,0.02226
3006.91,0.02197
2983.76,0.02155
2960.62,0.02111
2937.47,0.02128
2914.33,0.02202
2891.18,0.02164
2868.04,0.02197
2844.89,0.02246
2821.75,0.02258
2798.6,0.02281
2775.46,0.02293
2752.31,0.02282
2729.17,0.02281
2706.02,0.02344
2682.88,0.02262
2659.73,0.02264
2636.59,0.02319
2613.44,0.02286
2590.3,0.02310
2567.15,0.02280
2544.01,0.02292
2520.87,0.02330
2497.72,0.02310
2474.58,0.02278
2451.43,0.02301
2428.29,0.02276
2405.14,0.02268
2382,0.02272
2358.85,0.02289
2335.71,0.02278
2312.56,0.02290
2289.42,0.02286
2266.27,0.02287
2243.13,0.02272
2219.98,0.02232
2196.84,0.02250
2173.69,0.02229
2150.55,0.02256
2127.4,0.02222
2104.26,0.02265
2081.11,0.02246
2057.97,0.02228
2034.82,0.02263
2011.68,0.02287
1988.53,0.02256
1965.39,0.02280
1942.24,0.02237
1919.1,0.02249
1895.95,0.02231
1872.81,0.02231
1849.66,0.02195
1826.52,0.02200
1803.37,0.02119
1780.23,0.02091
1757.08,0.01896
1733.94,0.02136
1710.79,0.02176
1687.65,0.02101
1664.5,0.02031
1641.36,0.01993
1618.21,0.02029
1595.07,0.02046
1571.92,0.01978
1548.78,0.02021
1525.63,0.02002
1502.49,0.01998
1479.34,0.02024
1456.2,0.01994
1433.05,0.02034
1409.91,0.01970
1386.77,0.01949
1363.62,0.01980
1340.48,0.01913
1317.33,0.01875
1294.19,0.01916
1271.04,0.02107
1247.9,0.02151
1224.75,0.02089
1201.61,0.02008
1178.46,0.02011
1155.32,0.01933
1132.17,0.01934
1109.03,0.01987
1085.88,0.01903
1062.74,0.02145
1039.59,0.02122
1016.45,0.02083
993.302,0.02231
970.157,0.02207
947.012,0.02199
923.867,0.02088
900.722,0.02085
877.577,0.02015
854.432,0.02039
831.288,0.02028
808.143,0.02069
784.998,0.02014
761.853,0.01944
738.708,0.01895
715.563,0.01900
692.418,0.01979
669.273,0.01817
646.128,0.01788
622.983,0.01800
599.839,0.01737