File: 01_Data/Nylon/FTIR/IS/Nylon_3.175_T_IS_221212_R3.dpt
7497.02,0.02385
7473.87,0.02688
7450.73,0.01523
7427.58,0.02643
7404.44,0.01744
7381.29,0.03186
7358.15,0.03388
7335,0.02846
7311.86,0.02322
7288.71,0.02515
7265.57,0.02569
7242.42,0.02327
7219.28,0.03547
7196.13,0.02766
7172.99,0.02114
7149.84,0.02909
7126.7,0.02340
7103.55,0.02339
7080.41,0.01695
7057.26,0.02823
7034.12,0.03144
7010.98,0.02782
6987.83,0.02524
6964.69,0.02576
6941.54,0.02628
6918.4,0.02155
6895.25,0.02267
6872.11,0.02045
6848.96,0.01628
6825.82,0.02526
6802.67,0.01862
6779.53,0.02553
6756.38,0.02104
6733.24,0.02598
6710.09,0.01852
6686.95,0.02634
6663.8,0.02179
6640.66,0.02119
6617.51,0.02090
6594.37,0.02187
6571.22,0.02589
6548.08,0.02629
6524.93,0.02749
6501.79,0.02385
6478.64,0.02447
6455.5,0.02414
6432.35,0.02222
6409.21,0.02578
6386.06,0.02431
6362.92,0.02052
6339.77,0.02251
6316.63,0.02267
6293.48,0.02472
6270.34,0.02185
6247.19,0.02094
6224.05,0.02606
6200.9,0.02113
6177.76,0.02322
6154.61,0.01723
6131.47,0.01868
6108.32,0.02461
6085.18,0.02194
6062.03,0.02017
6038.89,0.02227
6015.74,0.02106
5992.6,0.02227
5969.45,0.02447
5946.31,0.02390
5923.16,0.02500
5900.02,0.02223
5876.88,0.02148
5853.73,0.02230
5830.59,0.02330
5807.44,0.02424
5784.3,0.02371
5761.15,0.02374
5738.01,0.02308
5714.86,0.02246
5691.72,0.02188
5668.57,0.02542
5645.43,0.02358
5622.28,0.02098
5599.14,0.02187
5575.99,0.02134
5552.85,0.02191
5529.7,0.02482
5506.56,0.02335
5483.41,0.02232
5460.27,0.02382
5437.12,0.02332
5413.98,0.02172
5390.83,0.02262
5367.69,0.02237
5344.54,0.02350
5321.4,0.02285
5298.25,0.02329
5275.11,0.02298
5251.96,0.02520
5228.82,0.02264
5205.67,0.02319
5182.53,0.02385
5159.38,0.02218
5136.24,0.02255
5113.09,0.02430
5089.95,0.02330
5066.8,0.02217
5043.66,0.02276
5020.51,0.02444
4997.37,0.02318
4974.22,0.02292
4951.08,0.02425
4927.93,0.02241
4904.79,0.02286
4881.64,0.02411
4858.5,0.02365
4835.35,0.02394
4812.21,0.02404
4789.06,0.02287
4765.92,0.02322
4742.78,0.02370
4719.63,0.02335
4696.49,0.02324
4673.34,0.02340
4650.2,0.02374
4627.05,0.02307
4603.91,0.02354
4580.76,0.02316
4557.62,0.02402
4534.47,0.02376
4511.33,0.02389
4488.18,0.02341
4465.04,0.02359
4441.89,0.02285
4418.75,0.02333
4395.6,0.02356
4372.46,0.02279
4349.31,0.02367
4326.17,0.02343
4303.02,0.02400
4279.88,0.02352
4256.73,0.02385
4233.59,0.02350
4210.44,0.02395
4187.3,0.02419
4164.15,0.02344
4141.01,0.02376
4117.86,0.02361
4094.72,0.02375
4071.57,0.02382
4048.43,0.02441
4025.28,0.02402
4002.14,0.02400
3978.99,0.02370
3955.85,0.02417
3932.7,0.02399
3909.56,0.02387
3886.41,0.02398
3863.27,0.02382
3840.12,0.02420
3816.98,0.02424
3793.83,0.02337
3770.69,0.02391
3747.54,0.02439
3724.4,0.02383
3701.25,0.02300
3678.11,0.02373
3654.97,0.02288
3631.82,0.02331
3608.68,0.02269
3585.53,0.02294
3562.39,0.02219
3539.24,0.02212
3516.1,0.02206
3492.95,0.02218
3469.81,0.02203
3446.66,0.02177
3423.52,0.02201
3400.37,0.02136
3377.23,0.02150
3354.08,0.02192
3330.94,0.02140
3307.79,0.02169
3284.65,0.02078
3261.5,0.02207
3238.36,0.02204
3215.21,0.02227
3192.07,0.02282
3168.92,0.02170
3145.78,0.02211
3122.63,0.02221
3099.49,0.02204
3076.34,0.02205
3053.2,0.02189
3030.05,0.02229
3006.91,0.02188
2983.76,0.02163
2960.62,0.02119
2937.47,0.02096
2914.33,0.02172
2891.18,0.02189
2868.04,0.02167
2844.89,0.02226
2821.75,0.02276
2798.6,0.02260
2775.46,0.02279
2752.31,0.02273
2729.17,0.02263
2706.02,0.02244
2682.88,0.02322
2659.73,0.02285
2636.59,0.02266
2613.44,0.02261
2590.3,0.02276
2567.15,0.02288
2544.01,0.02287
2520.87,0.02294
2497.72,0.02297
2474.58,0.02310
2451.43,0.02288
2428.29,0.02245
2405.14,0.02270
2382,0.02314
2358.85,0.02317
2335.71,0.02252
2312.56,0.02302
2289.42,0.02295
2266.27,0.02295
2243.13,0.02244
2219.98,0.02263
2196.84,0.02298
2173.69,0.02266
2150.55,0.02271
2127.4,0.02263
2104.26,0.02287
2081.11,0.02268
2057.97,0.02248
2034.82,0.02243
2011.68,0.02266
1988.53,0.02290
1965.39,0.02226
1942.24,0.02268
1919.1,0.02247
1895.95,0.02211
1872.81,0.02239
1849.66,0.02189
1826.52,0.02165
1803.37,0.02137
1780.23,0.02091
1757.08,0.01917
1733.94,0.02125
1710.79,0.02212
1687.65,0.02077
1664.5,0.02008
1641.36,0.02041
1618.21,0.02033
1595.07,0.02028
1571.92,0.02009
1548.78,0.01963
1525.63,0.02006
1502.49,0.01994
1479.34,0.02008
1456.2,0.02027
1433.05,0.02042
1409.91,0.01966
1386.77,0.01911
1363.62,0.01944
1340.48,0.01896
1317.33,0.01846
1294.19,0.01888
1271.04,0.02057
1247.9,0.02167
1224.75,0.02082
1201.61,0.02061
1178.46,0.01968
1155.32,0.01919
1132.17,0.01896
1109.03,0.02010
1085.88,0.01899
1062.74,0.02132
1039.59,0.02102
1016.45,0.02060
993.302,0.02216
970.157,0.02205
947.012,0.02060
923.867,0.02136
900.722,0.02057
877.577,0.02052
854.432,0.02064
831.288,0.02071
808.143,0.02053
784.998,0.02038
761.853,0.01998
738.708,0.01938
715.563,0.02006
692.418,0.01952
669.273,0.01913
646.128,0.01837
622.983,0.01759
599.839,0.01625