File: 01_Data/Nylon/FTIR/IS/Nylon_3.175_S_IS_221212_R4.dpt
7497.02,0.12410
7473.87,0.13315
7450.73,0.12190
7427.58,0.12339
7404.44,0.12483
7381.29,0.12356
7358.15,0.12424
7335,0.11421
7311.86,0.10797
7288.71,0.10075
7265.57,0.08791
7242.42,0.08871
7219.28,0.08465
7196.13,0.08667
7172.99,0.08376
7149.84,0.08478
7126.7,0.07934
7103.55,0.07619
7080.41,0.07984
7057.26,0.07873
7034.12,0.08588
7010.98,0.08094
6987.83,0.08099
6964.69,0.08083
6941.54,0.08320
6918.4,0.07829
6895.25,0.07794
6872.11,0.08672
6848.96,0.08230
6825.82,0.08124
6802.67,0.08056
6779.53,0.07987
6756.38,0.07330
6733.24,0.07877
6710.09,0.07458
6686.95,0.07206
6663.8,0.07330
6640.66,0.06761
6617.51,0.06737
6594.37,0.06168
6571.22,0.06353
6548.08,0.06343
6524.93,0.06104
6501.79,0.05961
6478.64,0.06471
6455.5,0.06739
6432.35,0.07223
6409.21,0.07029
6386.06,0.06839
6362.92,0.06852
6339.77,0.06962
6316.63,0.07218
6293.48,0.07247
6270.34,0.06852
6247.19,0.06857
6224.05,0.06772
6200.9,0.07046
6177.76,0.07332
6154.61,0.08289
6131.47,0.08419
6108.32,0.08754
6085.18,0.09017
6062.03,0.08263
6038.89,0.08718
6015.74,0.08517
5992.6,0.08070
5969.45,0.08225
5946.31,0.07627
5923.16,0.06773
5900.02,0.05947
5876.88,0.05768
5853.73,0.05649
5830.59,0.05448
5807.44,0.05514
5784.3,0.05354
5761.15,0.05830
5738.01,0.05470
5714.86,0.05646
5691.72,0.05638
5668.57,0.05500
5645.43,0.05769
5622.28,0.05874
5599.14,0.05954
5575.99,0.06170
5552.85,0.06036
5529.7,0.06011
5506.56,0.06136
5483.41,0.06243
5460.27,0.06420
5437.12,0.06292
5413.98,0.06344
5390.83,0.06587
5367.69,0.06581
5344.54,0.06748
5321.4,0.06531
5298.25,0.06403
5275.11,0.06099
5251.96,0.05988
5228.82,0.05937
5205.67,0.05593
5182.53,0.05777
5159.38,0.05817
5136.24,0.05627
5113.09,0.05676
5089.95,0.05701
5066.8,0.05587
5043.66,0.05870
5020.51,0.05749
4997.37,0.05804
4974.22,0.05758
4951.08,0.05747
4927.93,0.05808
4904.79,0.05645
4881.64,0.05671
4858.5,0.05733
4835.35,0.05766
4812.21,0.05813
4789.06,0.05758
4765.92,0.05835
4742.78,0.05833
4719.63,0.05744
4696.49,0.05772
4673.34,0.05790
4650.2,0.05771
4627.05,0.05801
4603.91,0.05723
4580.76,0.05843
4557.62,0.05825
4534.47,0.05671
4511.33,0.05861
4488.18,0.05851
4465.04,0.05798
4441.89,0.05700
4418.75,0.05817
4395.6,0.05789
4372.46,0.05822
4349.31,0.05767
4326.17,0.05791
4303.02,0.05811
4279.88,0.05844
4256.73,0.05783
4233.59,0.05889
4210.44,0.05839
4187.3,0.05909
4164.15,0.05906
4141.01,0.05863
4117.86,0.05877
4094.72,0.05818
4071.57,0.05835
4048.43,0.05860
4025.28,0.05795
4002.14,0.05938
3978.99,0.05827
3955.85,0.05872
3932.7,0.05891
3909.56,0.05873
3886.41,0.05887
3863.27,0.05907
3840.12,0.05948
3816.98,0.05832
3793.83,0.05866
3770.69,0.05864
3747.54,0.05861
3724.4,0.05771
3701.25,0.05864
3678.11,0.05817
3654.97,0.05796
3631.82,0.05799
3608.68,0.05708
3585.53,0.05717
3562.39,0.05685
3539.24,0.05624
3516.1,0.05570
3492.95,0.05622
3469.81,0.05502
3446.66,0.05505
3423.52,0.05409
3400.37,0.05270
3377.23,0.05050
3354.08,0.04910
3330.94,0.04532
3307.79,0.05568
3284.65,0.06984
3261.5,0.06743
3238.36,0.06458
3215.21,0.06271
3192.07,0.06301
3168.92,0.06202
3145.78,0.06121
3122.63,0.06019
3099.49,0.05972
3076.34,0.06009
3053.2,0.06113
3030.05,0.06038
3006.91,0.05885
2983.76,0.05681
2960.62,0.05511
2937.47,0.05749
2914.33,0.06638
2891.18,0.06283
2868.04,0.06299
2844.89,0.06890
2821.75,0.06507
2798.6,0.06438
2775.46,0.06304
2752.31,0.06264
2729.17,0.06281
2706.02,0.06277
2682.88,0.06197
2659.73,0.06224
2636.59,0.06206
2613.44,0.06161
2590.3,0.06173
2567.15,0.06131
2544.01,0.06151
2520.87,0.06111
2497.72,0.06118
2474.58,0.06133
2451.43,0.06119
2428.29,0.06131
2405.14,0.06097
2382,0.06086
2358.85,0.06106
2335.71,0.06047
2312.56,0.06050
2289.42,0.06028
2266.27,0.06017
2243.13,0.05996
2219.98,0.05985
2196.84,0.05988
2173.69,0.05959
2150.55,0.05939
2127.4,0.05934
2104.26,0.05911
2081.11,0.05865
2057.97,0.05843
2034.82,0.05874
2011.68,0.05803
1988.53,0.05788
1965.39,0.05731
1942.24,0.05732
1919.1,0.05653
1895.95,0.05603
1872.81,0.05563
1849.66,0.05483
1826.52,0.05398
1803.37,0.05269
1780.23,0.05081
1757.08,0.04962
1733.94,0.04796
1710.79,0.04374
1687.65,0.03736
1664.5,0.03510
1641.36,0.11374
1618.21,0.09709
1595.07,0.07079
1571.92,0.05157
1548.78,0.05880
1525.63,0.09659
1502.49,0.07811
1479.34,0.06817
1456.2,0.07424
1433.05,0.07068
1409.91,0.07555
1386.77,0.06841
1363.62,0.07229
1340.48,0.07091
1317.33,0.06763
1294.19,0.06538
1271.04,0.07106
1247.9,0.07281
1224.75,0.07122
1201.61,0.06918
1178.46,0.07444
1155.32,0.07241
1132.17,0.07234
1109.03,0.07076
1085.88,0.06863
1062.74,0.06863
1039.59,0.06813
1016.45,0.06888
993.302,0.06785
970.157,0.06626
947.012,0.06453
923.867,0.06789
900.722,0.06649
877.577,0.06517
854.432,0.06444
831.288,0.06331
808.143,0.06125
784.998,0.06005
761.853,0.05751
738.708,0.05325
715.563,0.05606
692.418,0.05794
669.273,0.06898
646.128,0.06684
622.983,0.06500
599.839,0.06088