File: 01_Data/Nylon/FTIR/IS/Nylon_3.175_T_IS_221212_R1.dpt
7497.02,0.01626
7473.87,0.02838
7450.73,0.02533
7427.58,0.02586
7404.44,0.01937
7381.29,0.01932
7358.15,0.02927
7335,0.02516
7311.86,0.02174
7288.71,0.02514
7265.57,0.02164
7242.42,0.02196
7219.28,0.02360
7196.13,0.03113
7172.99,0.02694
7149.84,0.02914
7126.7,0.03136
7103.55,0.01672
7080.41,0.02434
7057.26,0.01879
7034.12,0.02785
7010.98,0.02327
6987.83,0.02604
6964.69,0.02432
6941.54,0.02279
6918.4,0.02145
6895.25,0.02084
6872.11,0.03007
6848.96,0.02421
6825.82,0.02791
6802.67,0.02349
6779.53,0.02213
6756.38,0.02309
6733.24,0.02732
6710.09,0.02583
6686.95,0.01941
6663.8,0.01915
6640.66,0.02470
6617.51,0.02413
6594.37,0.02314
6571.22,0.02495
6548.08,0.02286
6524.93,0.02749
6501.79,0.02594
6478.64,0.02375
6455.5,0.02136
6432.35,0.02212
6409.21,0.02455
6386.06,0.02244
6362.92,0.02309
6339.77,0.01910
6316.63,0.02399
6293.48,0.02248
6270.34,0.02219
6247.19,0.01844
6224.05,0.02118
6200.9,0.02069
6177.76,0.02391
6154.61,0.02295
6131.47,0.02243
6108.32,0.02395
6085.18,0.02105
6062.03,0.02250
6038.89,0.02369
6015.74,0.01905
5992.6,0.02398
5969.45,0.02195
5946.31,0.02196
5923.16,0.02250
5900.02,0.02376
5876.88,0.02123
5853.73,0.02093
5830.59,0.02155
5807.44,0.02283
5784.3,0.02222
5761.15,0.02361
5738.01,0.02326
5714.86,0.02439
5691.72,0.02154
5668.57,0.02399
5645.43,0.02281
5622.28,0.02281
5599.14,0.02294
5575.99,0.02294
5552.85,0.02285
5529.7,0.02208
5506.56,0.02206
5483.41,0.02379
5460.27,0.02434
5437.12,0.02426
5413.98,0.02430
5390.83,0.02306
5367.69,0.02319
5344.54,0.02312
5321.4,0.02285
5298.25,0.02288
5275.11,0.02363
5251.96,0.02305
5228.82,0.02293
5205.67,0.02302
5182.53,0.02458
5159.38,0.02343
5136.24,0.02379
5113.09,0.02390
5089.95,0.02420
5066.8,0.02474
5043.66,0.02358
5020.51,0.02352
4997.37,0.02345
4974.22,0.02320
4951.08,0.02324
4927.93,0.02261
4904.79,0.02351
4881.64,0.02265
4858.5,0.02316
4835.35,0.02332
4812.21,0.02289
4789.06,0.02289
4765.92,0.02328
4742.78,0.02309
4719.63,0.02298
4696.49,0.02357
4673.34,0.02349
4650.2,0.02339
4627.05,0.02359
4603.91,0.02226
4580.76,0.02362
4557.62,0.02360
4534.47,0.02338
4511.33,0.02307
4488.18,0.02320
4465.04,0.02333
4441.89,0.02342
4418.75,0.02316
4395.6,0.02325
4372.46,0.02373
4349.31,0.02329
4326.17,0.02335
4303.02,0.02369
4279.88,0.02319
4256.73,0.02291
4233.59,0.02345
4210.44,0.02371
4187.3,0.02318
4164.15,0.02345
4141.01,0.02434
4117.86,0.02416
4094.72,0.02406
4071.57,0.02362
4048.43,0.02379
4025.28,0.02355
4002.14,0.02353
3978.99,0.02402
3955.85,0.02322
3932.7,0.02386
3909.56,0.02395
3886.41,0.02378
3863.27,0.02413
3840.12,0.02403
3816.98,0.02396
3793.83,0.02447
3770.69,0.02339
3747.54,0.02459
3724.4,0.02394
3701.25,0.02372
3678.11,0.02330
3654.97,0.02336
3631.82,0.02327
3608.68,0.02294
3585.53,0.02321
3562.39,0.02246
3539.24,0.02178
3516.1,0.02193
3492.95,0.02198
3469.81,0.02217
3446.66,0.02159
3423.52,0.02098
3400.37,0.02133
3377.23,0.02103
3354.08,0.02139
3330.94,0.02159
3307.79,0.02089
3284.65,0.02224
3261.5,0.02202
3238.36,0.02079
3215.21,0.02125
3192.07,0.02209
3168.92,0.02188
3145.78,0.02242
3122.63,0.02247
3099.49,0.02184
3076.34,0.02207
3053.2,0.02173
3030.05,0.02248
3006.91,0.02140
2983.76,0.02105
2960.62,0.02075
2937.47,0.02070
2914.33,0.02156
2891.18,0.02205
2868.04,0.02135
2844.89,0.02228
2821.75,0.02230
2798.6,0.02264
2775.46,0.02226
2752.31,0.02272
2729.17,0.02241
2706.02,0.02269
2682.88,0.02271
2659.73,0.02273
2636.59,0.02263
2613.44,0.02266
2590.3,0.02282
2567.15,0.02262
2544.01,0.02302
2520.87,0.02270
2497.72,0.02292
2474.58,0.02269
2451.43,0.02266
2428.29,0.02291
2405.14,0.02278
2382,0.02307
2358.85,0.02258
2335.71,0.02258
2312.56,0.02291
2289.42,0.02269
2266.27,0.02269
2243.13,0.02239
2219.98,0.02256
2196.84,0.02251
2173.69,0.02264
2150.55,0.02269
2127.4,0.02263
2104.26,0.02273
2081.11,0.02266
2057.97,0.02280
2034.82,0.02214
2011.68,0.02264
1988.53,0.02241
1965.39,0.02258
1942.24,0.02209
1919.1,0.02227
1895.95,0.02241
1872.81,0.02230
1849.66,0.02198
1826.52,0.02189
1803.37,0.02134
1780.23,0.02055
1757.08,0.01901
1733.94,0.02131
1710.79,0.02156
1687.65,0.02069
1664.5,0.01971
1641.36,0.02026
1618.21,0.02011
1595.07,0.02065
1571.92,0.01972
1548.78,0.02021
1525.63,0.01999
1502.49,0.02030
1479.34,0.01973
1456.2,0.01994
1433.05,0.02031
1409.91,0.01974
1386.77,0.01956
1363.62,0.01965
1340.48,0.01932
1317.33,0.01837
1294.19,0.01899
1271.04,0.02095
1247.9,0.02143
1224.75,0.02117
1201.61,0.02019
1178.46,0.01937
1155.32,0.01918
1132.17,0.01940
1109.03,0.02016
1085.88,0.02005
1062.74,0.02149
1039.59,0.02140
1016.45,0.02126
993.302,0.02313
970.157,0.02156
947.012,0.02132
923.867,0.02103
900.722,0.02018
877.577,0.01989
854.432,0.02041
831.288,0.01999
808.143,0.01955
784.998,0.01992
761.853,0.01965
738.708,0.02080
715.563,0.01927
692.418,0.01909
669.273,0.01912
646.128,0.01763
622.983,0.01770
599.839,0.01810