File: 01_Data/Nylon/FTIR/IS/Nylon_3.175_S_IS_221212_R6.dpt
7497.02,0.12819
7473.87,0.12345
7450.73,0.11979
7427.58,0.11271
7404.44,0.12559
7381.29,0.11620
7358.15,0.10921
7335,0.10133
7311.86,0.10613
7288.71,0.09157
7265.57,0.09090
7242.42,0.08918
7219.28,0.08616
7196.13,0.08039
7172.99,0.08494
7149.84,0.08740
7126.7,0.07647
7103.55,0.07262
7080.41,0.07948
7057.26,0.07348
7034.12,0.07906
7010.98,0.07935
6987.83,0.07785
6964.69,0.07907
6941.54,0.08478
6918.4,0.08931
6895.25,0.08026
6872.11,0.08296
6848.96,0.08464
6825.82,0.08453
6802.67,0.08012
6779.53,0.08027
6756.38,0.08174
6733.24,0.07746
6710.09,0.07672
6686.95,0.07565
6663.8,0.07143
6640.66,0.06674
6617.51,0.07190
6594.37,0.06623
6571.22,0.06967
6548.08,0.06122
6524.93,0.06838
6501.79,0.06210
6478.64,0.06372
6455.5,0.06461
6432.35,0.07250
6409.21,0.07179
6386.06,0.07016
6362.92,0.07036
6339.77,0.07045
6316.63,0.06852
6293.48,0.07201
6270.34,0.07010
6247.19,0.06752
6224.05,0.07000
6200.9,0.07039
6177.76,0.07554
6154.61,0.08106
6131.47,0.08503
6108.32,0.08462
6085.18,0.08919
6062.03,0.08712
6038.89,0.08683
6015.74,0.08386
5992.6,0.08084
5969.45,0.07467
5946.31,0.07354
5923.16,0.06922
5900.02,0.06046
5876.88,0.05862
5853.73,0.05603
5830.59,0.05592
5807.44,0.05683
5784.3,0.05690
5761.15,0.05511
5738.01,0.05767
5714.86,0.05595
5691.72,0.05487
5668.57,0.05786
5645.43,0.05894
5622.28,0.05771
5599.14,0.05802
5575.99,0.06102
5552.85,0.05982
5529.7,0.06116
5506.56,0.06383
5483.41,0.06168
5460.27,0.06030
5437.12,0.06204
5413.98,0.06347
5390.83,0.06464
5367.69,0.06640
5344.54,0.06550
5321.4,0.06578
5298.25,0.06301
5275.11,0.06191
5251.96,0.05987
5228.82,0.05916
5205.67,0.05903
5182.53,0.05786
5159.38,0.05686
5136.24,0.05729
5113.09,0.05758
5089.95,0.05675
5066.8,0.05934
5043.66,0.05860
5020.51,0.05816
4997.37,0.05813
4974.22,0.05638
4951.08,0.05718
4927.93,0.05729
4904.79,0.05544
4881.64,0.05691
4858.5,0.05711
4835.35,0.05863
4812.21,0.05754
4789.06,0.05857
4765.92,0.05909
4742.78,0.05775
4719.63,0.05702
4696.49,0.05678
4673.34,0.05716
4650.2,0.05656
4627.05,0.05779
4603.91,0.05744
4580.76,0.05718
4557.62,0.05786
4534.47,0.05738
4511.33,0.05726
4488.18,0.05695
4465.04,0.05734
4441.89,0.05845
4418.75,0.05781
4395.6,0.05802
4372.46,0.05688
4349.31,0.05770
4326.17,0.05822
4303.02,0.05791
4279.88,0.05717
4256.73,0.05749
4233.59,0.05823
4210.44,0.05808
4187.3,0.05789
4164.15,0.05800
4141.01,0.05796
4117.86,0.05801
4094.72,0.05802
4071.57,0.05776
4048.43,0.05900
4025.28,0.05835
4002.14,0.05777
3978.99,0.05820
3955.85,0.05862
3932.7,0.05826
3909.56,0.05871
3886.41,0.05830
3863.27,0.05802
3840.12,0.05899
3816.98,0.05854
3793.83,0.05832
3770.69,0.05838
3747.54,0.05865
3724.4,0.05825
3701.25,0.05776
3678.11,0.05737
3654.97,0.05810
3631.82,0.05737
3608.68,0.05712
3585.53,0.05608
3562.39,0.05634
3539.24,0.05614
3516.1,0.05557
3492.95,0.05528
3469.81,0.05475
3446.66,0.05495
3423.52,0.05306
3400.37,0.05214
3377.23,0.05081
3354.08,0.04872
3330.94,0.04443
3307.79,0.05484
3284.65,0.06913
3261.5,0.06709
3238.36,0.06447
3215.21,0.06194
3192.07,0.06237
3168.92,0.06253
3145.78,0.06115
3122.63,0.06006
3099.49,0.05906
3076.34,0.05945
3053.2,0.06019
3030.05,0.05953
3006.91,0.05836
2983.76,0.05668
2960.62,0.05514
2937.47,0.05679
2914.33,0.06583
2891.18,0.06280
2868.04,0.06268
2844.89,0.06812
2821.75,0.06430
2798.6,0.06379
2775.46,0.06293
2752.31,0.06234
2729.17,0.06254
2706.02,0.06220
2682.88,0.06213
2659.73,0.06190
2636.59,0.06154
2613.44,0.06142
2590.3,0.06132
2567.15,0.06104
2544.01,0.06134
2520.87,0.06081
2497.72,0.06112
2474.58,0.06094
2451.43,0.06078
2428.29,0.06064
2405.14,0.06052
2382,0.06044
2358.85,0.06008
2335.71,0.05994
2312.56,0.06014
2289.42,0.05998
2266.27,0.05957
2243.13,0.05975
2219.98,0.05982
2196.84,0.05922
2173.69,0.05938
2150.55,0.05897
2127.4,0.05873
2104.26,0.05874
2081.11,0.05838
2057.97,0.05816
2034.82,0.05797
2011.68,0.05761
1988.53,0.05738
1965.39,0.05717
1942.24,0.05659
1919.1,0.05605
1895.95,0.05548
1872.81,0.05511
1849.66,0.05448
1826.52,0.05338
1803.37,0.05268
1780.23,0.05093
1757.08,0.04922
1733.94,0.04837
1710.79,0.04344
1687.65,0.03733
1664.5,0.03473
1641.36,0.11294
1618.21,0.09619
1595.07,0.06983
1571.92,0.05136
1548.78,0.05863
1525.63,0.09608
1502.49,0.07778
1479.34,0.06761
1456.2,0.07386
1433.05,0.07012
1409.91,0.07525
1386.77,0.06779
1363.62,0.07117
1340.48,0.07029
1317.33,0.06685
1294.19,0.06460
1271.04,0.06990
1247.9,0.07238
1224.75,0.07073
1201.61,0.06856
1178.46,0.07418
1155.32,0.07145
1132.17,0.07146
1109.03,0.07002
1085.88,0.06928
1062.74,0.06854
1039.59,0.06766
1016.45,0.06797
993.302,0.06722
970.157,0.06615
947.012,0.06459
923.867,0.06754
900.722,0.06609
877.577,0.06503
854.432,0.06427
831.288,0.06231
808.143,0.06115
784.998,0.05986
761.853,0.05698
738.708,0.05403
715.563,0.05583
692.418,0.05796
669.273,0.06896
646.128,0.06667
622.983,0.06492
599.839,0.06090