File: 01_Data/Nylon/FTIR/IS/Nylon_3.175_T_IS_221212_R6.dpt
7497.02,0.03306
7473.87,0.02779
7450.73,0.03285
7427.58,0.01348
7404.44,0.02137
7381.29,0.02290
7358.15,0.02344
7335,0.02294
7311.86,0.02243
7288.71,0.01683
7265.57,0.02565
7242.42,0.02316
7219.28,0.01768
7196.13,0.02274
7172.99,0.02379
7149.84,0.01718
7126.7,0.02671
7103.55,0.03013
7080.41,0.02365
7057.26,0.02230
7034.12,0.02608
7010.98,0.02269
6987.83,0.01756
6964.69,0.02405
6941.54,0.02148
6918.4,0.01976
6895.25,0.02520
6872.11,0.02231
6848.96,0.02739
6825.82,0.02459
6802.67,0.02539
6779.53,0.02581
6756.38,0.02315
6733.24,0.02255
6710.09,0.02133
6686.95,0.02551
6663.8,0.02195
6640.66,0.02675
6617.51,0.02088
6594.37,0.02412
6571.22,0.02624
6548.08,0.02549
6524.93,0.02347
6501.79,0.02388
6478.64,0.02422
6455.5,0.02600
6432.35,0.02848
6409.21,0.02171
6386.06,0.02148
6362.92,0.02332
6339.77,0.02393
6316.63,0.02204
6293.48,0.02392
6270.34,0.02277
6247.19,0.02019
6224.05,0.01942
6200.9,0.02350
6177.76,0.02257
6154.61,0.01970
6131.47,0.02051
6108.32,0.02345
6085.18,0.02401
6062.03,0.02347
6038.89,0.02416
6015.74,0.02463
5992.6,0.02326
5969.45,0.02170
5946.31,0.02469
5923.16,0.02284
5900.02,0.02436
5876.88,0.02293
5853.73,0.01879
5830.59,0.02448
5807.44,0.02338
5784.3,0.02340
5761.15,0.02320
5738.01,0.02186
5714.86,0.02278
5691.72,0.02239
5668.57,0.02281
5645.43,0.02401
5622.28,0.02086
5599.14,0.02098
5575.99,0.02262
5552.85,0.02281
5529.7,0.02414
5506.56,0.02385
5483.41,0.02350
5460.27,0.02413
5437.12,0.02184
5413.98,0.02393
5390.83,0.02445
5367.69,0.02385
5344.54,0.02314
5321.4,0.02378
5298.25,0.02236
5275.11,0.02196
5251.96,0.02375
5228.82,0.02322
5205.67,0.02231
5182.53,0.02395
5159.38,0.02278
5136.24,0.02174
5113.09,0.02248
5089.95,0.02403
5066.8,0.02187
5043.66,0.02313
5020.51,0.02335
4997.37,0.02459
4974.22,0.02279
4951.08,0.02270
4927.93,0.02435
4904.79,0.02290
4881.64,0.02358
4858.5,0.02246
4835.35,0.02291
4812.21,0.02371
4789.06,0.02296
4765.92,0.02373
4742.78,0.02419
4719.63,0.02306
4696.49,0.02420
4673.34,0.02340
4650.2,0.02330
4627.05,0.02346
4603.91,0.02322
4580.76,0.02336
4557.62,0.02323
4534.47,0.02381
4511.33,0.02429
4488.18,0.02356
4465.04,0.02396
4441.89,0.02348
4418.75,0.02352
4395.6,0.02349
4372.46,0.02329
4349.31,0.02392
4326.17,0.02376
4303.02,0.02347
4279.88,0.02453
4256.73,0.02417
4233.59,0.02416
4210.44,0.02349
4187.3,0.02353
4164.15,0.02378
4141.01,0.02391
4117.86,0.02419
4094.72,0.02364
4071.57,0.02373
4048.43,0.02381
4025.28,0.02348
4002.14,0.02377
3978.99,0.02407
3955.85,0.02406
3932.7,0.02393
3909.56,0.02381
3886.41,0.02399
3863.27,0.02468
3840.12,0.02455
3816.98,0.02312
3793.83,0.02422
3770.69,0.02455
3747.54,0.02419
3724.4,0.02361
3701.25,0.02421
3678.11,0.02397
3654.97,0.02325
3631.82,0.02413
3608.68,0.02337
3585.53,0.02298
3562.39,0.02333
3539.24,0.02231
3516.1,0.02314
3492.95,0.02213
3469.81,0.02322
3446.66,0.02215
3423.52,0.02182
3400.37,0.02130
3377.23,0.02143
3354.08,0.02173
3330.94,0.02192
3307.79,0.02113
3284.65,0.02134
3261.5,0.02162
3238.36,0.02225
3215.21,0.02116
3192.07,0.02202
3168.92,0.02244
3145.78,0.02178
3122.63,0.02176
3099.49,0.02257
3076.34,0.02197
3053.2,0.02187
3030.05,0.02188
3006.91,0.02215
2983.76,0.02136
2960.62,0.02157
2937.47,0.02167
2914.33,0.02166
2891.18,0.02193
2868.04,0.02212
2844.89,0.02219
2821.75,0.02311
2798.6,0.02259
2775.46,0.02336
2752.31,0.02330
2729.17,0.02292
2706.02,0.02304
2682.88,0.02320
2659.73,0.02285
2636.59,0.02322
2613.44,0.02287
2590.3,0.02298
2567.15,0.02307
2544.01,0.02264
2520.87,0.02305
2497.72,0.02325
2474.58,0.02311
2451.43,0.02284
2428.29,0.02322
2405.14,0.02299
2382,0.02282
2358.85,0.02321
2335.71,0.02293
2312.56,0.02276
2289.42,0.02308
2266.27,0.02322
2243.13,0.02292
2219.98,0.02279
2196.84,0.02260
2173.69,0.02320
2150.55,0.02284
2127.4,0.02298
2104.26,0.02261
2081.11,0.02285
2057.97,0.02281
2034.82,0.02333
2011.68,0.02274
1988.53,0.02255
1965.39,0.02275
1942.24,0.02270
1919.1,0.02268
1895.95,0.02218
1872.81,0.02242
1849.66,0.02224
1826.52,0.02186
1803.37,0.02166
1780.23,0.02069
1757.08,0.01972
1733.94,0.02130
1710.79,0.02219
1687.65,0.02104
1664.5,0.02015
1641.36,0.02017
1618.21,0.02069
1595.07,0.02077
1571.92,0.01989
1548.78,0.01987
1525.63,0.02026
1502.49,0.02019
1479.34,0.02004
1456.2,0.02010
1433.05,0.02033
1409.91,0.01964
1386.77,0.01974
1363.62,0.01981
1340.48,0.01944
1317.33,0.01839
1294.19,0.01920
1271.04,0.02079
1247.9,0.02211
1224.75,0.02123
1201.61,0.01981
1178.46,0.01924
1155.32,0.01901
1132.17,0.01908
1109.03,0.01995
1085.88,0.01969
1062.74,0.02129
1039.59,0.02115
1016.45,0.02049
993.302,0.02326
970.157,0.02147
947.012,0.02092
923.867,0.02121
900.722,0.02119
877.577,0.02052
854.432,0.02027
831.288,0.02101
808.143,0.02011
784.998,0.02023
761.853,0.01972
738.708,0.01981
715.563,0.01944
692.418,0.01916
669.273,0.01940
646.128,0.01807
622.983,0.01760
599.839,0.01940