File: 01_Data/Nylon/FTIR/IS/Nylon_3.175_S_IS_221212_R3.dpt
7497.02,0.13632
7473.87,0.12710
7450.73,0.12293
7427.58,0.12347
7404.44,0.12002
7381.29,0.12930
7358.15,0.10891
7335,0.11483
7311.86,0.10675
7288.71,0.10244
7265.57,0.09288
7242.42,0.09204
7219.28,0.08872
7196.13,0.08548
7172.99,0.08864
7149.84,0.07952
7126.7,0.08562
7103.55,0.08370
7080.41,0.08473
7057.26,0.07788
7034.12,0.08101
7010.98,0.08700
6987.83,0.08302
6964.69,0.08076
6941.54,0.08439
6918.4,0.08123
6895.25,0.08104
6872.11,0.07893
6848.96,0.08251
6825.82,0.08192
6802.67,0.07431
6779.53,0.07965
6756.38,0.07798
6733.24,0.07504
6710.09,0.07417
6686.95,0.07202
6663.8,0.07146
6640.66,0.06638
6617.51,0.06645
6594.37,0.06391
6571.22,0.06292
6548.08,0.06416
6524.93,0.05985
6501.79,0.05843
6478.64,0.06303
6455.5,0.06234
6432.35,0.07685
6409.21,0.07025
6386.06,0.07415
6362.92,0.06639
6339.77,0.06932
6316.63,0.06981
6293.48,0.07097
6270.34,0.07159
6247.19,0.06910
6224.05,0.06961
6200.9,0.07092
6177.76,0.07528
6154.61,0.07781
6131.47,0.08141
6108.32,0.08609
6085.18,0.08739
6062.03,0.08749
6038.89,0.08311
6015.74,0.08438
5992.6,0.08231
5969.45,0.07957
5946.31,0.07558
5923.16,0.06862
5900.02,0.05992
5876.88,0.05545
5853.73,0.05574
5830.59,0.05787
5807.44,0.05763
5784.3,0.05795
5761.15,0.05509
5738.01,0.05814
5714.86,0.05503
5691.72,0.05462
5668.57,0.05742
5645.43,0.05784
5622.28,0.05894
5599.14,0.05895
5575.99,0.05975
5552.85,0.05825
5529.7,0.06123
5506.56,0.06079
5483.41,0.06229
5460.27,0.06326
5437.12,0.06321
5413.98,0.06411
5390.83,0.06463
5367.69,0.06607
5344.54,0.06533
5321.4,0.06423
5298.25,0.06444
5275.11,0.06121
5251.96,0.06066
5228.82,0.05965
5205.67,0.05876
5182.53,0.05801
5159.38,0.05657
5136.24,0.05835
5113.09,0.05726
5089.95,0.05676
5066.8,0.05789
5043.66,0.05792
5020.51,0.05754
4997.37,0.05665
4974.22,0.05715
4951.08,0.05767
4927.93,0.05674
4904.79,0.05785
4881.64,0.05699
4858.5,0.05736
4835.35,0.05770
4812.21,0.05786
4789.06,0.05738
4765.92,0.05766
4742.78,0.05793
4719.63,0.05756
4696.49,0.05693
4673.34,0.05747
4650.2,0.05713
4627.05,0.05775
4603.91,0.05824
4580.76,0.05827
4557.62,0.05791
4534.47,0.05796
4511.33,0.05793
4488.18,0.05791
4465.04,0.05732
4441.89,0.05800
4418.75,0.05780
4395.6,0.05743
4372.46,0.05819
4349.31,0.05829
4326.17,0.05735
4303.02,0.05809
4279.88,0.05905
4256.73,0.05872
4233.59,0.05781
4210.44,0.05854
4187.3,0.05878
4164.15,0.05869
4141.01,0.05872
4117.86,0.05823
4094.72,0.05839
4071.57,0.05873
4048.43,0.05828
4025.28,0.05910
4002.14,0.05863
3978.99,0.05866
3955.85,0.05826
3932.7,0.05872
3909.56,0.05876
3886.41,0.05846
3863.27,0.05866
3840.12,0.05892
3816.98,0.05892
3793.83,0.05905
3770.69,0.05817
3747.54,0.05861
3724.4,0.05836
3701.25,0.05816
3678.11,0.05805
3654.97,0.05756
3631.82,0.05706
3608.68,0.05723
3585.53,0.05645
3562.39,0.05670
3539.24,0.05577
3516.1,0.05587
3492.95,0.05611
3469.81,0.05507
3446.66,0.05419
3423.52,0.05395
3400.37,0.05257
3377.23,0.05026
3354.08,0.04924
3330.94,0.04594
3307.79,0.05407
3284.65,0.06950
3261.5,0.06817
3238.36,0.06551
3215.21,0.06362
3192.07,0.06290
3168.92,0.06111
3145.78,0.06179
3122.63,0.05956
3099.49,0.05960
3076.34,0.05937
3053.2,0.06064
3030.05,0.06002
3006.91,0.05944
2983.76,0.05664
2960.62,0.05551
2937.47,0.05707
2914.33,0.06588
2891.18,0.06316
2868.04,0.06327
2844.89,0.06864
2821.75,0.06452
2798.6,0.06388
2775.46,0.06315
2752.31,0.06287
2729.17,0.06290
2706.02,0.06258
2682.88,0.06227
2659.73,0.06224
2636.59,0.06220
2613.44,0.06150
2590.3,0.06172
2567.15,0.06127
2544.01,0.06126
2520.87,0.06150
2497.72,0.06099
2474.58,0.06099
2451.43,0.06119
2428.29,0.06102
2405.14,0.06066
2382,0.06069
2358.85,0.06058
2335.71,0.06058
2312.56,0.06051
2289.42,0.06056
2266.27,0.06042
2243.13,0.05995
2219.98,0.05993
2196.84,0.05964
2173.69,0.05946
2150.55,0.05942
2127.4,0.05955
2104.26,0.05901
2081.11,0.05882
2057.97,0.05885
2034.82,0.05820
2011.68,0.05815
1988.53,0.05749
1965.39,0.05758
1942.24,0.05705
1919.1,0.05655
1895.95,0.05601
1872.81,0.05544
1849.66,0.05484
1826.52,0.05409
1803.37,0.05252
1780.23,0.05080
1757.08,0.04949
1733.94,0.04831
1710.79,0.04374
1687.65,0.03715
1664.5,0.03499
1641.36,0.11383
1618.21,0.09691
1595.07,0.07019
1571.92,0.05122
1548.78,0.05859
1525.63,0.09667
1502.49,0.07805
1479.34,0.06813
1456.2,0.07440
1433.05,0.07056
1409.91,0.07610
1386.77,0.06829
1363.62,0.07226
1340.48,0.07059
1317.33,0.06772
1294.19,0.06525
1271.04,0.07054
1247.9,0.07292
1224.75,0.07076
1201.61,0.06913
1178.46,0.07438
1155.32,0.07205
1132.17,0.07235
1109.03,0.07053
1085.88,0.06930
1062.74,0.06877
1039.59,0.06860
1016.45,0.06816
993.302,0.06758
970.157,0.06671
947.012,0.06502
923.867,0.06688
900.722,0.06618
877.577,0.06516
854.432,0.06391
831.288,0.06251
808.143,0.06211
784.998,0.05946
761.853,0.05731
738.708,0.05400
715.563,0.05600
692.418,0.05760
669.273,0.06883
646.128,0.06765
622.983,0.06387
599.839,0.06133