File: 01_Data/Nylon/FTIR/IS/Nylon_2.362_Trans_T_IS_221213_R1.dpt
7496.63,-0.00238
7473.48,0.01217
7450.34,0.00968
7427.2,0.01236
7404.05,0.00894
7380.91,0.00348
7357.77,0.00096
7334.62,0.00748
7311.48,0.01397
7288.33,0.00932
7265.19,0.00967
7242.05,0.00706
7218.9,0.00526
7195.76,0.00904
7172.62,0.00686
7149.47,0.00633
7126.33,0.01160
7103.18,0.00038
7080.04,0.00697
7056.9,0.00513
7033.75,0.00965
7010.61,0.00827
6987.47,0.01142
6964.32,0.00947
6941.18,0.00106
6918.04,0.00271
6894.89,0.00388
6871.75,0.01341
6848.6,0.00199
6825.46,0.00543
6802.32,0.00853
6779.17,0.00554
6756.03,0.00729
6732.89,0.00579
6709.74,0.00027
6686.6,0.00893
6663.45,0.00163
6640.31,0.01106
6617.17,0.00298
6594.02,0.00486
6570.88,0.00358
6547.74,0.00875
6524.59,0.00135
6501.45,0.00666
6478.3,0.00422
6455.16,0.00542
6432.02,0.00256
6408.87,0.00546
6385.73,0.00244
6362.59,0.00295
6339.44,0.00278
6316.3,0.00227
6293.16,0.00110
6270.01,0.00658
6246.87,0.00216
6223.72,0.00208
6200.58,0.00654
6177.44,0.00369
6154.29,0.00287
6131.15,0.00134
6108.01,-0.00066
6084.86,0.00421
6061.72,0.00119
6038.57,0.00511
6015.43,0.00292
5992.29,0.00234
5969.14,0.00189
5946,0.00329
5922.86,0.00081
5899.71,0.00133
5876.57,0.00113
5853.43,0.00184
5830.28,0.00342
5807.14,0.00202
5783.99,0.00417
5760.85,0.00175
5737.71,0.00159
5714.56,0.00180
5691.42,0.00200
5668.28,0.00159
5645.13,0.00084
5621.99,0.00037
5598.84,0.00184
5575.7,0.00268
5552.56,0.00106
5529.41,0.00052
5506.27,0.00182
5483.13,0.00078
5459.98,0.00135
5436.84,0.00137
5413.7,0.00230
5390.55,0.00244
5367.41,0.00220
5344.26,0.00034
5321.12,0.00266
5297.98,0.00294
5274.83,0.00275
5251.69,0.00182
5228.55,0.00306
5205.4,0.00205
5182.26,0.00326
5159.11,0.00207
5135.97,0.00097
5112.83,0.00291
5089.68,0.00060
5066.54,0.00289
5043.4,0.00157
5020.25,0.00241
4997.11,0.00179
4973.97,0.00128
4950.82,0.00075
4927.68,0.00154
4904.53,0.00126
4881.39,0.00084
4858.25,0.00143
4835.1,0.00232
4811.96,0.00169
4788.82,0.00100
4765.67,0.00313
4742.53,0.00243
4719.38,0.00138
4696.24,0.00095
4673.1,0.00154
4649.95,0.00080
4626.81,0.00039
4603.67,0.00116
4580.52,0.00266
4557.38,0.00130
4534.23,0.00072
4511.09,0.00145
4487.95,0.00136
4464.8,0.00103
4441.66,0.00138
4418.52,0.00165
4395.37,0.00136
4372.23,0.00133
4349.09,0.00098
4325.94,0.00036
4302.8,0.00148
4279.65,0.00150
4256.51,0.00148
4233.37,0.00132
4210.22,0.00157
4187.08,0.00171
4163.94,0.00117
4140.79,0.00127
4117.65,0.00114
4094.5,0.00186
4071.36,0.00105
4048.22,0.00169
4025.07,0.00195
4001.93,0.00149
3978.79,0.00068
3955.64,0.00175
3932.5,0.00180
3909.36,0.00111
3886.21,0.00140
3863.07,0.00146
3839.92,0.00122
3816.78,0.00176
3793.64,0.00111
3770.49,0.00121
3747.35,0.00100
3724.21,0.00172
3701.06,0.00168
3677.92,0.00211
3654.77,0.00162
3631.63,0.00090
3608.49,0.00150
3585.34,0.00130
3562.2,0.00169
3539.06,0.00151
3515.91,0.00193
3492.77,0.00177
3469.63,0.00226
3446.48,0.00160
3423.34,0.00188
3400.19,0.00063
3377.05,0.00115
3353.91,0.00109
3330.76,0.00121
3307.62,0.00090
3284.48,0.00169
3261.33,0.00125
3238.19,0.00117
3215.04,0.00228
3191.9,0.00221
3168.76,0.00169
3145.61,0.00140
3122.47,0.00094
3099.33,0.00110
3076.18,0.00156
3053.04,0.00161
3029.89,0.00149
3006.75,0.00185
2983.61,0.00093
2960.46,0.00176
2937.32,0.00168
2914.18,0.00175
2891.03,0.00201
2867.89,0.00128
2844.75,0.00103
2821.6,0.00153
2798.46,0.00152
2775.31,0.00147
2752.17,0.00173
2729.03,0.00195
2705.88,0.00206
2682.74,0.00187
2659.6,0.00200
2636.45,0.00160
2613.31,0.00177
2590.16,0.00178
2567.02,0.00236
2543.88,0.00150
2520.73,0.00149
2497.59,0.00202
2474.45,0.00185
2451.3,0.00177
2428.16,0.00186
2405.02,0.00141
2381.87,0.00174
2358.73,0.00163
2335.58,0.00121
2312.44,0.00164
2289.3,0.00143
2266.15,0.00189
2243.01,0.00198
2219.87,0.00182
2196.72,0.00148
2173.58,0.00138
2150.43,0.00191
2127.29,0.00180
2104.15,0.00165
2081,0.00221
2057.86,0.00179
2034.72,0.00189
2011.57,0.00144
1988.43,0.00190
1965.29,0.00192
1942.14,0.00210
1919,0.00148
1895.85,0.00148
1872.71,0.00187
1849.57,0.00152
1826.42,0.00153
1803.28,0.00144
1780.14,0.00187
1756.99,0.00201
1733.85,0.00129
1710.7,0.00189
1687.56,0.00164
1664.42,0.00182
1641.27,0.00184
1618.13,0.00148
1594.99,0.00218
1571.84,0.00097
1548.7,0.00174
1525.56,0.00181
1502.41,0.00185
1479.27,0.00197
1456.12,0.00170
1432.98,0.00182
1409.84,0.00179
1386.69,0.00151
1363.55,0.00221
1340.41,0.00182
1317.26,0.00161
1294.12,0.00202
1270.97,0.00150
1247.83,0.00188
1224.69,0.00159
1201.54,0.00167
1178.4,0.00154
1155.26,0.00156
1132.11,0.00146
1108.97,0.00181
1085.82,0.00166
1062.68,0.00175
1039.54,0.00176
1016.39,0.00147
993.25,0.00199
970.106,0.00159
946.963,0.00180
923.819,0.00206
900.675,0.00131
877.532,0.00177
854.388,0.00196
831.244,0.00210
808.101,0.00140
784.957,0.00085
761.813,0.00174
738.669,0.00199
715.526,0.00161
692.382,0.00113
669.238,0.00151
646.095,0.00355
622.951,0.00062
599.807,0.00349