File: 01_Data/Nylon/FTIR/IS/Nylon_2.362_Trans_S_IS_221213_R1.dpt
7496.63,0.61186
7473.48,0.61938
7450.34,0.62276
7427.2,0.61372
7404.05,0.61419
7380.91,0.61620
7357.77,0.60596
7334.62,0.58359
7311.48,0.56165
7288.33,0.55388
7265.19,0.52083
7242.05,0.49338
7218.9,0.47422
7195.76,0.48555
7172.62,0.48901
7149.47,0.48022
7126.33,0.48005
7103.18,0.47033
7080.04,0.46905
7056.9,0.46898
7033.75,0.47378
7010.61,0.48110
6987.47,0.47983
6964.32,0.48155
6941.18,0.48579
6918.04,0.49205
6894.89,0.49933
6871.75,0.49972
6848.6,0.50251
6825.46,0.50588
6802.32,0.50358
6779.17,0.49151
6756.03,0.47016
6732.89,0.47053
6709.74,0.46482
6686.6,0.45233
6663.45,0.43236
6640.31,0.41124
6617.17,0.38261
6594.02,0.38347
6570.88,0.37710
6547.74,0.35869
6524.59,0.32935
6501.45,0.32326
6478.3,0.32931
6455.16,0.40163
6432.02,0.45164
6408.87,0.44929
6385.73,0.42680
6362.59,0.40032
6339.44,0.40342
6316.3,0.43922
6293.16,0.46080
6270.01,0.43561
6246.87,0.42124
6223.72,0.42630
6200.58,0.45744
6177.44,0.47966
6154.29,0.52056
6131.15,0.54372
6108.01,0.55593
6084.86,0.55852
6061.72,0.55578
6038.57,0.55443
6015.43,0.54656
5992.29,0.53393
5969.14,0.51670
5946,0.48447
5922.86,0.42018
5899.71,0.31685
5876.57,0.20272
5853.43,0.12212
5830.28,0.08171
5807.14,0.10593
5783.99,0.14364
5760.85,0.16699
5737.71,0.14333
5714.56,0.11641
5691.42,0.12679
5668.28,0.16983
5645.13,0.21834
5621.99,0.25559
5598.84,0.26861
5575.7,0.28142
5552.56,0.29181
5529.41,0.30320
5506.27,0.31483
5483.13,0.32791
5459.98,0.33641
5436.84,0.34677
5413.7,0.35014
5390.55,0.37684
5367.41,0.39609
5344.26,0.40174
5321.12,0.39871
5297.98,0.36167
5274.83,0.32230
5251.69,0.29224
5228.55,0.25623
5205.4,0.21354
5182.26,0.17505
5159.11,0.14777
5135.97,0.13322
5112.83,0.13584
5089.68,0.15424
5066.54,0.17258
5043.4,0.18900
5020.25,0.19233
4997.11,0.16142
4973.97,0.08906
4950.82,0.08510
4927.68,0.08252
4904.53,0.04543
4881.39,0.01423
4858.25,0.01980
4835.1,0.08945
4811.96,0.14318
4788.82,0.13488
4765.67,0.12628
4742.53,0.10357
4719.38,0.07296
4696.24,0.04480
4673.1,0.03869
4649.95,0.03662
4626.81,0.02596
4603.67,0.01309
4580.52,0.00775
4557.38,0.01133
4534.23,0.01338
4511.09,0.02155
4487.95,0.02976
4464.8,0.02612
4441.66,0.01517
4418.52,0.00644
4395.37,0.00097
4372.23,0.00114
4349.09,-0.00004
4325.94,0.00034
4302.8,0.00066
4279.65,0.00036
4256.51,0.00036
4233.37,0.00081
4210.22,0.00005
4187.08,0.00036
4163.94,-0.00004
4140.79,0.00067
4117.65,0.00086
4094.5,0.00087
4071.36,0.00080
4048.22,0.00039
4025.07,0.00036
4001.93,0.00066
3978.79,0.00097
3955.64,0.00348
3932.5,0.00681
3909.36,0.01104
3886.21,0.01554
3863.07,0.02125
3839.92,0.01378
3816.78,0.01718
3793.64,0.02150
3770.49,0.02681
3747.35,0.02216
3724.21,0.01926
3701.06,0.01087
3677.92,0.00073
3654.77,0.00047
3631.63,0.00021
3608.49,0.00082
3585.34,0.00021
3562.2,0.00041
3539.06,0.00046
3515.91,0.00029
3492.77,0.00045
3469.63,0.00020
3446.48,0.00021
3423.34,0.00035
3400.19,0.00096
3377.05,0.00037
3353.91,0.00032
3330.76,0.00027
3307.62,0.00053
3284.48,0.00060
3261.33,0.00038
3238.19,0.00060
3215.04,0.00043
3191.9,0.00068
3168.76,0.00070
3145.61,0.00044
3122.47,0.00038
3099.33,0.00044
3076.18,0.00032
3053.04,0.00054
3029.89,0.00005
3006.75,0.00043
2983.61,0.00036
2960.46,0.00059
2937.32,0.00033
2914.18,0.00075
2891.03,0.00030
2867.89,0.00023
2844.75,0.00036
2821.6,0.00049
2798.46,0.00029
2775.31,0.00037
2752.17,0.00062
2729.03,0.00014
2705.88,0.00045
2682.74,0.00036
2659.6,0.00024
2636.45,0.00024
2613.31,0.00020
2590.16,0.00022
2567.02,0.00037
2543.88,0.00014
2520.73,0.00029
2497.59,0.00029
2474.45,0.00026
2451.3,0.00038
2428.16,0.00042
2405.02,0.00050
2381.87,0.00050
2358.73,0.00014
2335.58,0.00046
2312.44,0.00031
2289.3,0.00073
2266.15,0.00041
2243.01,0.00029
2219.87,0.00022
2196.72,0.00028
2173.58,0.00021
2150.43,0.00024
2127.29,0.00034
2104.15,0.00028
2081,0.00026
2057.86,0.00054
2034.72,0.00056
2011.57,0.00144
1988.43,0.00163
1965.29,0.00133
1942.14,0.00204
1919,0.00208
1895.85,0.00116
1872.71,0.00071
1849.57,0.00059
1826.42,0.00025
1803.28,0.00034
1780.14,0.00013
1756.99,0.00026
1733.85,0.00033
1710.7,0.00043
1687.56,0.00030
1664.42,0.00028
1641.27,0.00029
1618.13,0.00032
1594.99,0.00018
1571.84,0.00013
1548.7,0.00016
1525.56,0.00015
1502.41,0.00036
1479.27,0.00032
1456.12,0.00036
1432.98,0.00043
1409.84,0.00058
1386.69,-0.00001
1363.55,0.00043
1340.41,0.00001
1317.26,0.00028
1294.12,0.00026
1270.97,0.00035
1247.83,0.00033
1224.69,0.00033
1201.54,0.00012
1178.4,0.00038
1155.26,0.00020
1132.11,0.00020
1108.97,0.00056
1085.82,0.00055
1062.68,0.00063
1039.54,0.00053
1016.39,0.00036
993.25,0.00060
970.106,0.00057
946.963,0.00043
923.819,0.00062
900.675,0.00038
877.532,0.00050
854.388,0.00056
831.244,0.00067
808.101,0.00045
784.957,-0.00013
761.813,0.00012
738.669,0.00061
715.526,0.00038
692.382,0.00102
669.238,0.00072
646.095,0.00131
622.951,0.00103
599.807,0.00249