File: 01_Data/PET/FTIR/IS/PET_IS_T_220831_R3.dpt
7497.03,0.02360
7473.89,0.02449
7450.74,0.01991
7427.6,0.02986
7404.45,0.02618
7381.31,0.02100
7358.16,0.02052
7335.02,0.02399
7311.87,0.02284
7288.73,0.02339
7265.58,0.02683
7242.44,0.02172
7219.29,0.03040
7196.15,0.02603
7173,0.03038
7149.86,0.02471
7126.71,0.02628
7103.57,0.02212
7080.42,0.02405
7057.28,0.01773
7034.13,0.02495
7010.99,0.01918
6987.84,0.02270
6964.7,0.02612
6941.55,0.02295
6918.41,0.02938
6895.26,0.02156
6872.12,0.02783
6848.97,0.02374
6825.83,0.02057
6802.68,0.02497
6779.54,0.02077
6756.39,0.02169
6733.25,0.02261
6710.1,0.01885
6686.96,0.02339
6663.82,0.01990
6640.67,0.02137
6617.53,0.02238
6594.38,0.02269
6571.24,0.02038
6548.09,0.02545
6524.95,0.02356
6501.8,0.02061
6478.66,0.02607
6455.51,0.01973
6432.37,0.02269
6409.22,0.02296
6386.08,0.02566
6362.93,0.02067
6339.79,0.02282
6316.64,0.02158
6293.5,0.01799
6270.35,0.02164
6247.21,0.02151
6224.06,0.01969
6200.92,0.02270
6177.77,0.02290
6154.63,0.02026
6131.48,0.01858
6108.34,0.02080
6085.19,0.02223
6062.05,0.02263
6038.9,0.02360
6015.76,0.02069
5992.61,0.02183
5969.47,0.02015
5946.32,0.02113
5923.18,0.02133
5900.03,0.02012
5876.89,0.02213
5853.74,0.01670
5830.6,0.02206
5807.45,0.02234
5784.31,0.01963
5761.16,0.02228
5738.02,0.02085
5714.87,0.02118
5691.73,0.02104
5668.58,0.02172
5645.44,0.02160
5622.29,0.02168
5599.15,0.02242
5576,0.02398
5552.86,0.02114
5529.71,0.02152
5506.57,0.02328
5483.42,0.02095
5460.28,0.02219
5437.13,0.02215
5413.99,0.02181
5390.84,0.02194
5367.7,0.02170
5344.55,0.02181
5321.41,0.02274
5298.26,0.02276
5275.12,0.02090
5251.97,0.02255
5228.83,0.02232
5205.68,0.02041
5182.54,0.02190
5159.39,0.02354
5136.25,0.02218
5113.1,0.02102
5089.96,0.02255
5066.81,0.02123
5043.67,0.02201
5020.52,0.02227
4997.38,0.02195
4974.23,0.02029
4951.09,0.02242
4927.94,0.02154
4904.8,0.02080
4881.65,0.02275
4858.51,0.02158
4835.36,0.02128
4812.22,0.02196
4789.07,0.02151
4765.93,0.02202
4742.78,0.02305
4719.64,0.02187
4696.49,0.02200
4673.35,0.02158
4650.2,0.02350
4627.06,0.02326
4603.92,0.02257
4580.77,0.02255
4557.63,0.02275
4534.48,0.02270
4511.34,0.02196
4488.19,0.02167
4465.05,0.02231
4441.9,0.02222
4418.76,0.02240
4395.61,0.02176
4372.47,0.02262
4349.32,0.02224
4326.18,0.02336
4303.03,0.02249
4279.89,0.02275
4256.74,0.02182
4233.6,0.02203
4210.45,0.02285
4187.31,0.02216
4164.16,0.02218
4141.02,0.02255
4117.87,0.02266
4094.73,0.02256
4071.58,0.02255
4048.44,0.02222
4025.29,0.02233
4002.15,0.02278
3979,0.02315
3955.86,0.02233
3932.71,0.02190
3909.57,0.02226
3886.42,0.02332
3863.28,0.02203
3840.13,0.02221
3816.99,0.02287
3793.84,0.02254
3770.7,0.02277
3747.55,0.02255
3724.41,0.02248
3701.26,0.02270
3678.12,0.02249
3654.97,0.02158
3631.83,0.02227
3608.68,0.02208
3585.54,0.02171
3562.39,0.02113
3539.25,0.02105
3516.1,0.02086
3492.96,0.02095
3469.81,0.02091
3446.67,0.02071
3423.52,0.02033
3400.38,0.02023
3377.23,0.02007
3354.09,0.02028
3330.94,0.02018
3307.8,0.02001
3284.65,0.02106
3261.51,0.02085
3238.36,0.01996
3215.22,0.02103
3192.07,0.02098
3168.93,0.02089
3145.78,0.02125
3122.64,0.02069
3099.49,0.02069
3076.35,0.02063
3053.2,0.02070
3030.06,0.02093
3006.91,0.02043
2983.77,0.01993
2960.62,0.02029
2937.48,0.01972
2914.33,0.02014
2891.19,0.02058
2868.04,0.01989
2844.9,0.02068
2821.75,0.02097
2798.61,0.02093
2775.46,0.02099
2752.32,0.02126
2729.17,0.02087
2706.03,0.02127
2682.88,0.02107
2659.74,0.02119
2636.59,0.02129
2613.45,0.02124
2590.3,0.02124
2567.16,0.02103
2544.02,0.02109
2520.87,0.02078
2497.73,0.02160
2474.58,0.02079
2451.44,0.02154
2428.29,0.02097
2405.15,0.02093
2382,0.02132
2358.86,0.02117
2335.71,0.02095
2312.57,0.02120
2289.42,0.02104
2266.28,0.02074
2243.13,0.02118
2219.99,0.02076
2196.84,0.02162
2173.7,0.02071
2150.55,0.02080
2127.41,0.02070
2104.26,0.02103
2081.12,0.02090
2057.97,0.02074
2034.83,0.02100
2011.68,0.02083
1988.54,0.02096
1965.39,0.02077
1942.25,0.02087
1919.1,0.02078
1895.96,0.02059
1872.81,0.02055
1849.67,0.02018
1826.52,0.02005
1803.38,0.01983
1780.23,0.01933
1757.09,0.01745
1733.94,0.01939
1710.8,0.02053
1687.65,0.01920
1664.51,0.01877
1641.36,0.01863
1618.22,0.01905
1595.07,0.01932
1571.93,0.01832
1548.78,0.01836
1525.64,0.01855
1502.49,0.01837
1479.35,0.01824
1456.2,0.01897
1433.06,0.01893
1409.91,0.01835
1386.77,0.01794
1363.62,0.01821
1340.48,0.01806
1317.33,0.01704
1294.19,0.01749
1271.04,0.01923
1247.9,0.01993
1224.75,0.01945
1201.61,0.01859
1178.46,0.01865
1155.32,0.01776
1132.17,0.01838
1109.03,0.01867
1085.88,0.01805
1062.74,0.02066
1039.59,0.01965
1016.45,0.01951
993.304,0.02121
970.159,0.02044
947.014,0.01946
923.869,0.01989
900.724,0.01936
877.579,0.01958
854.434,0.01930
831.289,0.01872
808.144,0.01817
784.999,0.01896
761.854,0.01841
738.709,0.01905
715.565,0.01814
692.42,0.01944
669.275,0.01727
646.13,0.01716
622.985,0.01549
599.84,0.01837