File: 01_Data/PET/FTIR/IS/PET_IS_S_220831_R3.dpt
7497.03,0.52299
7473.89,0.49702
7450.74,0.47363
7427.6,0.43872
7404.45,0.39476
7381.31,0.37909
7358.16,0.35682
7335.02,0.35581
7311.87,0.34560
7288.73,0.35091
7265.58,0.34577
7242.44,0.33264
7219.29,0.33145
7196.15,0.32632
7173,0.32413
7149.86,0.31588
7126.71,0.29313
7103.57,0.29339
7080.42,0.28774
7057.28,0.29257
7034.13,0.29757
7010.99,0.31120
6987.84,0.31469
6964.7,0.33075
6941.55,0.34356
6918.41,0.35263
6895.26,0.36550
6872.12,0.36780
6848.97,0.37197
6825.83,0.37666
6802.68,0.39218
6779.54,0.39660
6756.39,0.41054
6733.25,0.42793
6710.1,0.43151
6686.96,0.43038
6663.82,0.43245
6640.67,0.43807
6617.53,0.44579
6594.38,0.45091
6571.24,0.45836
6548.09,0.45668
6524.95,0.45018
6501.8,0.44958
6478.66,0.44651
6455.51,0.44333
6432.37,0.43731
6409.22,0.43743
6386.08,0.43711
6362.93,0.43751
6339.79,0.41638
6316.64,0.40934
6293.5,0.40882
6270.35,0.38983
6247.21,0.36558
6224.06,0.34442
6200.92,0.27679
6177.77,0.27060
6154.63,0.24472
6131.48,0.22155
6108.34,0.17923
6085.19,0.12374
6062.05,0.09608
6038.9,0.08542
6015.76,0.08053
5992.61,0.09222
5969.47,0.09870
5946.32,0.10568
5923.18,0.11830
5900.03,0.14025
5876.89,0.12485
5853.74,0.12169
5830.6,0.12461
5807.45,0.11930
5784.31,0.12291
5761.16,0.12910
5738.02,0.14259
5714.87,0.15258
5691.73,0.15633
5668.58,0.16367
5645.44,0.16665
5622.29,0.17748
5599.15,0.17840
5576,0.16711
5552.86,0.16511
5529.71,0.16388
5506.57,0.17013
5483.42,0.16102
5460.28,0.16757
5437.13,0.18331
5413.99,0.18893
5390.84,0.18378
5367.7,0.18191
5344.55,0.17587
5321.41,0.17881
5298.26,0.16661
5275.12,0.13430
5251.97,0.11425
5228.83,0.11880
5205.68,0.13638
5182.54,0.15062
5159.39,0.14621
5136.25,0.13399
5113.1,0.12505
5089.96,0.15001
5066.81,0.16577
5043.67,0.16822
5020.52,0.16590
4997.38,0.16701
4974.23,0.17040
4951.09,0.16376
4927.94,0.15600
4904.8,0.15155
4881.65,0.14595
4858.51,0.13954
4835.36,0.12502
4812.22,0.10814
4789.07,0.10496
4765.93,0.10982
4742.78,0.09204
4719.64,0.07681
4696.49,0.07097
4673.35,0.07695
4650.2,0.07855
4627.06,0.07572
4603.92,0.08829
4580.77,0.07776
4557.63,0.09124
4534.48,0.08994
4511.34,0.08399
4488.19,0.07111
4465.05,0.06682
4441.9,0.06569
4418.76,0.06606
4395.61,0.06722
4372.47,0.06741
4349.32,0.06734
4326.18,0.06778
4303.03,0.06606
4279.89,0.06574
4256.74,0.06646
4233.6,0.06666
4210.45,0.06816
4187.31,0.06670
4164.16,0.06747
4141.02,0.06714
4117.87,0.06532
4094.73,0.06430
4071.58,0.06515
4048.44,0.06703
4025.29,0.06895
4002.15,0.06864
3979,0.06882
3955.86,0.06928
3932.71,0.06957
3909.57,0.07002
3886.42,0.07109
3863.28,0.07261
3840.13,0.07306
3816.99,0.07175
3793.84,0.07118
3770.7,0.07019
3747.55,0.07154
3724.41,0.07102
3701.26,0.06780
3678.12,0.06465
3654.97,0.06307
3631.83,0.06377
3608.68,0.06410
3585.54,0.06329
3562.39,0.06262
3539.25,0.06279
3516.1,0.06331
3492.96,0.06369
3469.81,0.06278
3446.67,0.06199
3423.52,0.06195
3400.38,0.06335
3377.23,0.06348
3354.09,0.06341
3330.94,0.06333
3307.8,0.06326
3284.65,0.06320
3261.51,0.06342
3238.36,0.06315
3215.22,0.06331
3192.07,0.06336
3168.93,0.06296
3145.78,0.06204
3122.64,0.06226
3099.49,0.06174
3076.35,0.06105
3053.2,0.06123
3030.06,0.06073
3006.91,0.06110
2983.77,0.06020
2960.62,0.06149
2937.48,0.06289
2914.33,0.06438
2891.19,0.06319
2868.04,0.06272
2844.9,0.06477
2821.75,0.06317
2798.61,0.06248
2775.46,0.06307
2752.32,0.06285
2729.17,0.06313
2706.03,0.06391
2682.88,0.06354
2659.74,0.06356
2636.59,0.06263
2613.45,0.06205
2590.3,0.06170
2567.16,0.06164
2544.02,0.06166
2520.87,0.06168
2497.73,0.06201
2474.58,0.06254
2451.44,0.06209
2428.29,0.06120
2405.15,0.06091
2382,0.06067
2358.86,0.06083
2335.71,0.06093
2312.57,0.06104
2289.42,0.05979
2266.28,0.06023
2243.13,0.06003
2219.99,0.06011
2196.84,0.06014
2173.7,0.05959
2150.55,0.05936
2127.41,0.05896
2104.26,0.05919
2081.12,0.05849
2057.97,0.05828
2034.83,0.05854
2011.68,0.05786
1988.54,0.05689
1965.39,0.05657
1942.25,0.05632
1919.1,0.05574
1895.96,0.05507
1872.81,0.05400
1849.67,0.05238
1826.52,0.05124
1803.38,0.04865
1780.23,0.04490
1757.09,0.03540
1733.94,0.04498
1710.8,0.11748
1687.65,0.07545
1664.51,0.06843
1641.36,0.06428
1618.22,0.06167
1595.07,0.06028
1571.93,0.05907
1548.78,0.05682
1525.64,0.05473
1502.49,0.05576
1479.35,0.05155
1456.2,0.05031
1433.06,0.04985
1409.91,0.04842
1386.77,0.04873
1363.62,0.04666
1340.48,0.04980
1317.33,0.03157
1294.19,0.03196
1271.04,0.10457
1247.9,0.16054
1224.75,0.10843
1201.61,0.08194
1178.46,0.06669
1155.32,0.05382
1132.17,0.06078
1109.03,0.09219
1085.88,0.11701
1062.74,0.08997
1039.59,0.08096
1016.45,0.09883
993.304,0.08235
970.159,0.08013
947.014,0.07594
923.869,0.07267
900.724,0.06849
877.579,0.06645
854.434,0.07291
831.289,0.07300
808.144,0.06955
784.999,0.06984
761.854,0.06373
738.709,0.03722
715.565,0.10092
692.42,0.08158
669.275,0.07734
646.13,0.07305
622.985,0.07074
599.84,0.06789