File: 01_Data/PET/FTIR/IS/PET_IS_S_220831_R2.dpt
7497.03,0.51897
7473.89,0.49732
7450.74,0.46882
7427.6,0.43040
7404.45,0.40265
7381.31,0.38091
7358.16,0.35305
7335.02,0.34974
7311.87,0.35440
7288.73,0.35149
7265.58,0.34675
7242.44,0.33573
7219.29,0.32997
7196.15,0.32884
7173,0.32813
7149.86,0.30981
7126.71,0.30288
7103.57,0.29166
7080.42,0.29281
7057.28,0.28839
7034.13,0.29837
7010.99,0.30633
6987.84,0.32087
6964.7,0.32869
6941.55,0.34649
6918.41,0.34935
6895.26,0.36155
6872.12,0.36490
6848.97,0.36676
6825.83,0.37811
6802.68,0.39145
6779.54,0.39716
6756.39,0.40789
6733.25,0.42210
6710.1,0.43316
6686.96,0.42634
6663.82,0.43033
6640.67,0.44030
6617.53,0.44477
6594.38,0.45268
6571.24,0.45260
6548.09,0.44999
6524.95,0.44697
6501.8,0.44734
6478.66,0.44713
6455.51,0.44207
6432.37,0.43615
6409.22,0.43936
6386.08,0.43478
6362.93,0.43384
6339.79,0.41369
6316.64,0.40951
6293.5,0.40614
6270.35,0.38626
6247.21,0.36498
6224.06,0.34350
6200.92,0.27518
6177.77,0.26597
6154.63,0.24366
6131.48,0.21857
6108.34,0.17684
6085.19,0.12458
6062.05,0.10008
6038.9,0.08354
6015.76,0.08030
5992.61,0.09293
5969.47,0.09910
5946.32,0.10393
5923.18,0.12351
5900.03,0.13773
5876.89,0.12383
5853.74,0.12006
5830.6,0.12639
5807.45,0.11968
5784.31,0.12340
5761.16,0.13013
5738.02,0.14440
5714.87,0.15171
5691.73,0.15621
5668.58,0.16430
5645.44,0.16442
5622.29,0.17813
5599.15,0.17792
5576,0.16692
5552.86,0.16528
5529.71,0.16560
5506.57,0.16884
5483.42,0.16219
5460.28,0.16637
5437.13,0.18210
5413.99,0.18893
5390.84,0.18528
5367.7,0.18111
5344.55,0.17663
5321.41,0.17880
5298.26,0.16683
5275.12,0.13596
5251.97,0.11430
5228.83,0.11768
5205.68,0.13633
5182.54,0.15071
5159.39,0.14598
5136.25,0.13374
5113.1,0.12453
5089.96,0.14932
5066.81,0.16511
5043.67,0.16808
5020.52,0.16562
4997.38,0.16845
4974.23,0.17047
4951.09,0.16258
4927.94,0.15624
4904.8,0.15136
4881.65,0.14557
4858.51,0.14031
4835.36,0.12489
4812.22,0.10832
4789.07,0.10390
4765.93,0.10956
4742.78,0.09273
4719.64,0.07755
4696.49,0.07090
4673.35,0.07674
4650.2,0.07826
4627.06,0.07504
4603.92,0.08751
4580.77,0.07766
4557.63,0.09132
4534.48,0.09117
4511.34,0.08388
4488.19,0.07099
4465.05,0.06669
4441.9,0.06502
4418.76,0.06562
4395.61,0.06708
4372.47,0.06768
4349.32,0.06825
4326.18,0.06713
4303.03,0.06651
4279.89,0.06604
4256.74,0.06649
4233.6,0.06644
4210.45,0.06675
4187.31,0.06733
4164.16,0.06717
4141.02,0.06743
4117.87,0.06681
4094.73,0.06471
4071.58,0.06508
4048.44,0.06703
4025.29,0.06829
4002.15,0.06767
3979,0.06878
3955.86,0.06891
3932.71,0.06935
3909.57,0.07002
3886.42,0.07175
3863.28,0.07252
3840.13,0.07229
3816.99,0.07086
3793.84,0.07092
3770.7,0.07043
3747.55,0.07077
3724.41,0.07078
3701.26,0.06796
3678.12,0.06428
3654.97,0.06316
3631.83,0.06322
3608.68,0.06329
3585.54,0.06320
3562.39,0.06251
3539.25,0.06206
3516.1,0.06278
3492.96,0.06326
3469.81,0.06315
3446.67,0.06190
3423.52,0.06220
3400.38,0.06310
3377.23,0.06303
3354.09,0.06350
3330.94,0.06329
3307.8,0.06296
3284.65,0.06337
3261.51,0.06288
3238.36,0.06263
3215.22,0.06261
3192.07,0.06307
3168.93,0.06225
3145.78,0.06243
3122.64,0.06143
3099.49,0.06135
3076.35,0.06117
3053.2,0.06114
3030.06,0.06082
3006.91,0.06059
2983.77,0.06001
2960.62,0.06135
2937.48,0.06306
2914.33,0.06499
2891.19,0.06315
2868.04,0.06236
2844.9,0.06388
2821.75,0.06282
2798.61,0.06290
2775.46,0.06302
2752.32,0.06293
2729.17,0.06305
2706.03,0.06325
2682.88,0.06348
2659.74,0.06320
2636.59,0.06259
2613.45,0.06210
2590.3,0.06171
2567.16,0.06156
2544.02,0.06138
2520.87,0.06159
2497.73,0.06135
2474.58,0.06202
2451.44,0.06150
2428.29,0.06075
2405.15,0.06066
2382,0.06038
2358.86,0.06056
2335.71,0.06054
2312.57,0.06038
2289.42,0.06009
2266.28,0.05963
2243.13,0.05973
2219.99,0.05970
2196.84,0.06008
2173.7,0.05949
2150.55,0.05909
2127.41,0.05879
2104.26,0.05871
2081.12,0.05839
2057.97,0.05845
2034.83,0.05784
2011.68,0.05708
1988.54,0.05666
1965.39,0.05604
1942.25,0.05636
1919.1,0.05581
1895.96,0.05498
1872.81,0.05376
1849.67,0.05251
1826.52,0.05123
1803.38,0.04880
1780.23,0.04447
1757.09,0.03543
1733.94,0.04431
1710.8,0.11682
1687.65,0.07505
1664.51,0.06864
1641.36,0.06418
1618.22,0.06151
1595.07,0.05964
1571.93,0.05898
1548.78,0.05659
1525.64,0.05466
1502.49,0.05540
1479.35,0.05138
1456.2,0.05029
1433.06,0.05009
1409.91,0.04864
1386.77,0.04867
1363.62,0.04624
1340.48,0.04955
1317.33,0.03138
1294.19,0.03151
1271.04,0.10386
1247.9,0.15960
1224.75,0.10818
1201.61,0.08179
1178.46,0.06695
1155.32,0.05353
1132.17,0.05991
1109.03,0.09204
1085.88,0.11642
1062.74,0.08954
1039.59,0.08111
1016.45,0.09720
993.304,0.08192
970.159,0.08028
947.014,0.07622
923.869,0.07251
900.724,0.06822
877.579,0.06632
854.434,0.07244
831.289,0.07265
808.144,0.06971
784.999,0.06945
761.854,0.06427
738.709,0.03704
715.565,0.10032
692.42,0.08166
669.275,0.07680
646.13,0.07384
622.985,0.07443
599.84,0.07263