File: 01_Data/PET/FTIR/IS/PET_IS_S_220831_R5.dpt
7497.03,0.50780
7473.89,0.49502
7450.74,0.47084
7427.6,0.43598
7404.45,0.39705
7381.31,0.38367
7358.16,0.35735
7335.02,0.35455
7311.87,0.34725
7288.73,0.35335
7265.58,0.34095
7242.44,0.33951
7219.29,0.33416
7196.15,0.33213
7173,0.31843
7149.86,0.31627
7126.71,0.30165
7103.57,0.29007
7080.42,0.29140
7057.28,0.29102
7034.13,0.29716
7010.99,0.30407
6987.84,0.31515
6964.7,0.32987
6941.55,0.34631
6918.41,0.35635
6895.26,0.36438
6872.12,0.36581
6848.97,0.37338
6825.83,0.38137
6802.68,0.38873
6779.54,0.40265
6756.39,0.41196
6733.25,0.42556
6710.1,0.43257
6686.96,0.43147
6663.82,0.43176
6640.67,0.44156
6617.53,0.44379
6594.38,0.45471
6571.24,0.45703
6548.09,0.45043
6524.95,0.44988
6501.8,0.44431
6478.66,0.44859
6455.51,0.44964
6432.37,0.43614
6409.22,0.43592
6386.08,0.43861
6362.93,0.43460
6339.79,0.42007
6316.64,0.41460
6293.5,0.41207
6270.35,0.38999
6247.21,0.36578
6224.06,0.34312
6200.92,0.27271
6177.77,0.26901
6154.63,0.24386
6131.48,0.22337
6108.34,0.17411
6085.19,0.12406
6062.05,0.10136
6038.9,0.08697
6015.76,0.07939
5992.61,0.09219
5969.47,0.09715
5946.32,0.10574
5923.18,0.11958
5900.03,0.13972
5876.89,0.12432
5853.74,0.11905
5830.6,0.12319
5807.45,0.11953
5784.31,0.12222
5761.16,0.13166
5738.02,0.14504
5714.87,0.15378
5691.73,0.15609
5668.58,0.16485
5645.44,0.16557
5622.29,0.17753
5599.15,0.17819
5576,0.16764
5552.86,0.16536
5529.71,0.16529
5506.57,0.16997
5483.42,0.16429
5460.28,0.16655
5437.13,0.18355
5413.99,0.18708
5390.84,0.18651
5367.7,0.18186
5344.55,0.17661
5321.41,0.17970
5298.26,0.16645
5275.12,0.13578
5251.97,0.11441
5228.83,0.11956
5205.68,0.13667
5182.54,0.14953
5159.39,0.14560
5136.25,0.13274
5113.1,0.12535
5089.96,0.14913
5066.81,0.16542
5043.67,0.17001
5020.52,0.16562
4997.38,0.16932
4974.23,0.17208
4951.09,0.16350
4927.94,0.15660
4904.8,0.15138
4881.65,0.14549
4858.51,0.14121
4835.36,0.12502
4812.22,0.10881
4789.07,0.10337
4765.93,0.11067
4742.78,0.09231
4719.64,0.07831
4696.49,0.07219
4673.35,0.07623
4650.2,0.07863
4627.06,0.07582
4603.92,0.08869
4580.77,0.07744
4557.63,0.09173
4534.48,0.09145
4511.34,0.08342
4488.19,0.07271
4465.05,0.06729
4441.9,0.06632
4418.76,0.06622
4395.61,0.06759
4372.47,0.06826
4349.32,0.06790
4326.18,0.06730
4303.03,0.06584
4279.89,0.06619
4256.74,0.06619
4233.6,0.06659
4210.45,0.06763
4187.31,0.06710
4164.16,0.06720
4141.02,0.06755
4117.87,0.06644
4094.73,0.06459
4071.58,0.06575
4048.44,0.06730
4025.29,0.06806
4002.15,0.06795
3979,0.06821
3955.86,0.06889
3932.71,0.06929
3909.57,0.07058
3886.42,0.07153
3863.28,0.07220
3840.13,0.07244
3816.99,0.07137
3793.84,0.07164
3770.7,0.07067
3747.55,0.07084
3724.41,0.07072
3701.26,0.06814
3678.12,0.06374
3654.97,0.06330
3631.83,0.06328
3608.68,0.06338
3585.54,0.06284
3562.39,0.06199
3539.25,0.06251
3516.1,0.06299
3492.96,0.06333
3469.81,0.06291
3446.67,0.06102
3423.52,0.06247
3400.38,0.06345
3377.23,0.06392
3354.09,0.06355
3330.94,0.06351
3307.8,0.06331
3284.65,0.06365
3261.51,0.06359
3238.36,0.06375
3215.22,0.06265
3192.07,0.06286
3168.93,0.06253
3145.78,0.06253
3122.64,0.06193
3099.49,0.06181
3076.35,0.06101
3053.2,0.06097
3030.06,0.06134
3006.91,0.06069
2983.77,0.05977
2960.62,0.06079
2937.48,0.06300
2914.33,0.06497
2891.19,0.06266
2868.04,0.06289
2844.9,0.06420
2821.75,0.06320
2798.61,0.06269
2775.46,0.06311
2752.32,0.06317
2729.17,0.06299
2706.03,0.06352
2682.88,0.06374
2659.74,0.06392
2636.59,0.06281
2613.45,0.06255
2590.3,0.06179
2567.16,0.06187
2544.02,0.06171
2520.87,0.06161
2497.73,0.06192
2474.58,0.06212
2451.44,0.06163
2428.29,0.06134
2405.15,0.06102
2382,0.06074
2358.86,0.06108
2335.71,0.06111
2312.57,0.06123
2289.42,0.05995
2266.28,0.06001
2243.13,0.06012
2219.99,0.06029
2196.84,0.06032
2173.7,0.05990
2150.55,0.05931
2127.41,0.05864
2104.26,0.05858
2081.12,0.05842
2057.97,0.05857
2034.83,0.05816
2011.68,0.05746
1988.54,0.05716
1965.39,0.05645
1942.25,0.05644
1919.1,0.05583
1895.96,0.05512
1872.81,0.05413
1849.67,0.05310
1826.52,0.05151
1803.38,0.04892
1780.23,0.04507
1757.09,0.03546
1733.94,0.04498
1710.8,0.11721
1687.65,0.07544
1664.51,0.06857
1641.36,0.06431
1618.22,0.06181
1595.07,0.05962
1571.93,0.05932
1548.78,0.05698
1525.64,0.05492
1502.49,0.05551
1479.35,0.05143
1456.2,0.05046
1433.06,0.05014
1409.91,0.04838
1386.77,0.04908
1363.62,0.04663
1340.48,0.04933
1317.33,0.03112
1294.19,0.03178
1271.04,0.10461
1247.9,0.16046
1224.75,0.10845
1201.61,0.08211
1178.46,0.06660
1155.32,0.05383
1132.17,0.06100
1109.03,0.09177
1085.88,0.11656
1062.74,0.09026
1039.59,0.08097
1016.45,0.09857
993.304,0.08232
970.159,0.08064
947.014,0.07678
923.869,0.07265
900.724,0.06822
877.579,0.06681
854.434,0.07174
831.289,0.07243
808.144,0.07074
784.999,0.07007
761.854,0.06362
738.709,0.03626
715.565,0.10150
692.42,0.08285
669.275,0.07767
646.13,0.07415
622.985,0.06962
599.84,0.07102