File: 01_Data/PET/FTIR/IS/PET_IS_S_220831_R6.dpt
7497.03,0.51682
7473.89,0.50702
7450.74,0.47551
7427.6,0.43342
7404.45,0.40537
7381.31,0.38191
7358.16,0.35891
7335.02,0.35493
7311.87,0.35446
7288.73,0.34711
7265.58,0.34572
7242.44,0.33884
7219.29,0.33841
7196.15,0.33265
7173,0.32652
7149.86,0.31173
7126.71,0.29347
7103.57,0.28922
7080.42,0.28963
7057.28,0.29146
7034.13,0.28916
7010.99,0.30794
6987.84,0.32047
6964.7,0.32882
6941.55,0.34324
6918.41,0.35410
6895.26,0.36165
6872.12,0.37060
6848.97,0.36840
6825.83,0.38011
6802.68,0.39152
6779.54,0.39738
6756.39,0.41138
6733.25,0.42846
6710.1,0.42776
6686.96,0.43123
6663.82,0.43584
6640.67,0.43397
6617.53,0.44475
6594.38,0.45147
6571.24,0.45304
6548.09,0.45299
6524.95,0.44703
6501.8,0.44587
6478.66,0.45138
6455.51,0.44306
6432.37,0.43699
6409.22,0.43607
6386.08,0.43595
6362.93,0.43358
6339.79,0.41688
6316.64,0.41248
6293.5,0.40607
6270.35,0.38949
6247.21,0.36613
6224.06,0.34562
6200.92,0.27291
6177.77,0.26994
6154.63,0.24337
6131.48,0.21816
6108.34,0.17558
6085.19,0.12524
6062.05,0.10043
6038.9,0.08609
6015.76,0.07885
5992.61,0.09170
5969.47,0.09894
5946.32,0.10585
5923.18,0.12371
5900.03,0.13709
5876.89,0.12237
5853.74,0.11839
5830.6,0.12624
5807.45,0.12079
5784.31,0.12375
5761.16,0.13117
5738.02,0.14410
5714.87,0.15364
5691.73,0.15675
5668.58,0.16218
5645.44,0.16407
5622.29,0.17849
5599.15,0.17897
5576,0.16881
5552.86,0.16509
5529.71,0.16408
5506.57,0.17000
5483.42,0.16404
5460.28,0.16673
5437.13,0.18093
5413.99,0.18883
5390.84,0.18364
5367.7,0.18167
5344.55,0.17798
5321.41,0.18004
5298.26,0.16386
5275.12,0.13446
5251.97,0.11606
5228.83,0.11847
5205.68,0.13689
5182.54,0.14843
5159.39,0.14810
5136.25,0.13400
5113.1,0.12493
5089.96,0.14900
5066.81,0.16413
5043.67,0.16922
5020.52,0.16573
4997.38,0.16741
4974.23,0.17173
4951.09,0.16377
4927.94,0.15761
4904.8,0.15175
4881.65,0.14557
4858.51,0.14012
4835.36,0.12427
4812.22,0.10744
4789.07,0.10453
4765.93,0.10908
4742.78,0.09308
4719.64,0.07694
4696.49,0.07154
4673.35,0.07572
4650.2,0.07947
4627.06,0.07513
4603.92,0.08706
4580.77,0.07745
4557.63,0.09166
4534.48,0.09014
4511.34,0.08359
4488.19,0.07180
4465.05,0.06675
4441.9,0.06529
4418.76,0.06558
4395.61,0.06743
4372.47,0.06817
4349.32,0.06766
4326.18,0.06733
4303.03,0.06649
4279.89,0.06601
4256.74,0.06739
4233.6,0.06669
4210.45,0.06761
4187.31,0.06678
4164.16,0.06729
4141.02,0.06752
4117.87,0.06633
4094.73,0.06416
4071.58,0.06500
4048.44,0.06682
4025.29,0.06791
4002.15,0.06807
3979,0.06882
3955.86,0.06936
3932.71,0.06957
3909.57,0.07004
3886.42,0.07117
3863.28,0.07185
3840.13,0.07263
3816.99,0.07159
3793.84,0.07156
3770.7,0.07018
3747.55,0.07091
3724.41,0.07055
3701.26,0.06863
3678.12,0.06509
3654.97,0.06349
3631.83,0.06347
3608.68,0.06374
3585.54,0.06366
3562.39,0.06328
3539.25,0.06283
3516.1,0.06341
3492.96,0.06317
3469.81,0.06297
3446.67,0.06172
3423.52,0.06191
3400.38,0.06401
3377.23,0.06431
3354.09,0.06274
3330.94,0.06273
3307.8,0.06314
3284.65,0.06354
3261.51,0.06369
3238.36,0.06294
3215.22,0.06364
3192.07,0.06228
3168.93,0.06288
3145.78,0.06175
3122.64,0.06180
3099.49,0.06078
3076.35,0.06112
3053.2,0.06116
3030.06,0.06074
3006.91,0.06003
2983.77,0.06040
2960.62,0.06160
2937.48,0.06280
2914.33,0.06518
2891.19,0.06291
2868.04,0.06257
2844.9,0.06437
2821.75,0.06325
2798.61,0.06312
2775.46,0.06318
2752.32,0.06281
2729.17,0.06290
2706.03,0.06354
2682.88,0.06386
2659.74,0.06376
2636.59,0.06282
2613.45,0.06264
2590.3,0.06192
2567.16,0.06150
2544.02,0.06139
2520.87,0.06169
2497.73,0.06182
2474.58,0.06219
2451.44,0.06187
2428.29,0.06127
2405.15,0.06072
2382,0.06093
2358.86,0.06069
2335.71,0.06106
2312.57,0.06076
2289.42,0.06015
2266.28,0.05991
2243.13,0.05985
2219.99,0.05971
2196.84,0.06018
2173.7,0.05978
2150.55,0.05933
2127.41,0.05844
2104.26,0.05866
2081.12,0.05836
2057.97,0.05827
2034.83,0.05862
2011.68,0.05730
1988.54,0.05671
1965.39,0.05644
1942.25,0.05608
1919.1,0.05591
1895.96,0.05516
1872.81,0.05415
1849.67,0.05272
1826.52,0.05069
1803.38,0.04897
1780.23,0.04458
1757.09,0.03523
1733.94,0.04465
1710.8,0.11729
1687.65,0.07493
1664.51,0.06882
1641.36,0.06456
1618.22,0.06153
1595.07,0.05964
1571.93,0.05925
1548.78,0.05672
1525.64,0.05501
1502.49,0.05566
1479.35,0.05126
1456.2,0.05072
1433.06,0.05009
1409.91,0.04814
1386.77,0.04871
1363.62,0.04652
1340.48,0.04944
1317.33,0.03132
1294.19,0.03185
1271.04,0.10409
1247.9,0.16043
1224.75,0.10827
1201.61,0.08191
1178.46,0.06699
1155.32,0.05431
1132.17,0.05989
1109.03,0.09173
1085.88,0.11660
1062.74,0.08988
1039.59,0.08075
1016.45,0.09833
993.304,0.08211
970.159,0.08008
947.014,0.07693
923.869,0.07214
900.724,0.06860
877.579,0.06654
854.434,0.07229
831.289,0.07195
808.144,0.07011
784.999,0.06997
761.854,0.06351
738.709,0.03574
715.565,0.10002
692.42,0.08213
669.275,0.07746
646.13,0.07328
622.985,0.07202
599.84,0.06954