File: 01_Data/PET/FTIR/IS/PET_IS_S_220831_R4.dpt
7497.03,0.51352
7473.89,0.50108
7450.74,0.46534
7427.6,0.43262
7404.45,0.40792
7381.31,0.38679
7358.16,0.36124
7335.02,0.35163
7311.87,0.35765
7288.73,0.35083
7265.58,0.34616
7242.44,0.34007
7219.29,0.34095
7196.15,0.33471
7173,0.32643
7149.86,0.31435
7126.71,0.30138
7103.57,0.29217
7080.42,0.29567
7057.28,0.29458
7034.13,0.29770
7010.99,0.30259
6987.84,0.32507
6964.7,0.32830
6941.55,0.34224
6918.41,0.35557
6895.26,0.36717
6872.12,0.36556
6848.97,0.37241
6825.83,0.37683
6802.68,0.38811
6779.54,0.39844
6756.39,0.41091
6733.25,0.42954
6710.1,0.42830
6686.96,0.43400
6663.82,0.43319
6640.67,0.44529
6617.53,0.44652
6594.38,0.45429
6571.24,0.45306
6548.09,0.45212
6524.95,0.44700
6501.8,0.45117
6478.66,0.45117
6455.51,0.44679
6432.37,0.43560
6409.22,0.43973
6386.08,0.44030
6362.93,0.43552
6339.79,0.41981
6316.64,0.41094
6293.5,0.40809
6270.35,0.38694
6247.21,0.36563
6224.06,0.34769
6200.92,0.27409
6177.77,0.27209
6154.63,0.24260
6131.48,0.22186
6108.34,0.17517
6085.19,0.12573
6062.05,0.09886
6038.9,0.08482
6015.76,0.08036
5992.61,0.09320
5969.47,0.09829
5946.32,0.10578
5923.18,0.12211
5900.03,0.13875
5876.89,0.12671
5853.74,0.11945
5830.6,0.12274
5807.45,0.12178
5784.31,0.12238
5761.16,0.13237
5738.02,0.14623
5714.87,0.15315
5691.73,0.15627
5668.58,0.16120
5645.44,0.16342
5622.29,0.17933
5599.15,0.17959
5576,0.16808
5552.86,0.16647
5529.71,0.16573
5506.57,0.16818
5483.42,0.16359
5460.28,0.16853
5437.13,0.18427
5413.99,0.18914
5390.84,0.18640
5367.7,0.18479
5344.55,0.17821
5321.41,0.18054
5298.26,0.16748
5275.12,0.13457
5251.97,0.11508
5228.83,0.11989
5205.68,0.13848
5182.54,0.15065
5159.39,0.14672
5136.25,0.13427
5113.1,0.12518
5089.96,0.14995
5066.81,0.16510
5043.67,0.16988
5020.52,0.16572
4997.38,0.16790
4974.23,0.17201
4951.09,0.16417
4927.94,0.15674
4904.8,0.15054
4881.65,0.14601
4858.51,0.14042
4835.36,0.12549
4812.22,0.10806
4789.07,0.10523
4765.93,0.11056
4742.78,0.09217
4719.64,0.07755
4696.49,0.07080
4673.35,0.07610
4650.2,0.07996
4627.06,0.07501
4603.92,0.08766
4580.77,0.07822
4557.63,0.09207
4534.48,0.09086
4511.34,0.08407
4488.19,0.07121
4465.05,0.06746
4441.9,0.06607
4418.76,0.06594
4395.61,0.06687
4372.47,0.06816
4349.32,0.06801
4326.18,0.06729
4303.03,0.06634
4279.89,0.06588
4256.74,0.06673
4233.6,0.06662
4210.45,0.06715
4187.31,0.06700
4164.16,0.06735
4141.02,0.06753
4117.87,0.06638
4094.73,0.06429
4071.58,0.06555
4048.44,0.06722
4025.29,0.06828
4002.15,0.06776
3979,0.06894
3955.86,0.06983
3932.71,0.07026
3909.57,0.07025
3886.42,0.07206
3863.28,0.07223
3840.13,0.07226
3816.99,0.07187
3793.84,0.07150
3770.7,0.07034
3747.55,0.07138
3724.41,0.07191
3701.26,0.06824
3678.12,0.06487
3654.97,0.06364
3631.83,0.06329
3608.68,0.06396
3585.54,0.06344
3562.39,0.06219
3539.25,0.06306
3516.1,0.06326
3492.96,0.06378
3469.81,0.06314
3446.67,0.06301
3423.52,0.06221
3400.38,0.06389
3377.23,0.06417
3354.09,0.06398
3330.94,0.06324
3307.8,0.06350
3284.65,0.06380
3261.51,0.06313
3238.36,0.06377
3215.22,0.06315
3192.07,0.06342
3168.93,0.06274
3145.78,0.06230
3122.64,0.06201
3099.49,0.06176
3076.35,0.06159
3053.2,0.06133
3030.06,0.06048
3006.91,0.06069
2983.77,0.05993
2960.62,0.06137
2937.48,0.06310
2914.33,0.06502
2891.19,0.06330
2868.04,0.06284
2844.9,0.06435
2821.75,0.06336
2798.61,0.06283
2775.46,0.06301
2752.32,0.06290
2729.17,0.06323
2706.03,0.06387
2682.88,0.06364
2659.74,0.06408
2636.59,0.06341
2613.45,0.06286
2590.3,0.06223
2567.16,0.06204
2544.02,0.06207
2520.87,0.06200
2497.73,0.06119
2474.58,0.06241
2451.44,0.06217
2428.29,0.06149
2405.15,0.06071
2382,0.06088
2358.86,0.06062
2335.71,0.06103
2312.57,0.06108
2289.42,0.06016
2266.28,0.06017
2243.13,0.06001
2219.99,0.06001
2196.84,0.06065
2173.7,0.05998
2150.55,0.05960
2127.41,0.05884
2104.26,0.05910
2081.12,0.05889
2057.97,0.05867
2034.83,0.05842
2011.68,0.05782
1988.54,0.05700
1965.39,0.05639
1942.25,0.05663
1919.1,0.05584
1895.96,0.05527
1872.81,0.05418
1849.67,0.05294
1826.52,0.05128
1803.38,0.04891
1780.23,0.04510
1757.09,0.03545
1733.94,0.04535
1710.8,0.11775
1687.65,0.07573
1664.51,0.06859
1641.36,0.06489
1618.22,0.06209
1595.07,0.06017
1571.93,0.05957
1548.78,0.05725
1525.64,0.05477
1502.49,0.05584
1479.35,0.05172
1456.2,0.05024
1433.06,0.05035
1409.91,0.04866
1386.77,0.04880
1363.62,0.04664
1340.48,0.04950
1317.33,0.03132
1294.19,0.03181
1271.04,0.10457
1247.9,0.16098
1224.75,0.10855
1201.61,0.08214
1178.46,0.06683
1155.32,0.05346
1132.17,0.06060
1109.03,0.09219
1085.88,0.11677
1062.74,0.08986
1039.59,0.08094
1016.45,0.09884
993.304,0.08328
970.159,0.08059
947.014,0.07656
923.869,0.07281
900.724,0.06881
877.579,0.06666
854.434,0.07287
831.289,0.07310
808.144,0.07013
784.999,0.06953
761.854,0.06299
738.709,0.03681
715.565,0.10127
692.42,0.08226
669.275,0.07699
646.13,0.07278
622.985,0.07349
599.84,0.07318