File: 01_Data/PET/FTIR/IS/PET_IS_S_220831_R8.dpt
7497.03,0.51492
7473.89,0.49827
7450.74,0.47384
7427.6,0.43493
7404.45,0.39940
7381.31,0.38034
7358.16,0.36149
7335.02,0.35130
7311.87,0.35418
7288.73,0.34576
7265.58,0.34346
7242.44,0.33656
7219.29,0.33439
7196.15,0.32573
7173,0.31933
7149.86,0.31275
7126.71,0.29299
7103.57,0.29567
7080.42,0.28800
7057.28,0.29030
7034.13,0.29560
7010.99,0.30445
6987.84,0.32290
6964.7,0.33118
6941.55,0.34190
6918.41,0.34594
6895.26,0.36536
6872.12,0.36924
6848.97,0.36626
6825.83,0.37679
6802.68,0.39000
6779.54,0.39196
6756.39,0.40776
6733.25,0.42275
6710.1,0.42594
6686.96,0.42845
6663.82,0.43068
6640.67,0.43654
6617.53,0.44694
6594.38,0.45200
6571.24,0.45393
6548.09,0.45346
6524.95,0.44388
6501.8,0.44549
6478.66,0.44514
6455.51,0.43933
6432.37,0.43631
6409.22,0.43432
6386.08,0.43951
6362.93,0.43154
6339.79,0.41315
6316.64,0.40701
6293.5,0.40296
6270.35,0.38727
6247.21,0.36614
6224.06,0.34295
6200.92,0.27302
6177.77,0.26679
6154.63,0.24158
6131.48,0.21567
6108.34,0.17673
6085.19,0.12578
6062.05,0.09564
6038.9,0.08452
6015.76,0.07943
5992.61,0.09281
5969.47,0.09753
5946.32,0.10441
5923.18,0.12089
5900.03,0.13911
5876.89,0.12351
5853.74,0.11803
5830.6,0.12454
5807.45,0.11985
5784.31,0.12302
5761.16,0.13108
5738.02,0.14339
5714.87,0.15506
5691.73,0.15692
5668.58,0.16184
5645.44,0.16392
5622.29,0.17619
5599.15,0.17821
5576,0.16654
5552.86,0.16513
5529.71,0.16547
5506.57,0.16869
5483.42,0.16304
5460.28,0.16712
5437.13,0.18187
5413.99,0.18750
5390.84,0.18507
5367.7,0.18086
5344.55,0.17593
5321.41,0.17707
5298.26,0.16593
5275.12,0.13477
5251.97,0.11448
5228.83,0.11982
5205.68,0.13620
5182.54,0.14933
5159.39,0.14775
5136.25,0.13245
5113.1,0.12342
5089.96,0.14950
5066.81,0.16418
5043.67,0.16779
5020.52,0.16617
4997.38,0.16621
4974.23,0.17117
4951.09,0.16124
4927.94,0.15728
4904.8,0.15011
4881.65,0.14457
4858.51,0.13991
4835.36,0.12430
4812.22,0.10807
4789.07,0.10349
4765.93,0.10913
4742.78,0.09236
4719.64,0.07807
4696.49,0.07050
4673.35,0.07612
4650.2,0.07828
4627.06,0.07499
4603.92,0.08694
4580.77,0.07793
4557.63,0.09171
4534.48,0.09115
4511.34,0.08361
4488.19,0.07121
4465.05,0.06682
4441.9,0.06547
4418.76,0.06535
4395.61,0.06673
4372.47,0.06712
4349.32,0.06727
4326.18,0.06756
4303.03,0.06586
4279.89,0.06533
4256.74,0.06558
4233.6,0.06666
4210.45,0.06697
4187.31,0.06664
4164.16,0.06727
4141.02,0.06714
4117.87,0.06598
4094.73,0.06441
4071.58,0.06569
4048.44,0.06646
4025.29,0.06788
4002.15,0.06828
3979,0.06781
3955.86,0.06890
3932.71,0.06929
3909.57,0.06986
3886.42,0.07185
3863.28,0.07183
3840.13,0.07205
3816.99,0.07144
3793.84,0.07096
3770.7,0.07065
3747.55,0.07040
3724.41,0.07041
3701.26,0.06796
3678.12,0.06442
3654.97,0.06262
3631.83,0.06298
3608.68,0.06340
3585.54,0.06281
3562.39,0.06254
3539.25,0.06252
3516.1,0.06323
3492.96,0.06329
3469.81,0.06235
3446.67,0.06209
3423.52,0.06125
3400.38,0.06333
3377.23,0.06355
3354.09,0.06371
3330.94,0.06250
3307.8,0.06283
3284.65,0.06331
3261.51,0.06326
3238.36,0.06314
3215.22,0.06306
3192.07,0.06255
3168.93,0.06222
3145.78,0.06169
3122.64,0.06150
3099.49,0.06111
3076.35,0.06081
3053.2,0.06079
3030.06,0.06103
3006.91,0.06050
2983.77,0.06020
2960.62,0.06086
2937.48,0.06285
2914.33,0.06485
2891.19,0.06299
2868.04,0.06246
2844.9,0.06423
2821.75,0.06340
2798.61,0.06256
2775.46,0.06272
2752.32,0.06282
2729.17,0.06281
2706.03,0.06334
2682.88,0.06366
2659.74,0.06322
2636.59,0.06250
2613.45,0.06229
2590.3,0.06166
2567.16,0.06206
2544.02,0.06120
2520.87,0.06143
2497.73,0.06132
2474.58,0.06202
2451.44,0.06203
2428.29,0.06107
2405.15,0.06053
2382,0.06030
2358.86,0.06035
2335.71,0.06071
2312.57,0.06049
2289.42,0.05969
2266.28,0.05966
2243.13,0.05994
2219.99,0.05961
2196.84,0.05997
2173.7,0.05922
2150.55,0.05871
2127.41,0.05850
2104.26,0.05801
2081.12,0.05809
2057.97,0.05845
2034.83,0.05791
2011.68,0.05692
1988.54,0.05666
1965.39,0.05639
1942.25,0.05597
1919.1,0.05585
1895.96,0.05484
1872.81,0.05381
1849.67,0.05194
1826.52,0.05090
1803.38,0.04868
1780.23,0.04446
1757.09,0.03545
1733.94,0.04454
1710.8,0.11642
1687.65,0.07498
1664.51,0.06831
1641.36,0.06458
1618.22,0.06111
1595.07,0.05964
1571.93,0.05890
1548.78,0.05644
1525.64,0.05478
1502.49,0.05510
1479.35,0.05142
1456.2,0.05046
1433.06,0.04982
1409.91,0.04838
1386.77,0.04843
1363.62,0.04589
1340.48,0.04926
1317.33,0.03141
1294.19,0.03141
1271.04,0.10384
1247.9,0.15988
1224.75,0.10772
1201.61,0.08150
1178.46,0.06704
1155.32,0.05385
1132.17,0.06021
1109.03,0.09120
1085.88,0.11582
1062.74,0.09022
1039.59,0.08033
1016.45,0.09827
993.304,0.08244
970.159,0.07992
947.014,0.07637
923.869,0.07230
900.724,0.06914
877.579,0.06616
854.434,0.07220
831.289,0.07301
808.144,0.07012
784.999,0.06927
761.854,0.06280
738.709,0.03695
715.565,0.10062
692.42,0.08220
669.275,0.07761
646.13,0.07363
622.985,0.07093
599.84,0.06936