File: 01_Data/PET/FTIR/IS/PET_IS_S_220831_R7.dpt
7497.03,0.51313
7473.89,0.49913
7450.74,0.46807
7427.6,0.42948
7404.45,0.40042
7381.31,0.38257
7358.16,0.35668
7335.02,0.35476
7311.87,0.35300
7288.73,0.34333
7265.58,0.35009
7242.44,0.33174
7219.29,0.33907
7196.15,0.32803
7173,0.32396
7149.86,0.31689
7126.71,0.30482
7103.57,0.29308
7080.42,0.29490
7057.28,0.29705
7034.13,0.29056
7010.99,0.31116
6987.84,0.31316
6964.7,0.32465
6941.55,0.34411
6918.41,0.35225
6895.26,0.36288
6872.12,0.36433
6848.97,0.36926
6825.83,0.37684
6802.68,0.39172
6779.54,0.39938
6756.39,0.41038
6733.25,0.42526
6710.1,0.42782
6686.96,0.42981
6663.82,0.43693
6640.67,0.44204
6617.53,0.44133
6594.38,0.45051
6571.24,0.45668
6548.09,0.45561
6524.95,0.45003
6501.8,0.44478
6478.66,0.45262
6455.51,0.44568
6432.37,0.43269
6409.22,0.44014
6386.08,0.43822
6362.93,0.43191
6339.79,0.41708
6316.64,0.41326
6293.5,0.40238
6270.35,0.38780
6247.21,0.36709
6224.06,0.34136
6200.92,0.27497
6177.77,0.27004
6154.63,0.24217
6131.48,0.21760
6108.34,0.17629
6085.19,0.12670
6062.05,0.09768
6038.9,0.08426
6015.76,0.08343
5992.61,0.09277
5969.47,0.09747
5946.32,0.10390
5923.18,0.12089
5900.03,0.13826
5876.89,0.12309
5853.74,0.11879
5830.6,0.12319
5807.45,0.12136
5784.31,0.12350
5761.16,0.13170
5738.02,0.14499
5714.87,0.15349
5691.73,0.15629
5668.58,0.16336
5645.44,0.16532
5622.29,0.17781
5599.15,0.17726
5576,0.17150
5552.86,0.16666
5529.71,0.16490
5506.57,0.16980
5483.42,0.16340
5460.28,0.16806
5437.13,0.18234
5413.99,0.18912
5390.84,0.18467
5367.7,0.18217
5344.55,0.17668
5321.41,0.17830
5298.26,0.16820
5275.12,0.13608
5251.97,0.11454
5228.83,0.11969
5205.68,0.13694
5182.54,0.15011
5159.39,0.14652
5136.25,0.13455
5113.1,0.12463
5089.96,0.14888
5066.81,0.16496
5043.67,0.16923
5020.52,0.16688
4997.38,0.16856
4974.23,0.17089
4951.09,0.16404
4927.94,0.15752
4904.8,0.15147
4881.65,0.14467
4858.51,0.14059
4835.36,0.12439
4812.22,0.10865
4789.07,0.10435
4765.93,0.10910
4742.78,0.09275
4719.64,0.07685
4696.49,0.07129
4673.35,0.07612
4650.2,0.07850
4627.06,0.07497
4603.92,0.08701
4580.77,0.07743
4557.63,0.09199
4534.48,0.09023
4511.34,0.08387
4488.19,0.07182
4465.05,0.06714
4441.9,0.06604
4418.76,0.06622
4395.61,0.06740
4372.47,0.06782
4349.32,0.06771
4326.18,0.06721
4303.03,0.06660
4279.89,0.06478
4256.74,0.06641
4233.6,0.06593
4210.45,0.06773
4187.31,0.06740
4164.16,0.06749
4141.02,0.06691
4117.87,0.06650
4094.73,0.06439
4071.58,0.06553
4048.44,0.06710
4025.29,0.06773
4002.15,0.06761
3979,0.06843
3955.86,0.06999
3932.71,0.07007
3909.57,0.06972
3886.42,0.07206
3863.28,0.07226
3840.13,0.07243
3816.99,0.07195
3793.84,0.07151
3770.7,0.06995
3747.55,0.07062
3724.41,0.07143
3701.26,0.06826
3678.12,0.06482
3654.97,0.06366
3631.83,0.06376
3608.68,0.06371
3585.54,0.06341
3562.39,0.06290
3539.25,0.06262
3516.1,0.06283
3492.96,0.06289
3469.81,0.06295
3446.67,0.06203
3423.52,0.06207
3400.38,0.06322
3377.23,0.06429
3354.09,0.06381
3330.94,0.06362
3307.8,0.06352
3284.65,0.06447
3261.51,0.06314
3238.36,0.06249
3215.22,0.06332
3192.07,0.06264
3168.93,0.06272
3145.78,0.06274
3122.64,0.06176
3099.49,0.06190
3076.35,0.06139
3053.2,0.06116
3030.06,0.06152
3006.91,0.06038
2983.77,0.05998
2960.62,0.06139
2937.48,0.06310
2914.33,0.06492
2891.19,0.06330
2868.04,0.06310
2844.9,0.06464
2821.75,0.06303
2798.61,0.06264
2775.46,0.06315
2752.32,0.06302
2729.17,0.06307
2706.03,0.06356
2682.88,0.06335
2659.74,0.06342
2636.59,0.06240
2613.45,0.06255
2590.3,0.06234
2567.16,0.06183
2544.02,0.06140
2520.87,0.06150
2497.73,0.06200
2474.58,0.06160
2451.44,0.06202
2428.29,0.06132
2405.15,0.06059
2382,0.06046
2358.86,0.06096
2335.71,0.06097
2312.57,0.06069
2289.42,0.05987
2266.28,0.06024
2243.13,0.06030
2219.99,0.05996
2196.84,0.06027
2173.7,0.05990
2150.55,0.05904
2127.41,0.05874
2104.26,0.05853
2081.12,0.05898
2057.97,0.05866
2034.83,0.05796
2011.68,0.05733
1988.54,0.05677
1965.39,0.05610
1942.25,0.05619
1919.1,0.05555
1895.96,0.05508
1872.81,0.05423
1849.67,0.05291
1826.52,0.05081
1803.38,0.04882
1780.23,0.04489
1757.09,0.03504
1733.94,0.04525
1710.8,0.11740
1687.65,0.07526
1664.51,0.06860
1641.36,0.06413
1618.22,0.06178
1595.07,0.06020
1571.93,0.05908
1548.78,0.05714
1525.64,0.05471
1502.49,0.05534
1479.35,0.05130
1456.2,0.05060
1433.06,0.04994
1409.91,0.04861
1386.77,0.04868
1363.62,0.04721
1340.48,0.04900
1317.33,0.03149
1294.19,0.03188
1271.04,0.10458
1247.9,0.16068
1224.75,0.10830
1201.61,0.08220
1178.46,0.06717
1155.32,0.05408
1132.17,0.06067
1109.03,0.09266
1085.88,0.11597
1062.74,0.09005
1039.59,0.08094
1016.45,0.09832
993.304,0.08286
970.159,0.08056
947.014,0.07643
923.869,0.07293
900.724,0.06860
877.579,0.06697
854.434,0.07247
831.289,0.07232
808.144,0.06979
784.999,0.06995
761.854,0.06259
738.709,0.03644
715.565,0.10031
692.42,0.08262
669.275,0.07748
646.13,0.07442
622.985,0.07139
599.84,0.07057