File: 01_Data/PET/FTIR/IS/PET_IS_S_220831_R1.dpt
7497.03,0.51109
7473.89,0.49650
7450.74,0.46719
7427.6,0.43838
7404.45,0.40784
7381.31,0.38271
7358.16,0.36370
7335.02,0.35244
7311.87,0.35643
7288.73,0.34797
7265.58,0.34390
7242.44,0.34057
7219.29,0.32428
7196.15,0.33219
7173,0.32573
7149.86,0.31086
7126.71,0.29390
7103.57,0.29258
7080.42,0.29313
7057.28,0.29150
7034.13,0.29654
7010.99,0.30471
6987.84,0.32230
6964.7,0.32458
6941.55,0.34026
6918.41,0.35304
6895.26,0.35636
6872.12,0.36459
6848.97,0.36880
6825.83,0.37617
6802.68,0.38635
6779.54,0.39722
6756.39,0.40804
6733.25,0.42325
6710.1,0.42751
6686.96,0.42954
6663.82,0.43659
6640.67,0.43844
6617.53,0.44479
6594.38,0.44988
6571.24,0.45490
6548.09,0.45188
6524.95,0.44378
6501.8,0.44412
6478.66,0.44834
6455.51,0.44265
6432.37,0.43790
6409.22,0.43882
6386.08,0.43599
6362.93,0.43314
6339.79,0.42195
6316.64,0.41317
6293.5,0.40584
6270.35,0.38566
6247.21,0.36528
6224.06,0.34361
6200.92,0.27269
6177.77,0.27026
6154.63,0.24237
6131.48,0.21609
6108.34,0.17965
6085.19,0.12371
6062.05,0.09894
6038.9,0.08728
6015.76,0.07923
5992.61,0.09046
5969.47,0.09591
5946.32,0.10546
5923.18,0.12019
5900.03,0.13802
5876.89,0.12155
5853.74,0.12088
5830.6,0.12327
5807.45,0.11960
5784.31,0.12345
5761.16,0.12936
5738.02,0.14559
5714.87,0.15404
5691.73,0.15881
5668.58,0.16127
5645.44,0.16424
5622.29,0.17596
5599.15,0.17749
5576,0.16846
5552.86,0.16614
5529.71,0.16482
5506.57,0.16999
5483.42,0.16237
5460.28,0.16761
5437.13,0.18451
5413.99,0.18658
5390.84,0.18565
5367.7,0.18189
5344.55,0.17564
5321.41,0.17955
5298.26,0.16562
5275.12,0.13525
5251.97,0.11306
5228.83,0.11779
5205.68,0.13680
5182.54,0.14787
5159.39,0.14664
5136.25,0.13385
5113.1,0.12575
5089.96,0.14939
5066.81,0.16564
5043.67,0.16729
5020.52,0.16579
4997.38,0.16745
4974.23,0.17042
4951.09,0.16371
4927.94,0.15722
4904.8,0.15007
4881.65,0.14448
4858.51,0.14074
4835.36,0.12444
4812.22,0.10834
4789.07,0.10466
4765.93,0.11019
4742.78,0.09254
4719.64,0.07656
4696.49,0.07100
4673.35,0.07653
4650.2,0.07871
4627.06,0.07485
4603.92,0.08711
4580.77,0.07680
4557.63,0.09150
4534.48,0.09044
4511.34,0.08308
4488.19,0.07148
4465.05,0.06651
4441.9,0.06580
4418.76,0.06544
4395.61,0.06678
4372.47,0.06786
4349.32,0.06829
4326.18,0.06741
4303.03,0.06604
4279.89,0.06580
4256.74,0.06653
4233.6,0.06675
4210.45,0.06743
4187.31,0.06752
4164.16,0.06766
4141.02,0.06739
4117.87,0.06670
4094.73,0.06379
4071.58,0.06604
4048.44,0.06704
4025.29,0.06812
4002.15,0.06828
3979,0.06849
3955.86,0.06945
3932.71,0.06915
3909.57,0.07005
3886.42,0.07182
3863.28,0.07236
3840.13,0.07288
3816.99,0.07173
3793.84,0.07157
3770.7,0.07049
3747.55,0.07104
3724.41,0.07072
3701.26,0.06819
3678.12,0.06361
3654.97,0.06348
3631.83,0.06364
3608.68,0.06247
3585.54,0.06349
3562.39,0.06255
3539.25,0.06246
3516.1,0.06302
3492.96,0.06301
3469.81,0.06223
3446.67,0.06202
3423.52,0.06168
3400.38,0.06296
3377.23,0.06390
3354.09,0.06364
3330.94,0.06279
3307.8,0.06319
3284.65,0.06285
3261.51,0.06332
3238.36,0.06313
3215.22,0.06349
3192.07,0.06266
3168.93,0.06279
3145.78,0.06182
3122.64,0.06159
3099.49,0.06140
3076.35,0.06137
3053.2,0.06098
3030.06,0.06087
3006.91,0.06048
2983.77,0.06058
2960.62,0.06127
2937.48,0.06341
2914.33,0.06516
2891.19,0.06300
2868.04,0.06262
2844.9,0.06468
2821.75,0.06270
2798.61,0.06243
2775.46,0.06320
2752.32,0.06276
2729.17,0.06351
2706.03,0.06326
2682.88,0.06379
2659.74,0.06409
2636.59,0.06220
2613.45,0.06281
2590.3,0.06178
2567.16,0.06143
2544.02,0.06127
2520.87,0.06164
2497.73,0.06157
2474.58,0.06217
2451.44,0.06212
2428.29,0.06103
2405.15,0.06054
2382,0.06046
2358.86,0.06089
2335.71,0.06128
2312.57,0.06060
2289.42,0.06007
2266.28,0.05988
2243.13,0.06005
2219.99,0.06000
2196.84,0.06020
2173.7,0.06016
2150.55,0.05887
2127.41,0.05856
2104.26,0.05867
2081.12,0.05830
2057.97,0.05825
2034.83,0.05829
2011.68,0.05763
1988.54,0.05651
1965.39,0.05602
1942.25,0.05626
1919.1,0.05568
1895.96,0.05496
1872.81,0.05393
1849.67,0.05241
1826.52,0.05102
1803.38,0.04866
1780.23,0.04494
1757.09,0.03537
1733.94,0.04456
1710.8,0.11699
1687.65,0.07539
1664.51,0.06839
1641.36,0.06446
1618.22,0.06134
1595.07,0.05985
1571.93,0.05913
1548.78,0.05686
1525.64,0.05486
1502.49,0.05548
1479.35,0.05164
1456.2,0.04996
1433.06,0.04998
1409.91,0.04849
1386.77,0.04850
1363.62,0.04636
1340.48,0.04969
1317.33,0.03117
1294.19,0.03154
1271.04,0.10452
1247.9,0.16054
1224.75,0.10813
1201.61,0.08163
1178.46,0.06718
1155.32,0.05332
1132.17,0.06065
1109.03,0.09220
1085.88,0.11637
1062.74,0.08992
1039.59,0.08149
1016.45,0.09870
993.304,0.08214
970.159,0.07999
947.014,0.07675
923.869,0.07212
900.724,0.06879
877.579,0.06693
854.434,0.07232
831.289,0.07247
808.144,0.06995
784.999,0.06992
761.854,0.06335
738.709,0.03699
715.565,0.10197
692.42,0.08237
669.275,0.07781
646.13,0.07433
622.985,0.06983
599.84,0.07034