File: 01_Data/PC/Cone/PC_HRRPUA_75.csv
Time after Ignition,PC_R1,PC_R2,PC_R3,Mean,Std. Dev.
0.0,0.5,13.8,15.2,9.8,8.2
2.5,38.3,54.7,51.5,48.2,8.7
5.0,81.2,100.1,94.2,91.8,9.7
7.5,128.2,156.4,144.8,143.2,14.2
10.0,177.7,225.7,201.8,201.7,24.0
12.5,245.3,291.6,274.2,270.4,23.4
15.0,299.3,342.1,334.4,325.3,22.9
17.5,354.0,383.1,394.0,377.0,20.7
20.0,398.6,431.9,428.9,419.8,18.4
22.5,416.9,459.5,463.8,446.7,25.9
25.0,418.0,472.6,468.2,452.9,30.3
27.5,427.5,482.1,467.6,459.1,28.3
30.0,428.0,488.4,479.2,465.2,32.6
32.5,429.5,493.0,460.1,460.9,31.8
35.0,423.9,488.9,471.7,461.5,33.7
37.5,421.8,482.5,459.3,454.5,30.6
40.0,440.1,492.2,465.7,466.0,26.0
42.5,426.3,493.8,472.0,464.1,34.4
45.0,448.4,502.8,481.1,477.4,27.4
47.5,461.1,498.7,484.7,481.5,19.0
50.0,451.6,507.0,487.3,482.0,28.1
52.5,461.4,498.6,500.0,486.7,21.9
55.0,475.8,504.8,512.7,497.8,19.4
57.5,478.6,498.4,518.7,498.6,20.0
60.0,477.8,493.9,521.4,497.7,22.1
62.5,504.9,487.6,521.3,504.6,16.8
65.0,497.2,488.1,530.6,505.3,22.3
67.5,516.0,488.9,527.0,510.6,19.6
70.0,520.2,502.7,550.5,524.5,24.2
72.5,523.7,506.1,549.1,526.3,21.6
75.0,537.0,499.1,535.4,523.8,21.4
77.5,522.9,509.6,509.5,514.0,7.7
80.0,527.9,493.1,487.8,502.9,21.8
82.5,542.5,496.9,471.6,503.7,35.9
85.0,536.6,502.9,452.1,497.2,42.5
87.5,527.3,523.5,456.9,502.6,39.6
90.0,484.4,525.6,464.5,491.5,31.2
92.5,462.3,504.2,454.3,473.6,26.8
95.0,422.7,468.2,441.3,444.1,22.9
97.5,385.3,441.8,409.9,412.3,28.3
100.0,353.7,400.2,404.2,386.0,28.1
102.5,326.3,376.2,381.0,361.2,30.3
105.0,310.7,349.3,367.1,342.4,28.8
107.5,292.8,331.2,355.5,326.5,31.6
110.0,281.9,311.9,349.3,314.4,33.8
112.5,272.4,306.7,331.0,303.3,29.4
115.0,262.7,289.7,316.1,289.5,26.7
117.5,246.2,276.5,311.4,278.0,32.6
120.0,232.0,264.1,298.2,264.8,33.1
122.5,220.0,255.1,289.7,254.9,34.9
125.0,210.4,250.3,290.6,250.4,40.1
127.5,200.2,237.4,285.7,241.1,42.8
130.0,188.8,232.7,284.4,235.3,47.9
132.5,183.3,219.0,282.3,228.2,50.1
135.0,179.3,213.5,273.0,221.9,47.4
137.5,178.2,212.1,270.5,220.3,46.7
140.0,172.0,213.4,263.7,216.4,45.9
142.5,167.7,208.1,258.7,211.5,45.6
145.0,165.5,204.3,255.4,208.4,45.1
147.5,161.3,199.6,251.9,204.3,45.5
150.0,160.7,195.6,254.7,203.7,47.5
152.5,160.3,196.2,257.6,204.7,49.2
155.0,159.4,192.4,258.7,203.5,50.6
157.5,159.4,192.9,254.9,202.4,48.5
160.0,162.2,193.6,256.8,204.2,48.2
162.5,162.7,192.9,255.0,203.5,47.1
165.0,159.8,189.5,251.2,200.2,46.6
167.5,161.4,188.7,254.0,201.4,47.6
170.0,157.3,184.9,248.7,197.0,46.9
172.5,162.9,186.9,249.1,199.6,44.5
175.0,161.2,187.4,242.9,197.2,41.7
177.5,159.7,184.9,249.0,197.8,46.1
180.0,159.9,183.3,248.4,197.2,45.9
182.5,156.9,183.5,247.9,196.1,46.8
185.0,157.1,184.0,241.9,194.3,43.3
187.5,156.6,184.3,246.0,195.6,45.8
190.0,154.7,185.5,243.6,194.6,45.2
192.5,159.3,181.7,241.3,194.1,42.4
195.0,157.0,182.8,241.9,193.9,43.5
197.5,155.3,182.3,238.7,192.1,42.5
200.0,155.6,181.3,229.2,188.7,37.4
202.5,160.9,180.6,226.0,189.2,33.4
205.0,164.4,182.5,219.7,188.9,28.2
207.5,164.5,185.8,218.3,189.5,27.1
210.0,165.2,187.9,216.1,189.7,25.5
212.5,162.9,190.1,213.7,188.9,25.4
215.0,166.8,189.5,210.9,189.1,22.0
217.5,166.1,191.5,211.2,189.6,22.6
220.0,166.0,185.4,201.8,184.4,17.9
222.5,162.9,188.9,203.3,185.0,20.5
225.0,165.3,185.9,199.4,183.6,17.2
227.5,163.1,190.9,198.4,184.2,18.6
230.0,167.7,192.2,196.9,185.6,15.7
232.5,165.0,191.9,194.2,183.7,16.2
235.0,163.8,191.4,197.1,184.1,17.8
237.5,163.2,191.4,194.9,183.2,17.4
240.0,161.6,193.2,194.2,183.0,18.5
242.5,164.2,189.6,191.2,181.7,15.1
245.0,163.3,188.3,195.3,182.3,16.8
247.5,161.6,187.2,190.9,179.9,16.0
250.0,162.2,186.8,190.9,180.0,15.5
252.5,161.6,185.5,188.4,178.5,14.8
255.0,161.9,189.9,187.7,179.8,15.6
257.5,158.8,188.0,185.5,177.5,16.2
260.0,159.7,189.4,187.8,179.0,16.7
262.5,157.9,187.0,184.5,176.5,16.2
265.0,158.4,188.6,183.5,176.8,16.2
267.5,155.8,184.7,182.0,174.2,16.0
270.0,156.1,185.2,183.5,174.9,16.3
272.5,153.9,188.3,186.8,176.3,19.5
275.0,152.8,191.1,184.8,176.2,20.6
277.5,151.3,190.6,189.0,177.0,22.2
280.0,150.2,191.7,189.9,177.3,23.5
282.5,148.5,186.8,196.8,177.4,25.4
285.0,144.4,183.9,195.4,174.6,26.8
287.5,143.0,187.5,198.2,176.2,29.3
290.0,142.7,186.4,196.7,175.3,28.7
292.5,143.3,187.1,198.5,176.3,29.2
295.0,144.0,187.5,200.3,177.3,29.5
297.5,143.3,184.9,205.7,177.9,31.8
300.0,143.8,182.0,213.3,179.7,34.8
302.5,144.0,178.1,225.9,182.6,41.2
305.0,144.8,180.2,227.1,184.1,41.3
307.5,144.2,181.5,229.9,185.2,43.0
310.0,140.7,179.5,230.0,183.4,44.8
312.5,138.7,184.9,228.7,184.1,45.0
315.0,138.1,186.8,228.9,184.6,45.4
317.5,139.1,187.2,230.9,185.7,45.9
320.0,139.8,193.4,231.3,188.2,46.0
322.5,140.4,191.9,234.0,188.7,46.9
325.0,139.6,189.5,228.0,185.7,44.3
327.5,143.7,196.2,228.3,189.4,42.7
330.0,142.0,200.5,230.2,190.9,44.9
332.5,145.0,200.3,226.3,190.5,41.5
335.0,148.6,198.6,222.9,190.0,37.9
337.5,150.7,198.2,224.0,191.0,37.2
340.0,151.7,202.2,217.7,190.5,34.5
342.5,154.9,201.8,219.7,192.1,33.5
345.0,153.4,200.2,217.6,190.4,33.2
347.5,156.0,199.6,217.8,191.1,31.8
350.0,160.3,196.0,214.5,190.3,27.6
352.5,163.9,197.6,214.2,191.9,25.6
355.0,166.6,198.9,219.3,195.0,26.6
357.5,168.5,196.1,210.5,191.7,21.3
360.0,169.2,197.5,209.3,192.0,20.6
362.5,172.6,198.9,212.5,194.7,20.3
365.0,174.5,204.0,208.4,195.6,18.4
367.5,181.7,198.7,207.6,196.0,13.1
370.0,186.6,197.5,202.5,195.5,8.1
372.5,192.4,196.3,202.3,197.0,4.9
375.0,197.0,192.6,206.1,198.5,6.9
377.5,201.2,189.8,205.4,198.8,8.1
380.0,208.7,188.8,208.1,201.9,11.3
382.5,211.1,188.3,204.1,201.2,11.7
385.0,205.9,182.4,208.0,198.8,14.2
387.5,206.9,184.0,208.8,199.9,13.8
390.0,203.5,182.3,207.3,197.7,13.5
392.5,202.9,183.7,206.9,197.8,12.4
395.0,204.0,181.1,202.9,196.0,12.9
397.5,211.2,178.2,198.9,196.1,16.7
400.0,211.0,177.9,198.5,195.8,16.7
402.5,212.9,178.3,194.3,195.2,17.3
405.0,220.4,175.6,194.3,196.7,22.5
407.5,217.5,177.8,190.6,195.3,20.2
410.0,216.5,175.3,188.1,193.3,21.1
412.5,219.9,175.4,182.4,192.5,23.9
415.0,222.3,171.1,179.2,190.9,27.5
417.5,219.9,169.8,177.0,188.9,27.1
420.0,219.2,171.1,175.8,188.7,26.5
422.5,218.6,170.5,176.5,188.5,26.2
425.0,213.0,172.1,176.6,187.2,22.4
427.5,208.7,170.8,174.0,184.5,21.0
430.0,203.4,169.6,173.0,182.0,18.6
432.5,207.0,166.9,172.7,182.2,21.6
435.0,205.5,171.0,168.8,181.8,20.6
437.5,211.7,168.7,170.1,183.5,24.4
440.0,202.4,165.4,169.9,179.2,20.2
442.5,202.3,162.7,167.1,177.3,21.7
445.0,197.1,167.3,167.2,177.2,17.2
447.5,200.2,165.7,167.4,177.8,19.5
450.0,199.6,168.4,164.4,177.5,19.3
452.5,195.2,167.0,162.2,174.8,17.9
455.0,194.7,167.1,160.9,174.2,18.0
457.5,190.3,170.3,162.5,174.4,14.3
460.0,189.1,167.7,161.9,172.9,14.3
462.5,188.8,165.7,162.3,172.2,14.4
465.0,182.1,165.5,160.5,169.4,11.3
467.5,179.7,165.0,155.9,166.9,12.0
470.0,180.3,164.1,156.6,167.0,12.1
472.5,178.0,165.0,155.0,166.0,11.5
475.0,174.3,165.9,154.4,164.9,10.0
477.5,176.6,168.3,153.8,166.2,11.5
480.0,171.5,166.9,149.7,162.7,11.5
482.5,170.2,164.2,148.5,161.0,11.2
485.0,175.1,163.6,147.5,162.1,13.9
487.5,172.5,164.7,145.5,160.9,13.9
490.0,172.8,164.2,142.7,159.9,15.5
492.5,169.8,163.5,144.0,159.1,13.4
495.0,169.5,163.6,140.3,157.8,15.4
497.5,166.8,161.0,138.7,155.5,14.9
500.0,166.1,162.7,135.1,154.6,17.0
502.5,163.9,162.3,135.2,153.8,16.1
505.0,162.8,161.3,135.2,153.1,15.5
507.5,158.8,162.5,136.0,152.4,14.4
510.0,156.3,159.2,129.9,148.5,16.1
512.5,157.9,156.8,128.4,147.7,16.7
515.0,154.2,159.1,122.6,145.3,19.8
517.5,153.9,157.4,121.9,144.4,19.6
520.0,150.7,157.1,116.7,141.5,21.7
522.5,151.6,155.9,115.3,140.9,22.3
525.0,150.5,152.8,112.9,138.7,22.4
527.5,148.3,155.2,110.7,138.0,23.9
530.0,146.4,155.8,106.8,136.3,26.0
532.5,145.3,152.8,105.6,134.6,25.3
535.0,144.6,149.6,101.5,131.9,26.4
537.5,147.5,144.8,98.5,130.3,27.5
540.0,144.5,143.9,96.1,128.2,27.8
542.5,143.1,142.0,92.8,126.0,28.7
545.0,143.1,140.1,90.5,124.6,29.6
547.5,141.2,139.2,90.0,123.5,29.0
550.0,138.6,133.2,88.3,120.0,27.6
552.5,136.8,129.6,86.8,117.8,27.0
555.0,134.8,127.7,87.0,116.5,25.8
557.5,136.1,125.1,86.7,116.0,25.9
560.0,135.1,125.1,85.1,115.1,26.5
562.5,135.6,125.1,86.4,115.7,25.9
565.0,135.6,120.5,86.1,114.1,25.4
567.5,136.6,119.2,87.3,114.4,25.0
570.0,136.0,118.4,88.1,114.2,24.2
572.5,136.6,116.7,87.4,113.5,24.8
575.0,135.3,113.6,87.0,111.9,24.2
577.5,134.6,110.7,85.1,110.1,24.7
580.0,132.4,108.8,84.0,108.4,24.2
582.5,129.4,106.4,82.9,106.2,23.3
585.0,130.2,100.6,83.5,104.8,23.7
587.5,126.5,98.6,83.1,102.7,22.0
590.0,124.5,95.5,81.9,100.6,21.8
592.5,124.1,91.1,84.1,99.8,21.4
595.0,121.0,88.5,84.5,98.0,20.0
597.5,121.7,88.1,,104.9,23.8
600.0,119.4,87.3,,103.3,22.7
602.5,118.9,89.3,,104.1,20.9
605.0,116.3,86.1,,101.2,21.4
607.5,116.0,85.0,,100.5,21.9
610.0,111.6,84.0,,97.8,19.5
612.5,111.7,85.3,,98.5,18.7
615.0,107.1,84.2,,95.6,16.2
617.5,105.2,83.4,,94.3,15.4
620.0,106.0,82.3,,94.1,16.8
622.5,102.1,82.1,,92.1,14.1
625.0,102.0,81.8,,91.9,14.3
627.5,98.9,82.4,,90.7,11.7
630.0,99.2,81.5,,90.3,12.5
632.5,98.5,81.9,,90.2,11.7
635.0,96.3,84.3,,90.3,8.4
637.5,96.9,81.9,,89.4,10.6
640.0,95.2,82.1,,88.6,9.3
642.5,92.7,83.4,,88.1,6.6
645.0,92.3,84.1,,88.2,5.7
647.5,91.9,,,91.9,
650.0,89.8,,,89.8,
652.5,88.6,,,88.6,
655.0,86.5,,,86.5,
657.5,87.4,,,87.4,
660.0,86.1,,,86.1,
662.5,86.1,,,86.1,