File: 01_Data/PC/Cone/PC_HRRPUA_50.csv
Time after Ignition,PC_R1,PC_R2,PC_R3,Mean,Std. Dev.
0.0,7.3,2.2,20.2,9.9,9.2
1.75,40.1,12.3,48.3,33.6,18.9
3.5,77.6,23.9,85.4,62.3,33.5
5.25,95.5,49.0,109.9,84.8,31.8
7.0,105.5,91.9,124.8,107.4,16.5
8.75,119.7,122.8,150.6,131.0,17.0
10.5,143.8,174.4,189.3,169.1,23.2
12.25,175.4,228.9,226.7,210.3,30.3
14.0,219.3,291.3,276.4,262.3,38.0
15.75,250.1,348.2,319.4,305.9,50.4
17.5,278.5,395.1,374.3,349.3,62.2
19.25,306.7,439.4,402.7,382.9,68.5
21.0,341.7,463.4,435.2,413.4,63.7
22.75,374.4,488.4,470.0,444.3,61.2
24.5,401.7,488.6,478.4,456.2,47.5
26.25,429.1,497.3,514.4,480.3,45.1
28.0,427.3,509.4,495.6,477.4,44.0
29.75,432.7,510.9,499.5,481.1,42.2
31.5,430.9,516.9,494.0,480.6,44.5
33.25,443.6,506.4,486.8,479.0,32.1
35.0,444.6,501.5,479.1,475.1,28.7
36.75,443.6,501.3,490.3,478.4,30.6
38.5,450.1,480.1,492.6,474.3,21.8
40.25,483.5,460.9,477.1,473.8,11.6
42.0,471.5,447.3,483.7,467.5,18.6
43.75,487.1,439.2,489.2,471.8,28.3
45.5,487.0,430.1,508.3,475.1,40.4
47.25,495.8,428.2,502.8,475.6,41.2
49.0,500.3,417.4,487.5,468.4,44.6
50.75,491.1,418.6,482.5,464.1,39.6
52.5,487.2,403.1,477.8,456.0,46.1
54.25,488.6,406.5,468.4,454.5,42.8
56.0,479.6,401.4,466.8,449.3,42.0
57.75,480.8,398.7,470.1,449.9,44.6
59.5,492.6,405.5,457.3,451.8,43.8
61.25,472.0,411.6,467.9,450.5,33.8
63.0,465.6,401.9,452.7,440.0,33.7
64.75,446.6,403.9,442.7,431.1,23.6
66.5,439.7,394.7,443.3,425.9,27.1
68.25,440.5,397.1,429.1,422.3,22.5
70.0,445.7,404.9,429.2,426.6,20.5
71.75,441.4,392.9,434.1,422.8,26.2
73.5,452.1,393.4,416.8,420.7,29.5
75.25,439.7,381.7,417.7,413.0,29.3
77.0,425.9,379.0,427.1,410.7,27.5
78.75,406.7,365.5,430.9,401.0,33.0
80.5,414.7,362.9,438.1,405.2,38.5
82.25,399.1,362.8,444.6,402.2,41.0
84.0,391.2,354.3,455.4,400.3,51.2
85.75,391.1,348.8,452.3,397.4,52.0
87.5,387.1,350.2,435.9,391.1,43.0
89.25,392.7,338.0,422.8,384.5,43.0
91.0,374.5,346.6,401.6,374.2,27.5
92.75,387.2,340.1,387.3,371.6,27.2
94.5,377.8,345.3,366.1,363.1,16.4
96.25,385.5,339.3,347.1,357.3,24.7
98.0,384.9,341.1,346.1,357.4,24.0
99.75,376.5,353.3,328.8,352.9,23.9
101.5,373.4,361.2,315.9,350.2,30.3
103.25,363.8,370.9,307.1,347.3,35.0
105.0,359.1,374.1,297.7,343.6,40.5
106.75,354.8,385.0,295.8,345.2,45.3
108.5,343.1,396.3,289.1,342.8,53.6
110.25,340.9,390.8,279.9,337.2,55.6
112.0,333.8,393.9,279.5,335.8,57.2
113.75,340.6,396.5,275.6,337.6,60.5
115.5,341.8,392.0,266.5,333.4,63.2
117.25,347.2,391.3,272.4,337.0,60.1
119.0,348.3,379.6,265.2,331.1,59.1
120.75,347.1,378.1,259.4,328.2,61.5
122.5,356.0,367.1,255.1,326.1,61.7
124.25,352.3,371.3,256.3,326.7,61.6
126.0,348.5,351.7,251.2,317.1,57.1
127.75,341.0,345.5,254.5,313.6,51.2
129.5,347.2,343.7,250.2,313.7,55.0
131.25,338.8,339.0,252.2,310.0,50.1
133.0,326.4,330.3,250.5,302.4,45.0
134.75,323.3,329.0,250.8,301.0,43.6
136.5,319.8,318.0,242.5,293.4,44.1
138.25,309.8,310.5,239.7,286.7,40.7
140.0,311.3,306.8,241.1,286.4,39.3
141.75,315.5,307.6,240.7,288.0,41.1
143.5,306.0,303.5,241.1,283.5,36.7
145.25,303.2,296.4,244.4,281.3,32.2
147.0,298.8,297.2,241.1,279.0,32.9
148.75,294.0,291.7,235.0,273.6,33.4
150.5,287.9,284.5,235.1,269.2,29.6
152.25,282.9,275.6,230.4,263.0,28.4
154.0,282.2,267.6,232.7,260.8,25.4
155.75,277.7,265.4,233.3,258.8,22.9
157.5,270.1,260.1,227.8,252.7,22.1
159.25,273.9,253.0,225.7,250.9,24.2
161.0,263.5,254.6,222.5,246.9,21.6
162.75,258.8,250.9,220.6,243.5,20.2
164.5,256.3,247.6,220.6,241.5,18.7
166.25,255.1,249.0,221.8,242.0,17.7
168.0,254.8,247.3,214.6,238.9,21.4
169.75,254.3,247.2,208.1,236.6,24.9
171.5,249.0,247.6,205.3,234.0,24.9
173.25,249.4,259.0,206.9,238.4,27.7
175.0,248.0,257.0,204.8,236.6,27.9
176.75,248.3,259.1,208.0,238.5,26.9
178.5,243.3,262.4,206.2,237.3,28.5
180.25,246.5,255.5,214.6,238.9,21.5
182.0,245.1,250.2,210.6,235.3,21.5
183.75,242.1,242.8,213.9,232.9,16.5
185.5,241.8,237.4,214.4,231.2,14.7
187.25,234.9,237.4,215.1,229.1,12.2
189.0,229.7,229.1,220.8,226.6,5.0
190.75,229.0,228.2,218.8,225.4,5.7
192.5,224.4,226.1,221.1,223.9,2.5
194.25,224.2,221.3,219.2,221.6,2.5
196.0,217.5,222.8,217.6,219.3,3.0
197.75,214.6,217.1,219.2,217.0,2.3
199.5,215.0,220.1,222.3,219.1,3.7
201.25,211.9,212.4,217.9,214.1,3.4
203.0,207.4,203.9,218.1,209.8,7.4
204.75,205.0,201.7,219.7,208.8,9.6
206.5,200.7,200.7,218.3,206.5,10.2
208.25,201.8,195.9,218.4,205.4,11.7
210.0,193.4,195.2,216.9,201.8,13.1
211.75,195.9,191.4,215.1,200.8,12.5
213.5,194.1,190.3,212.1,198.8,11.7
215.25,191.8,184.6,204.8,193.7,10.2
217.0,187.2,185.2,203.9,192.1,10.3
218.75,183.8,181.8,198.8,188.1,9.3
220.5,178.6,180.9,194.3,184.6,8.5
222.25,174.5,174.7,193.1,180.8,10.7
224.0,172.1,169.4,186.0,175.9,8.9
225.75,169.7,168.4,181.3,173.1,7.1
227.5,164.1,165.2,179.0,169.4,8.3
229.25,163.8,163.7,177.0,168.2,7.6
231.0,161.5,160.9,172.9,165.1,6.7
232.75,157.8,159.6,170.9,162.8,7.1
234.5,153.6,154.2,171.5,159.8,10.2
236.25,149.7,151.5,169.1,156.8,10.7
238.0,149.3,148.2,164.2,153.9,8.9
239.75,147.0,146.7,160.1,151.3,7.6
241.5,143.7,146.0,158.3,149.4,7.8
243.25,143.8,145.7,156.6,148.7,6.9
245.0,142.1,142.7,156.1,146.9,7.9
246.75,139.3,142.0,155.0,145.4,8.4
248.5,139.4,138.0,153.5,143.6,8.6
250.25,137.7,133.8,155.2,142.2,11.4
252.0,136.1,131.7,152.6,140.2,11.0
253.75,137.5,130.6,150.4,139.5,10.0
255.5,134.2,127.6,151.8,137.9,12.5
257.25,133.9,124.8,148.4,135.7,11.9
259.0,133.2,123.4,146.1,134.2,11.3
260.75,131.7,120.8,145.3,132.6,12.3
262.5,132.3,121.4,140.8,131.5,9.7
264.25,129.6,118.4,141.0,129.6,11.3
266.0,131.3,118.6,141.6,130.5,11.5
267.75,130.0,118.0,140.3,129.5,11.2
269.5,130.2,116.4,141.4,129.4,12.5
271.25,125.4,116.8,138.2,126.8,10.8
273.0,128.5,117.8,138.2,128.1,10.2
274.75,126.3,115.9,141.7,128.0,13.0
276.5,124.6,117.3,140.1,127.4,11.7
278.25,126.0,117.1,135.2,126.1,9.0
280.0,122.8,114.4,134.9,124.0,10.3
281.75,121.6,110.7,133.2,121.9,11.3
283.5,120.4,112.5,132.1,121.7,9.9
285.25,119.7,113.1,132.7,121.8,10.0
287.0,118.9,112.9,132.1,121.3,9.8
288.75,118.5,110.9,131.3,120.2,10.3
290.5,118.1,110.8,131.0,120.0,10.2
292.25,117.4,107.5,130.5,118.5,11.5
294.0,115.0,106.6,128.0,116.5,10.8
295.75,114.0,105.4,128.0,115.8,11.4
297.5,113.2,102.0,126.6,113.9,12.3
299.25,108.9,104.4,126.4,113.2,11.6
301.0,108.0,101.8,125.5,111.8,12.3
302.75,105.4,103.5,124.7,111.2,11.7
304.5,106.3,106.6,124.2,112.4,10.2
306.25,104.4,107.2,121.8,111.1,9.4
308.0,102.5,107.6,122.8,111.0,10.5
309.75,104.2,107.2,120.8,110.8,8.9
311.5,102.6,108.2,119.9,110.3,8.8
313.25,101.7,107.9,123.1,110.9,11.0
315.0,100.5,109.4,120.5,110.1,10.0
316.75,98.9,105.5,121.5,108.6,11.6
318.5,95.8,102.3,120.8,106.3,13.0
320.25,97.0,101.5,120.2,106.3,12.3
322.0,97.0,99.5,119.5,105.3,12.3
323.75,97.8,99.1,118.6,105.2,11.7
325.5,96.9,98.5,117.9,104.4,11.7
327.25,96.2,97.2,118.3,103.9,12.5
329.0,97.5,94.6,120.8,104.3,14.3
330.75,95.7,95.8,118.6,103.4,13.2
332.5,94.0,96.4,118.9,103.1,13.7
334.25,95.8,95.9,121.7,104.5,14.9
336.0,94.5,95.7,121.1,103.8,15.0
337.75,95.2,97.1,123.2,105.2,15.6
339.5,93.5,96.5,120.6,103.6,14.9
341.25,93.4,96.3,122.3,104.0,15.9
343.0,92.2,96.8,122.6,103.9,16.4
344.75,92.6,95.8,119.9,102.8,15.0
346.5,93.3,94.9,121.9,103.4,16.1
348.25,91.5,93.8,119.9,101.7,15.8
350.0,93.6,92.1,121.7,102.5,16.7
351.75,92.6,93.7,120.0,102.1,15.5
353.5,93.0,92.3,119.6,101.6,15.5
355.25,91.5,91.4,117.7,100.2,15.1
357.0,92.5,89.7,118.7,100.3,16.0
358.75,93.1,89.7,119.7,100.9,16.4
360.5,91.7,90.5,119.1,100.4,16.2
362.25,91.6,89.6,118.7,100.0,16.3
364.0,89.9,89.7,119.0,99.5,16.9
365.75,89.5,90.1,115.9,98.5,15.1
367.5,89.8,89.8,116.0,98.5,15.1
369.25,90.4,88.7,116.5,98.5,15.6
371.0,89.9,89.5,114.7,98.0,14.4
372.75,88.5,89.2,115.2,97.6,15.3
374.5,90.1,88.8,115.9,98.3,15.3
376.25,92.1,88.7,113.8,98.2,13.6
378.0,90.2,88.8,112.9,97.3,13.6
379.75,89.4,86.4,112.0,95.9,14.0
381.5,90.5,85.7,111.9,96.0,14.0
383.25,90.9,82.7,110.6,94.7,14.3
385.0,91.0,82.4,111.6,95.0,15.0
386.75,91.4,81.5,109.9,94.3,14.4
388.5,90.5,82.9,110.2,94.6,14.1
390.25,91.1,82.8,108.5,94.2,13.1
392.0,89.1,81.8,109.4,93.4,14.3
393.75,88.9,81.3,109.3,93.2,14.5
395.5,88.6,78.9,109.6,92.4,15.7
397.25,88.7,79.5,105.3,91.2,13.1
399.0,89.1,78.6,104.3,90.7,12.9
400.75,86.9,77.0,104.3,89.4,13.8
402.5,86.8,76.4,105.2,89.4,14.6
404.25,86.8,76.5,105.9,89.7,14.9
406.0,85.8,75.7,105.1,88.9,15.0
407.75,86.3,75.8,104.9,89.0,14.7
409.5,85.2,76.2,104.4,88.6,14.4
411.25,85.6,76.0,105.1,88.9,14.8
413.0,87.1,75.0,102.7,88.3,13.9
414.75,87.9,76.0,104.0,89.3,14.1
416.5,86.7,74.5,103.6,88.3,14.6
418.25,85.8,73.5,102.1,87.1,14.4
420.0,87.7,73.5,102.7,88.0,14.6
421.75,87.1,73.4,101.3,87.3,13.9
423.5,86.7,72.5,99.7,86.3,13.6
425.25,87.0,72.0,98.0,85.7,13.0
427.0,86.0,70.6,97.1,84.6,13.3
428.75,86.4,70.3,96.5,84.4,13.2
430.5,85.6,69.0,94.8,83.1,13.1
432.25,85.7,68.6,95.2,83.2,13.5
434.0,86.1,68.9,95.7,83.6,13.6
435.75,84.7,68.9,95.1,82.9,13.2
437.5,86.2,67.5,95.2,83.0,14.1
439.25,86.0,67.3,94.2,82.5,13.8
441.0,86.9,66.5,94.7,82.7,14.6
442.75,86.6,66.2,92.6,81.8,13.8
444.5,86.6,66.4,92.0,81.7,13.5
446.25,85.9,64.8,92.1,80.9,14.3
448.0,85.8,65.2,92.1,81.1,14.1
449.75,86.5,65.6,90.8,81.0,13.5
451.5,87.1,65.0,90.9,81.0,14.0
453.25,85.9,66.8,91.0,81.2,12.8
455.0,86.2,65.5,92.1,81.3,13.9
456.75,86.4,66.3,89.7,80.8,12.6
458.5,83.8,66.3,91.7,80.6,13.0
460.25,83.5,66.5,90.5,80.2,12.3
462.0,83.0,67.1,90.6,80.2,12.0
463.75,81.2,65.8,89.8,78.9,12.1
465.5,82.3,65.6,88.1,78.6,11.7
467.25,78.7,65.7,89.4,77.9,11.9
469.0,79.5,65.6,87.9,77.7,11.3
470.75,80.2,66.0,87.7,78.0,11.0
472.5,78.9,65.3,86.0,76.7,10.5
474.25,78.7,65.6,86.7,77.0,10.6
476.0,79.1,66.7,86.3,77.4,10.0
477.75,78.0,65.8,86.6,76.8,10.5
479.5,77.5,64.9,85.5,76.0,10.4
481.25,78.1,64.9,85.0,76.0,10.2
483.0,79.5,64.3,84.5,76.1,10.5
484.75,79.2,63.5,84.4,75.7,10.9
486.5,79.4,64.4,83.4,75.7,10.0
488.25,80.8,63.0,83.3,75.7,11.1
490.0,78.7,63.4,81.1,74.4,9.6
491.0,80.0,62.9,82.6,75.2,10.7