File: 01_Data/ABS/Cone/ABS_HRRPUA_25.csv
Time after Ignition,ABS_R1,ABS_R2,ABS_R3,Mean,Std. Dev.
0.0,4.5,10.8,5.7,7.0,3.3
0.75,15.0,31.9,12.9,19.9,10.4
1.5,45.0,59.5,33.7,46.1,12.9
2.25,82.9,91.9,67.0,80.6,12.6
3.0,119.4,126.1,101.9,115.8,12.5
3.75,157.1,158.8,142.4,152.8,9.0
4.5,187.5,201.3,187.3,192.0,8.0
5.25,234.5,234.4,230.0,233.0,2.6
6.0,280.8,283.6,259.6,274.7,13.1
6.75,317.2,323.1,309.1,316.5,7.0
7.5,371.7,361.3,332.6,355.2,20.2
8.25,397.4,390.5,371.9,386.6,13.2
9.0,442.5,436.7,397.8,425.7,24.3
9.75,471.6,447.4,441.0,453.3,16.1
10.5,500.3,483.1,464.3,482.6,18.0
11.25,513.4,493.6,478.6,495.2,17.5
12.0,540.5,516.4,487.9,515.0,26.4
12.75,560.7,531.6,516.2,536.2,22.6
13.5,540.8,532.9,551.5,541.7,9.3
14.25,572.7,546.0,543.8,554.2,16.1
15.0,567.1,550.8,539.9,552.6,13.7
15.75,591.7,550.4,544.3,562.2,25.7
16.5,587.8,584.9,569.6,580.8,9.8
17.25,584.2,569.1,566.9,573.4,9.4
18.0,604.2,578.7,586.6,589.8,13.0
18.75,617.8,579.8,588.7,595.5,19.9
19.5,620.0,580.6,584.9,595.2,21.6
20.25,591.2,580.5,606.1,592.6,12.9
21.0,599.0,604.6,588.6,597.4,8.1
21.75,633.8,594.0,609.0,612.3,20.1
22.5,612.7,590.8,603.9,602.5,11.0
23.25,599.9,613.6,607.0,606.8,6.8
24.0,628.1,611.6,599.5,613.1,14.4
24.75,636.4,593.1,624.3,617.9,22.4
25.5,637.8,594.4,617.1,616.4,21.7
26.25,613.5,608.9,602.2,608.2,5.7
27.0,615.0,616.8,625.8,619.2,5.7
27.75,630.0,606.7,649.7,628.8,21.5
28.5,621.2,607.2,630.2,619.5,11.6
29.25,626.1,598.2,630.8,618.3,17.6
30.0,613.8,591.9,609.0,604.9,11.5
30.75,628.0,608.0,607.6,614.5,11.7
31.5,616.0,609.5,635.7,620.4,13.7
32.25,620.0,607.1,622.0,616.3,8.1
33.0,630.2,636.8,614.5,627.2,11.5
33.75,627.2,609.1,621.1,619.2,9.2
34.5,621.8,619.3,618.5,619.9,1.7
35.25,614.3,614.3,623.9,617.5,5.6
36.0,633.1,601.8,605.8,613.6,17.0
36.75,610.4,626.9,623.4,620.2,8.7
37.5,592.8,607.6,619.8,606.7,13.5
38.25,612.8,607.5,614.5,611.6,3.7
39.0,617.2,599.5,621.4,612.7,11.6
39.75,625.3,603.5,631.2,620.0,14.6
40.5,613.4,602.1,611.5,609.0,6.0
41.25,607.1,601.6,611.7,606.8,5.1
42.0,618.8,617.9,618.9,618.6,0.5
42.75,605.4,601.6,612.9,606.6,5.8
43.5,623.8,628.7,610.1,620.9,9.7
44.25,618.8,594.6,614.1,609.1,12.8
45.0,607.9,621.1,644.4,624.4,18.5
45.75,607.2,607.0,617.1,610.4,5.8
46.5,625.7,611.1,645.8,627.5,17.4
47.25,641.9,626.7,623.2,630.6,10.0
48.0,622.4,641.1,661.0,641.5,19.3
48.75,625.7,635.5,647.7,636.3,11.0
49.5,612.4,625.9,625.6,621.3,7.7
50.25,624.3,625.4,683.0,644.2,33.6
51.0,659.0,646.4,616.2,640.6,22.0
51.75,635.8,632.9,645.3,638.0,6.5
52.5,644.9,641.4,629.0,638.4,8.4
53.25,641.0,648.2,639.3,642.8,4.7
54.0,647.5,615.6,653.7,638.9,20.5
54.75,654.4,643.2,657.4,651.6,7.5
55.5,650.6,639.2,667.8,652.5,14.4
56.25,671.3,644.3,656.9,657.5,13.5
57.0,660.3,656.4,671.9,662.8,8.1
57.75,646.1,673.2,656.5,658.6,13.7
58.5,677.5,651.8,662.8,664.0,12.9
59.25,653.4,641.2,672.8,655.8,16.0
60.0,639.4,655.2,685.3,660.0,23.3
60.75,642.2,663.8,685.6,663.8,21.7
61.5,657.8,670.3,658.9,662.3,7.0
62.25,647.1,680.4,662.3,663.3,16.7
63.0,667.4,692.4,671.0,676.9,13.5
63.75,657.8,672.5,687.6,672.6,14.9
64.5,664.0,673.7,688.1,675.3,12.1
65.25,663.0,691.5,710.3,688.3,23.8
66.0,672.6,676.7,684.2,677.8,5.9
66.75,662.9,680.5,680.1,674.5,10.0
67.5,651.0,685.5,712.0,682.8,30.6
68.25,657.5,693.2,700.3,683.7,23.0
69.0,646.9,679.4,689.5,671.9,22.2
69.75,676.2,705.8,692.2,691.4,14.8
70.5,666.3,708.2,674.8,683.1,22.1
71.25,689.0,692.3,716.6,699.3,15.1
72.0,695.2,695.3,681.7,690.7,7.8
72.75,688.2,690.4,704.4,694.3,8.8
73.5,683.2,687.2,724.9,698.4,23.0
74.25,696.4,707.0,717.0,706.8,10.3
75.0,701.2,677.7,709.5,696.2,16.5
75.75,718.2,708.0,742.1,722.8,17.5
76.5,693.3,703.1,720.7,705.7,13.9
77.25,707.4,697.5,712.2,705.7,7.5
78.0,723.2,716.6,733.3,724.4,8.4
78.75,706.2,722.4,741.9,723.5,17.9
79.5,720.5,719.1,737.1,725.5,10.0
80.25,721.9,729.7,745.0,732.2,11.7
81.0,707.9,700.5,717.7,708.7,8.7
81.75,715.5,733.3,754.1,734.3,19.3
82.5,705.7,732.8,734.9,724.5,16.3
83.25,744.5,698.4,745.3,729.4,26.9
84.0,725.0,750.3,773.5,749.6,24.2
84.75,751.5,727.0,780.3,752.9,26.7
85.5,732.4,768.2,753.9,751.5,18.0
86.25,728.0,773.9,780.1,760.7,28.5
87.0,704.6,752.6,770.5,742.5,34.1
87.75,719.9,769.3,800.3,763.2,40.6
88.5,771.4,742.1,795.9,769.8,27.0
89.25,762.2,769.2,791.7,774.3,15.4
90.0,750.6,793.5,781.0,775.0,22.1
90.75,776.5,790.8,796.2,787.9,10.2
91.5,754.6,769.2,812.7,778.8,30.2
92.25,769.6,767.7,785.1,774.1,9.5
93.0,759.5,800.6,805.7,788.6,25.3
93.75,769.5,792.8,771.7,778.0,12.9
94.5,799.6,808.6,829.9,812.7,15.6
95.25,768.7,808.0,838.7,805.1,35.1
96.0,814.6,825.0,801.8,813.8,11.6
96.75,784.0,847.0,837.1,822.7,33.9
97.5,791.9,866.7,830.1,829.6,37.4
98.25,832.9,830.9,825.3,829.7,3.9
99.0,813.9,831.1,833.1,826.0,10.5
99.75,818.0,847.3,839.2,834.9,15.1
100.5,813.7,837.0,843.1,831.3,15.5
101.25,816.5,826.3,876.3,839.7,32.1
102.0,814.5,821.9,871.3,835.9,30.8
102.75,829.7,809.1,885.1,841.3,39.3
103.5,794.3,868.3,852.2,838.2,38.9
104.25,844.6,873.4,855.4,857.8,14.6
105.0,824.2,856.0,869.6,849.9,23.3
105.75,806.4,817.6,853.8,825.9,24.8
106.5,885.8,833.2,843.6,854.2,27.8
107.25,833.9,829.4,869.9,844.4,22.2
108.0,845.7,846.2,901.4,864.4,32.0
108.75,828.0,869.6,868.2,855.3,23.6
109.5,902.0,884.7,939.1,908.6,27.8
110.25,888.6,863.7,886.6,879.6,13.8
111.0,887.2,864.3,865.1,872.2,13.0
111.75,850.8,874.5,910.5,878.6,30.1
112.5,851.8,834.8,882.7,856.4,24.3
113.25,852.7,854.5,876.3,861.1,13.1
114.0,864.2,873.3,901.1,879.6,19.2
114.75,876.1,864.0,879.1,873.1,8.0
115.5,880.9,887.9,888.3,885.7,4.2
116.25,892.0,892.4,910.8,898.4,10.7
117.0,864.4,873.2,852.2,863.2,10.6
117.75,904.9,849.8,897.1,884.0,29.8
118.5,846.9,873.5,895.8,872.1,24.5
119.25,844.2,899.8,875.8,873.3,27.9
120.0,881.7,880.2,868.5,876.8,7.2
120.75,934.4,895.6,889.6,906.6,24.3
121.5,914.7,901.8,914.5,910.3,7.4
122.25,863.3,889.6,896.0,883.0,17.3
123.0,918.2,882.1,918.4,906.2,20.9
123.75,879.4,848.1,895.6,874.3,24.1
124.5,896.3,934.4,897.2,909.3,21.8
125.25,892.3,892.3,910.0,898.2,10.2
126.0,860.7,841.2,894.6,865.5,27.0
126.75,885.0,883.4,935.3,901.3,29.5
127.5,893.1,880.2,907.2,893.5,13.5
128.25,898.4,887.6,900.1,895.3,6.8
129.0,857.5,856.4,890.1,868.0,19.2
129.75,880.7,861.4,891.9,878.0,15.4
130.5,899.3,912.2,861.2,890.9,26.5
131.25,867.0,905.6,866.4,879.7,22.5
132.0,856.2,878.4,847.5,860.7,15.9
132.75,877.6,871.9,877.3,875.6,3.2
133.5,872.0,863.8,884.9,873.6,10.7
134.25,831.8,882.1,866.6,860.2,25.7
135.0,862.7,868.8,905.9,879.2,23.4
135.75,871.8,848.7,852.4,857.6,12.4
136.5,873.8,856.9,844.5,858.4,14.7
137.25,818.0,816.9,841.7,825.6,14.0
138.0,852.0,854.9,833.8,846.9,11.5
138.75,837.1,850.0,874.4,853.8,18.9
139.5,834.7,847.5,830.5,837.6,8.8
140.25,803.0,821.7,832.0,818.9,14.7
141.0,821.1,797.9,839.7,819.5,20.9
141.75,807.5,773.0,798.5,793.0,17.9
142.5,813.7,829.6,786.6,809.9,21.7
143.25,796.6,792.4,786.8,792.0,4.9
144.0,797.1,784.9,792.1,791.4,6.2
144.75,806.0,795.1,771.8,790.9,17.5
145.5,772.1,791.1,782.9,782.0,9.5
146.25,765.6,774.3,742.7,760.9,16.3
147.0,757.8,737.8,716.0,737.2,20.9
147.75,756.3,761.3,742.6,753.4,9.7
148.5,728.2,774.5,742.4,748.4,23.7
149.25,731.8,717.1,714.0,721.0,9.5
150.0,727.4,723.2,693.2,714.6,18.7
150.75,733.6,702.3,679.4,705.1,27.2
151.5,721.8,683.4,673.4,692.9,25.5
152.25,723.0,676.9,651.3,683.7,36.3
153.0,706.4,656.9,646.3,669.9,32.1
153.75,666.4,664.4,635.9,655.6,17.1
154.5,650.8,665.7,621.7,646.1,22.4
155.25,671.9,647.8,612.9,644.2,29.7
156.0,640.2,626.3,586.1,617.6,28.1
156.75,638.5,627.0,582.6,616.0,29.5
157.5,607.9,585.1,583.1,592.0,13.8
158.25,606.6,560.6,562.6,576.6,26.0
159.0,585.5,573.9,546.3,568.6,20.2
159.75,579.9,564.2,530.4,558.2,25.3
160.5,558.4,548.6,511.0,539.3,25.0
161.25,554.4,520.6,522.6,532.5,19.0
162.0,542.0,514.0,514.1,523.4,16.2
162.75,515.2,504.9,496.1,505.4,9.5
163.5,489.7,487.0,485.0,487.2,2.3
164.25,470.7,470.8,459.6,467.0,6.4
165.0,443.6,446.2,460.7,450.2,9.2
165.75,416.3,423.6,439.8,426.6,12.1
166.5,379.8,403.0,430.7,404.5,25.5
167.25,343.4,373.7,407.3,374.8,32.0
168.0,302.2,330.7,389.7,340.9,44.6
168.75,264.6,293.9,364.7,307.7,51.5
169.5,235.2,258.3,339.4,277.6,54.7
170.25,201.7,229.6,306.6,246.0,54.4
171.0,173.0,204.4,281.7,219.7,56.0
171.75,149.3,177.3,254.4,193.7,54.5
172.5,128.8,151.9,233.7,171.5,55.1
173.25,115.3,131.3,214.5,153.7,53.3
174.0,99.3,111.7,191.7,134.2,50.1
174.75,83.6,96.6,,90.1,9.2
175.0,79.8,91.8,,85.8,8.5