File: 01_Data/ABS/Cone/ABS_Cone_HF50Scalar_220217_R3.csv
LABORATORY,FSRI
TEST IDENT,PlasticA_HF50_3
OPERATOR,Dow
MATERIAL,Plastic A
ORIENTATION,Horizontal
HEAT FLUX,50
SURF AREA,0.01
C FACTOR,0.0393671
SPEC HOLDER DIFF,298.8
SPECIMEN MASS,32.3
SCAN TIME,0.25
O2 DELAY TIME,11
CO DELAY TIME,11
CO2 DELAY TIME,8
FLOW FACTOR,1
SCAN COUNT,1047
TIME TO IGN,25.75
END OF TEST SCAN,567
END OF TEST TIME,141.75
TEST STATUS,1
PRE TEST CMT,Dimensions: 99.96 x 100.24 x 3.03 mm