File: 01_Data/ABS/Cone/ABS_Cone_HF25Scan_220217_R3.csv
Names,Time,Stack TC,Smoke TC,Exh Press,Smoke Comp,Smoke Meas,CO Meter,CO2 Meter,O2 Meter,Sample Mass,Ext Coeff,Start Test,Flame Verif
Chan Gain,,500,500,1,1,1,1,1,1,1,1,1.0,1.0
Offset,,0,0,0.140898,0,0,0,0,0,0,0,0.0,0.0
Gain,,1,1,25.011,12.9668,12.6588,1,1,1,1.00088,1.01977,1.0,1.0
Units,sec,C,C,Pa,%,%,%,%,%,g,/m,,
Baseline,,24.8273,23.9501,156.402,96.0764,99.5525,-0.00462198,0.0379709,21.0452,-871.198,-0.317924,,
17,4,22.8512,21.5386,157.254,97.4471,101.142,-0.00454424,0.0411275,21.0402,33.4994,-0.332875,0.0,0.0
34,8.25,22.2987,21.852,153.89,97.4709,101.128,-0.00469266,0.0417854,21.0391,33.4394,-0.329501,0.0,0.0
51,12.5,22.3697,21.5353,159.418,97.4911,100.819,-0.00482239,0.040825,21.0412,33.4294,-0.300235,0.0,0.0
68,16.75,22.4252,22.4116,158.997,97.5049,101.248,-0.00448789,0.0394509,21.0431,33.4193,-0.33693,0.0,0.0
85,21,22.3388,21.8558,159.472,97.5013,101.061,-0.00437601,0.0384848,21.0434,33.4193,-0.320722,0.0,0.0
102,25.25,22.6164,22.188,157.13,97.5144,101.251,-0.00449678,0.0379405,21.0434,33.4294,-0.336332,0.0,0.0
119,29.5,22.6547,21.9795,159.505,97.4895,101.243,-0.00447399,0.0377187,21.0442,33.4193,-0.337936,0.0,0.0
136,33.75,22.1289,22.0077,158.583,97.4641,101.103,-0.0046073,0.0378436,21.0455,33.4093,-0.32793,0.0,0.0
153,38,22.3642,21.8357,155.214,97.4598,101.112,-0.00478662,0.0377244,21.0469,33.3893,-0.329116,0.0,0.0
170,42.25,22.3649,21.6593,157.182,97.4325,101.011,-0.00490958,0.037688,21.0464,33.3893,-0.322698,0.0,0.0
187,46.5,22.0187,21.846,156.052,97.4004,100.697,-0.00471088,0.0374686,21.0459,33.3793,-0.297783,0.0,0.0
204,50.75,22.4945,21.7587,162.619,97.3712,100.57,-0.00438899,0.0374721,21.0475,33.3893,-0.289141,0.0,0.0
221,55,22.3185,22.1898,153.475,97.3553,100.116,-0.00449683,0.0373035,21.0466,33.3793,-0.250164,0.0,0.0
238,59.25,22.2659,22.3476,157.587,97.3241,100.205,-0.00484566,0.0370921,21.0459,33.3693,-0.260973,0.0,0.0
255,63.5,22.021,21.8726,156.883,97.2932,100.158,-0.00472138,0.0369805,21.0466,33.3493,-0.259601,0.0,0.0
272,67.75,22.2289,22.5044,150.305,97.2623,99.7911,-0.00478035,0.0368264,21.0478,33.3593,-0.229602,0.0,0.0
289,72,22.2362,21.8864,158.18,97.2362,99.7076,-0.00476755,0.0369964,21.0464,33.3393,-0.224521,0.0,0.0
306,76.25,21.8986,22.3983,161.43,97.199,99.5137,-0.00445023,0.037156,21.0459,33.3193,-0.210528,0.0,0.0
323,80.5,21.9345,22.5461,159.836,97.1856,99.5381,-0.0045821,0.0370087,21.0477,33.2992,-0.213954,0.0,0.0
340,84.75,22.0721,22.3824,156.776,97.1737,99.331,-0.00466704,0.0369336,21.048,33.2992,-0.196418,0.0,0.0
357,89,21.6938,22.036,151.531,97.1579,99.358,-0.00445014,0.036869,21.0475,33.2792,-0.200311,0.0,0.0
374,93.25,22.4422,22.4679,157.522,97.2651,98.8388,-0.00432174,0.0370964,21.0456,33.2492,-0.143575,0.0,0.0
391,97.5,21.9739,22.1087,156.49,97.3581,99.003,-0.00429227,0.0373182,21.045,33.2492,-0.149874,0.0,0.0
408,101.75,22.3321,22.6454,157.487,97.4151,98.9327,-0.00430143,0.0374423,21.0445,33.2292,-0.138285,0.0,0.0
425,106,22.1432,22.5625,152.97,97.4784,98.0708,-0.00409711,0.0381647,21.0412,33.1992,-0.054201,0.0,0.0
442,110.25,22.4096,22.962,149.636,97.5148,77.3638,-0.000928251,0.0611967,20.9368,32.989,2.07071,0.0,1.0
459,114.5,26.1916,28.2855,129.075,97.5892,54.8547,0.00885624,0.25597,20.4531,32.5786,5.15322,0.0,1.0
476,118.75,32.0218,37.6398,121.082,97.6244,50.2965,0.0186559,0.517395,19.9991,31.9681,5.93247,0.0,0.0
493,123,39.0907,46.8773,122.637,97.6735,49.1194,0.0234715,0.693573,19.7922,31.3375,6.1488,0.0,0.0
510,127.25,45.191,54.6193,119.131,97.7198,47.9674,0.0265512,0.802572,19.6748,30.6369,6.36534,0.0,0.0
527,131.5,50.676,62.4556,116.196,97.7673,46.0656,0.0288933,0.867875,19.5965,29.9663,6.73157,0.0,0.0
544,135.75,55.5845,68.5895,114.107,97.7926,49.3157,0.0298816,0.910481,19.5637,29.2657,6.12404,0.0,0.0
561,140,60.0981,74.6469,115.283,97.8286,50.1586,0.0297341,0.932112,19.5529,28.5651,5.97572,0.0,0.0
578,144.25,63.5837,80.1314,113.348,97.8377,46.4454,0.0296309,0.942991,19.551,27.9546,6.66458,0.0,0.0
595,148.5,68.4231,83.9304,108.178,97.8547,47.8183,0.0302323,0.954922,19.5432,27.2339,6.40553,0.0,0.0
612,152.75,70.4099,88.5882,115.086,97.869,47.663,0.0314199,0.973133,19.5031,26.5233,6.43593,0.0,0.0
629,157,74.1889,92.8709,119.466,97.8745,47.0217,0.0324277,1.00347,19.4622,25.8027,6.55761,0.0,0.0
646,161.25,77.5445,96.188,119.097,97.8848,43.8501,0.0338608,1.02223,19.4297,25.072,7.18324,0.0,0.0
663,165.5,80.3824,100.259,110.803,97.8773,41.5067,0.0356377,1.05483,19.3715,24.3614,7.67385,0.0,0.0
680,169.75,83.5752,103.869,108.415,97.8769,41.3657,0.0371429,1.08774,19.328,23.5106,7.70425,0.0,0.0
697,174,86.8702,106.949,113.927,97.8638,43.0519,0.038629,1.10774,19.2995,22.76,7.34564,0.0,0.0
714,178.25,89.0544,110.943,114.821,97.861,39.4059,0.0395631,1.12919,19.2612,21.9693,8.13698,0.0,0.0
731,182.5,91.933,114.494,111.573,97.846,41.1068,0.0419568,1.17183,19.1766,21.1386,7.75758,0.0,0.0
748,186.75,94.6956,118.157,111.245,97.8029,40.6421,0.0436025,1.21196,19.1144,20.2578,7.85534,0.0,0.0
765,191,97.9003,121.454,106.195,97.7744,39.4132,0.0452364,1.26283,19.0356,19.367,8.12739,0.0,0.0
782,195.25,101.01,125.824,104.859,97.7071,39.2486,0.0487154,1.31636,18.9391,18.4862,8.15866,0.0,0.0
799,199.5,103.896,129.966,110.003,97.6054,35.6783,0.0519432,1.37003,18.8618,17.5554,9.0025,0.0,0.0
816,203.75,107.555,133.48,103.144,97.4756,35.3438,0.0553895,1.4229,18.7584,16.4745,9.07487,0.0,0.0
833,208,110.88,137.842,101.038,97.3142,34.9064,0.0581132,1.48239,18.6657,15.5937,9.17141,0.0,0.0
850,212.25,113.86,142.139,101.896,97.2259,33.7108,0.0603591,1.53309,18.5965,14.5528,9.47507,0.0,0.0
867,216.5,117.253,146.443,104.954,97.2857,33.3442,0.0625472,1.57669,18.5388,13.5019,9.57839,0.0,0.0
884,220.75,119.91,150.279,99.9303,97.3597,30.4283,0.0635106,1.61442,18.4912,12.4209,10.4038,0.0,0.0
901,225,122.849,153.593,108.548,97.4329,33.4214,0.0634691,1.62721,18.4764,11.4,9.57121,0.0,0.0
918,229.25,125.082,156.799,103.199,97.5081,36.0306,0.0626523,1.64775,18.4571,10.3491,8.90567,0.0,0.0
935,233.5,127.235,158.703,104.347,97.6062,33.3867,0.0630029,1.65457,18.4424,9.35822,9.59642,0.0,0.0
952,237.75,129.569,161.003,98.9487,97.6972,31.9291,0.0622779,1.65798,18.4543,8.31731,10.0041,0.0,0.0
969,242,131.085,162.472,105.4,97.7736,33.9449,0.0606511,1.62782,18.5359,7.25637,9.46341,0.0,0.0
986,246.25,131.238,162.79,102.472,97.8444,36.4173,0.0579109,1.57096,18.6351,6.34557,8.84098,0.0,0.0
1003,250.5,131.544,161.893,105.256,97.8848,35.8309,0.052964,1.49228,18.7858,5.44478,8.98989,0.0,0.0
1020,254.75,130.004,159.434,114.365,97.9188,39.635,0.0477102,1.3927,18.9627,4.63407,8.0904,0.0,0.0
1037,259,128.597,156.168,112.929,97.9331,41.9981,0.0409571,1.26124,19.1995,3.95347,7.57367,0.0,0.0
1054,263.25,125.95,152.175,115.976,97.9358,47.9029,0.0341689,1.12857,19.4233,3.33293,6.39713,0.0,0.0
1071,267.5,122.727,147.144,115.107,97.8935,48.1154,0.029458,0.995871,19.637,2.78244,6.35367,0.0,0.0
1088,271.75,119.552,141.318,125.602,97.8278,51.2871,0.0255385,0.876108,19.8243,2.23196,5.77663,0.0,0.0
1105,276,114.507,133.527,133.618,97.7491,60.476,0.018978,0.731872,20.0785,1.94171,4.29517,0.0,0.0
1122,280.25,108.188,124.562,143.013,97.6161,89.0113,0.0103178,0.52927,20.4838,1.80158,0.825467,0.0,0.0
1139,284.5,100.779,113.727,148.81,97.4645,96.3846,0.00319787,0.344689,20.7676,1.81159,0.0996747,0.0,0.0
1156,288.75,93.9473,104.588,150.803,97.3245,97.5972,-0.000612413,0.214036,20.9345,1.81159,-0.0250344,0.0,0.0
1173,293,87.8175,96.6088,148.191,97.1424,97.3106,-0.00249375,0.147808,20.9967,1.8216,-0.0154688,0.0,0.0
1190,297.25,82.4928,89.5802,150.557,96.9553,97.6563,-0.00347715,0.113453,21.0174,1.81159,-0.0644488,0.0,0.0
1207,301.5,78.3085,83.3476,144.427,96.7629,96.8354,-0.0037965,0.0928614,21.0277,1.81159,-0.00669503,0.0,0.0
1224,305.75,74.2387,77.5808,154.465,96.5603,97.8529,-0.00404324,0.0790225,21.0327,1.8216,-0.118953,0.0,0.0
1241,310,70.4426,72.8358,144.907,96.3633,95.8905,-0.00411348,0.0696646,21.0339,1.83161,0.0439987,0.0,0.0
1258,314.25,67.3522,68.2441,153.446,96.201,96.6608,-0.00415232,0.0627786,21.0346,1.83161,-0.0426474,0.0,0.0
1275,318.5,64.4568,64.5449,146.627,96.0653,96.2296,-0.00409771,0.0577606,21.0357,1.8216,-0.0152904,0.0,0.0
1292,322.75,61.5223,61.6266,149.956,95.947,96.5955,-0.00457497,0.054044,21.0369,1.8216,-0.0602582,0.0,0.0
1309,327,59.3151,57.871,153.34,95.8655,96.4734,-0.0045452,0.0513152,21.037,1.8216,-0.0565492,0.0,0.0
1326,331.25,57.2909,55.9824,150.207,95.8152,95.8538,-0.00435972,0.0493126,21.0377,1.8216,-0.00359865,0.0,0.0
1343,335.5,55.0299,53.3558,153.921,95.82,96.6198,-0.0044897,0.0477776,21.0394,1.8216,-0.0743621,0.0,0.0
1360,339.75,53.2047,50.878,151.028,95.818,96.6739,-0.0045377,0.0461293,21.0401,1.81159,-0.0795534,0.0,0.0
1377,344,51.4489,49.5217,149.456,95.8726,96.7353,-0.00463569,0.0449019,21.0403,1.81159,-0.0801382,0.0,0.0
1394,348.25,50.3192,47.324,151.791,95.9418,96.8439,-0.00464582,0.044093,21.0403,1.83161,-0.0837122,0.0,0.0
1411,352.5,48.8532,46.3246,153.253,96.0249,95.9693,-0.00470483,0.0434466,21.0402,1.83161,0.00518744,0.0,0.0
1428,356.75,47.4428,44.4505,152.372,96.1496,96.9212,-0.00467432,0.0427958,21.0395,1.81159,-0.071497,0.0,0.0
1445,361,46.7242,42.9793,153.518,96.2766,97.3322,-0.00467587,0.0420393,21.04,1.81159,-0.0975437,0.0,0.0
1462,365.25,44.5492,41.3128,154.988,96.4159,97.3021,-0.00482417,0.0411538,21.0394,1.8216,-0.0818416,0.0,0.0
1479,369.5,44.2578,41.3475,152.121,96.5702,98.1674,-0.00456504,0.0407712,21.0393,1.81159,-0.146737,0.0,0.0
1496,373.75,43.231,40.5266,151.959,96.7265,97.4357,-0.0046047,0.0405011,21.0393,1.81159,-0.0653473,0.0,0.0
1513,378,42.762,39.3703,153.021,96.8484,98.3192,-0.00451037,0.0400827,21.0393,1.8216,-0.13483,0.0,0.0
1530,382.25,41.6939,38.5004,155.003,96.9774,97.4608,-0.004116,0.0397139,21.0393,1.81159,-0.0444798,0.0,0.0
1547,386.5,41.1005,37.7264,148.669,97.0938,98.2049,-0.00423986,0.0395504,21.0393,1.8216,-0.101787,0.0,0.0
1564,390.75,40.4479,36.9705,152.671,97.1903,98.6766,-0.00431819,0.0392097,21.0393,1.8216,-0.13576,0.0,0.0
1581,395,39.9241,36.2257,151.113,97.2505,98.5016,,,,1.81159,-0.114347,0.0,0.0
1598,399.25,39.3822,35.9836,153.471,97.3165,98.4823,,,,1.84162,-0.106516,0.0,0.0
1610,402.25,38.3682,35.1703,148.532,97.3387,97.9422,,,,1.83161,-0.0552878,0.0,0.0