File: 01_Data/ABS/Cone/ABS_Cone_HF50Scan_220217_R1.csv
Names,Time,Stack TC,Smoke TC,Exh Press,Smoke Comp,Smoke Meas,CO Meter,CO2 Meter,O2 Meter,Sample Mass,Ext Coeff,Start Test,Flame Verif
Chan Gain,,500,500,1,1,1,1,1,1,1,1,1.0,1.0
Offset,,0,0,0.140898,0,0,0,0,0,0,0,0.0,0.0
Gain,,1,1,25.011,12.9668,12.6588,1,1,1,1.00088,1.01977,1.0,1.0
Units,sec,C,C,Pa,%,%,%,%,%,g,/m,,
Baseline,,30.7959,32.5488,151.2,97.6636,99.7548,-0.00431944,0.0370403,21.0403,-871.991,-0.189495,,
11,2.5,28.7605,29.9533,151.035,97.7855,99.9781,-0.00430057,0.0408621,21.0364,32.6186,-0.198362,0.0,0.0
22,5.25,28.843,30.2492,150.939,97.8076,100.053,-0.00414277,0.0408123,21.0372,32.6687,-0.203039,0.0,0.0
33,8,29.4816,30.7518,154.468,97.8076,100,-0.00418395,0.0406521,21.038,32.6086,-0.19834,0.0,0.0
44,10.75,28.8627,30.8939,154.329,97.8029,99.8174,-0.00431389,0.0402859,21.0396,32.6186,-0.182379,0.0,0.0
55,13.5,29.3659,30.6963,157.005,97.8053,100.233,-0.00441847,0.0395279,21.0401,32.5986,-0.219336,0.0,0.0
66,16.25,29.5491,30.9514,152.507,97.8235,99.8718,-0.00434786,0.0389368,21.0419,32.5686,-0.185377,0.0,0.0
77,19,29.4945,30.6324,153.119,97.8262,99.4392,-0.00419925,0.0384916,21.0424,32.5786,-0.146286,0.0,0.0
88,21.75,29.2268,31.0286,151.764,97.8219,98.6619,-0.00416068,0.0381146,21.0415,32.5586,-0.0764887,0.0,0.0
99,24.5,29.3537,30.986,151.709,97.8302,97.931,-0.00397372,0.0378446,21.0433,32.5286,-0.00921122,0.0,0.0
110,27.25,30.0658,31.4014,141.14,97.8353,79.9363,-0.00195135,0.0520294,20.9903,32.3884,1.80745,0.0,1.0
121,30,31.6173,33.9016,133.359,97.8298,57.8533,0.00403452,0.135333,20.7711,32.1683,4.69915,0.0,0.0
132,32.75,34.2542,38.3879,120.052,97.8314,50.73,0.0112884,0.286757,20.43,31.7879,5.87465,0.0,0.0
143,35.5,38.205,44.2417,126.184,97.8282,50.3603,0.0181788,0.452091,20.1508,31.3675,5.93979,0.0,0.0
154,38.25,42.4445,50.7818,114.99,97.8349,43.6287,0.024538,0.602855,19.8662,30.8871,7.22395,0.0,0.0
165,41,47.5205,57.601,107.136,97.8599,38.6846,0.030752,0.746533,19.6239,30.4167,8.30212,0.0,0.0
176,43.75,52.4943,64.6402,112.671,97.8421,37.4337,0.0370491,0.885598,19.3901,29.8462,8.59452,0.0,0.0
187,46.5,58.2892,72.3424,109.791,97.8365,37.1104,0.0424038,1.01552,19.2108,29.2657,8.67162,0.0,0.0
198,49.25,62.7878,80.4677,106.47,97.8361,34.5638,0.0471923,1.12596,19.0786,28.6051,9.30751,0.0,0.0
209,52,68.4321,86.5766,105.919,97.8428,34.4548,0.0499522,1.22499,18.9439,27.9846,9.33636,0.0,0.0
220,54.75,73.1518,93.2433,107.717,97.8496,33.3222,0.0529715,1.29069,18.8678,27.3941,9.63599,0.0,0.0
231,57.5,77.0897,99.1336,102.312,97.863,32.5793,0.0557353,1.34007,18.8096,26.7935,9.83891,0.0,0.0
242,60.25,82.1414,104.991,104.57,97.8531,29.8291,0.0582765,1.38427,18.7324,26.0729,10.6269,0.0,0.0
253,63,86.0039,110.972,103.488,97.8547,30.7663,0.060722,1.43927,18.6589,25.4724,10.3503,0.0,0.0
264,65.75,89.767,116.559,107.026,97.8658,30.6508,0.063281,1.49693,18.559,24.6617,10.385,0.0,0.0
275,68.5,94.2949,122.559,92.8219,97.8872,26.5651,0.0663686,1.55767,18.4759,23.9711,11.6667,0.0,0.0
286,71.25,98.2207,128.03,94.2622,97.8911,29.6854,0.0693932,1.61102,18.4153,23.1603,10.6736,0.0,0.0
297,74,102.745,133.076,87.5576,97.8971,28.5801,0.0731426,1.66314,18.3148,22.4497,11.0135,0.0,0.0
308,76.75,106.943,138.878,92.3899,97.8911,26.3932,0.0773395,1.72621,18.22,21.6991,11.7251,0.0,0.0
319,79.5,110.683,144.088,103.076,97.9109,26.9271,0.0831791,1.79471,18.0917,20.9784,11.5478,0.0,0.0
330,82.25,114.884,150.302,91.6014,97.9101,25.8423,0.088678,1.88842,17.9391,20.0776,11.9155,0.0,0.0
341,85,118.918,156.463,94.1149,97.9054,22.7425,0.0950395,1.98248,17.785,19.1768,13.0581,0.0,0.0
352,87.75,124.773,163.116,90.8695,97.9026,22.0282,0.102568,2.11212,17.5366,18.2961,13.3433,0.0,0.0
363,90.5,128.786,169.808,86.6844,97.9129,21.1667,0.110366,2.22565,17.376,17.2852,13.7011,0.0,0.0
374,93.25,133.217,176.626,86.6524,97.9192,20.9334,0.118509,2.32713,17.2468,16.4144,13.8009,0.0,0.0
385,96,137.222,182.14,88.7186,97.9129,21.0728,0.126625,2.42961,17.0906,15.4235,13.7409,0.0,0.0
396,98.75,142.641,189.514,87.021,97.9145,17.499,0.134278,2.54765,16.8944,14.3626,15.4034,0.0,0.0
407,101.5,146.946,196.726,88.7773,97.8986,18.7356,0.142801,2.67412,16.684,13.2416,14.7912,0.0,0.0
418,104.25,152.199,204.147,66.9271,97.9176,17.7377,0.153975,2.80544,16.4688,12.1907,15.2825,0.0,0.0
429,107,157.03,211.906,73.0852,97.9176,17.3572,0.164226,2.94331,16.269,10.9897,15.4765,0.0,0.0
440,109.75,161.72,217.981,85.0342,97.9141,14.2014,0.171751,3.04733,16.1061,9.91871,17.2712,0.0,0.0
451,112.5,165.771,224.334,76.0741,97.9184,15.5126,0.177908,3.12838,16.0013,8.73767,16.4816,0.0,0.0
462,115.25,169.929,230.618,76.7557,97.9311,17.4693,0.184108,3.21084,15.8808,7.6267,15.4202,0.0,0.0
473,118,174.572,236.992,89.1887,97.9172,18.3369,0.188973,3.29513,15.7802,6.47569,14.9853,0.0,0.0
484,120.75,178.336,241.442,89.9345,97.907,18.488,0.188168,3.34188,15.7492,5.38473,14.911,0.0,0.0
495,123.5,181.153,245.176,79.9432,97.8986,18.5853,0.17999,3.30947,15.8545,4.34382,14.8632,0.0,0.0
506,126.25,182.578,245.955,83.9336,97.9073,18.5641,0.1618,3.1786,16.0821,3.22283,14.8742,0.0,0.0
517,129,182.991,244.64,86.6447,97.8591,18.6348,0.13728,2.99259,16.5201,2.43214,14.8358,0.0,0.0
528,131.75,181.625,241.406,90.2329,97.8504,26.4685,0.11247,2.70291,16.9986,1.7115,11.6959,0.0,0.0
539,134.5,178.009,234.261,118.302,97.8239,37.5357,0.0830535,2.31378,17.7705,1.30114,8.56852,0.0,0.0
550,137.25,171.719,223.131,122.96,97.7831,52.6743,0.0572232,1.81586,18.6319,1.0209,5.5338,0.0,0.0
561,140,164.763,210.055,135.216,97.7336,85.9045,0.0363724,1.33664,19.3032,0.950835,1.15403,0.0,0.0
572,142.75,156.223,196.84,138.528,97.7051,93.7391,0.0241595,0.950706,19.9796,0.940826,0.370688,0.0,0.0
583,145.5,148.302,184.473,138.245,97.6596,93.7228,0.0180632,0.668313,20.4528,0.930818,0.368069,0.0,0.0
594,148.25,141.571,173.744,137.453,97.5963,93.4972,0.0152001,0.474491,20.6844,0.920809,0.383826,0.0,0.0
605,151,135.485,163.87,140.859,97.5239,93.9863,0.0132443,0.350844,20.8133,0.890782,0.330516,0.0,0.0
616,153.75,129.816,155.379,142.67,97.4507,93.0352,0.0115186,0.278958,20.8778,0.890782,0.414784,0.0,0.0
627,156.5,124.741,147.149,137.956,97.3664,93.2469,0.00994003,0.229223,20.9163,0.860756,0.386712,0.0,0.0
638,159.25,119.654,139.67,138.451,97.2801,94.0898,0.00824232,0.195521,20.9395,0.860756,0.298281,0.0,0.0
649,162,113.839,132.247,138.031,97.1646,93.5834,0.00693125,0.169456,20.9544,0.820721,0.33593,0.0,0.0
660,164.75,109.997,126.04,143.209,97.0613,93.8353,0.00545181,0.151157,20.9668,0.810712,0.302373,0.0,0.0
671,167.5,106.458,120.759,142.023,96.9529,93.972,0.00411909,0.133368,20.9764,0.83073,0.279347,0.0,0.0
682,170.25,102.702,115.133,140.593,96.8536,93.3697,0.0026688,0.11889,20.9868,0.780686,0.327693,0.0,0.0
693,173,99.4143,111.284,143.815,96.7238,93.6629,0.00146421,0.107494,20.9944,0.780686,0.287651,0.0,0.0
704,175.75,96.3509,106.315,138.309,96.6122,93.3423,0.000494079,0.0976512,21.0011,0.800703,0.308,0.0,0.0
715,178.5,93.2355,102.342,142.058,96.4911,93.52,-0.000445796,0.0889114,21.0083,0.790694,0.279767,0.0,0.0
726,181.25,90.3711,98.1637,139.889,96.389,92.9931,-0.00126435,0.082185,21.0122,0.800703,0.320841,0.0,0.0
737,184,87.3815,94.8686,139.958,96.296,92.9174,-0.00176377,0.0764044,21.0167,0.790694,0.319495,0.0,0.0
748,186.75,85.2894,91.7199,141.852,96.1931,92.7509,-0.00212406,0.0718719,21.0188,0.780686,0.325976,0.0,0.0
759,189.5,83.1437,88.9877,140.978,96.1017,93.2693,-0.00231429,0.0678698,21.0206,0.790694,0.26761,0.0,0.0
770,192.25,80.69,85.4667,141.515,96.0261,93.1549,-0.00231727,0.0642977,21.0225,0.780686,0.271545,0.0,0.0
781,195,78.9683,82.7129,138.442,95.9858,93.024,-0.00247477,0.0611815,21.0242,0.780686,0.28037,0.0,0.0
792,197.75,77.2328,80.8546,140.796,95.9106,92.8799,-0.00263627,0.0588032,21.0263,0.770677,0.287227,0.0,0.0
803,200.5,75.4931,78.6653,138.217,95.8595,93.3968,-0.00276471,0.0564561,21.027,0.770677,0.23282,0.0,0.0
814,203.25,74.0967,76.2714,143.419,95.8235,93.3114,-0.00311595,0.0545794,21.0273,0.770677,0.237639,0.0,0.0
825,206,72.513,74.5117,145.188,95.8018,93.0897,-0.00325377,0.0531953,21.0288,0.750659,0.256892,0.0,0.0
836,208.75,70.9652,72.5255,142.54,95.8188,92.3224,-0.00316952,0.0517484,21.0294,0.760668,0.332512,0.0,0.0
847,211.5,69.8277,70.9921,144.873,95.8251,92.9571,-0.00341985,0.0505028,21.0276,0.750659,0.271814,0.0,0.0
858,214.25,68.4487,69.1733,140.642,95.837,92.8644,-0.00369206,0.0494098,21.0271,0.760668,0.281847,0.0,0.0
869,217,67.2789,67.5826,142.077,95.8698,93.7097,-0.00372351,0.0483548,21.0269,0.750659,0.20386,0.0,0.0
880,219.75,66.2712,66.9271,139.922,95.9288,94.4418,-0.00371832,0.0476227,21.0277,0.740651,0.13975,0.0,0.0
891,222.5,65.4437,65.3263,139.31,96,94.13,-0.00369881,0.0468844,21.0285,0.750659,0.175967,0.0,0.0
902,225.25,64.2443,63.9785,142.119,96.0696,94.8872,-0.00365277,0.0461393,21.0273,0.750659,0.110785,0.0,0.0
913,228,63.0805,62.9939,141.072,96.1353,94.361,-0.00362559,0.0454597,21.0282,0.760668,0.166642,0.0,0.0
924,230.75,62.2734,61.8856,141.636,96.218,94.5665,-0.003679,0.0449869,21.0289,0.770677,0.154871,0.0,0.0
935,233.5,61.255,59.8869,141.333,96.3213,94.9617,-0.00372956,0.0445841,21.0287,0.740651,0.127163,0.0,0.0
946,236.25,60.8138,60.0657,138.834,96.4143,94.6411,-0.00369232,0.0441216,21.0286,0.730642,0.16605,0.0,0.0
957,239,59.692,59.4185,141.539,96.5235,95.7981,-0.00374968,0.0437343,21.0285,0.760668,0.0674805,0.0,0.0
968,241.75,59.688,58.1115,141.901,96.6145,95.1495,-0.00372804,0.0434214,21.0285,0.730642,0.136685,0.0,0.0
979,244.5,58.4903,57.3265,150.161,96.725,93.9975,-0.00356626,0.0429711,21.0301,0.740651,0.255866,0.0,0.0
990,247.25,58.2155,56.685,144.546,96.8243,94.888,-0.00339052,0.0425849,21.0306,0.740651,0.180703,0.0,0.0
1001,250,57.6569,55.9052,143.235,96.9117,95.7151,,0.0422121,,0.740651,0.111144,0.0,0.0
1012,252.75,56.9898,55.3171,142.343,96.9826,95.0564,,,,0.740651,0.17945,0.0,0.0
1023,255.5,56.4698,54.8998,144.088,97.0277,95.4416,,,,0.740651,0.147438,0.0,0.0
1034,258.25,56.013,54.2482,144.006,97.1242,94.3726,,,,0.730642,0.257089,0.0,0.0
1043,260.5,55.6474,53.4605,141.803,97.1519,95.7583,,,,0.750659,0.129245,0.0,0.0