File: 01_Data/ABS/Cone/ABS_Cone_HF50Scalar_220217_R1.csv
LABORATORY,FSRI
TEST IDENT,PlasticA_HF50_1
OPERATOR,Dow
MATERIAL,Plastic A
ORIENTATION,Horizontal
HEAT FLUX,50
SURF AREA,0.01
C FACTOR,0.0393671
SPEC HOLDER DIFF,305.35
SPECIMEN MASS,32.6
SCAN TIME,0.25
O2 DELAY TIME,11
CO DELAY TIME,11
CO2 DELAY TIME,8
FLOW FACTOR,1
SCAN COUNT,1043
TIME TO IGN,25.25
END OF TEST SCAN,563
END OF TEST TIME,140.75
TEST STATUS,1
PRE TEST CMT,Dimensions: 100.09 x 100.16 x 3.09 mm