File: 01_Data/ABS/Cone/ABS_Cone_HF25Scan_220217_R2.csv
Names,Time,Stack TC,Smoke TC,Exh Press,Smoke Comp,Smoke Meas,CO Meter,CO2 Meter,O2 Meter,Sample Mass,Ext Coeff,Start Test,Flame Verif
Chan Gain,,500,500,1,1,1,1,1,1,1,1,1.0,1.0
Offset,,0,0,0.140898,0,0,0,0,0,0,0,0.0,0.0
Gain,,1,1,25.011,12.9668,12.6588,1,1,1,1.00088,1.01977,1.0,1.0
Units,sec,C,C,Pa,%,%,%,%,%,g,/m,,
Baseline,,16.7909,17.8483,159.489,97.5867,101.431,-0.00426955,0.0402704,21.041,-871.128,-0.345657,,
17,4,15.8871,16.6417,157.513,96.3641,100.082,-0.00450695,0.040516,21.0457,33.3293,-0.338639,0.0,0.0
34,8.25,16.4341,17.0729,157.639,96.41,100.259,-0.00453631,0.0399215,21.0479,33.3993,-0.350145,0.0,0.0
51,12.5,16.3331,17.5603,160.593,96.4297,100.286,-0.00451031,0.0393766,21.0484,33.3693,-0.350791,0.0,0.0
68,16.75,16.232,17.4349,159.274,96.48,100.298,-0.00450125,0.0388978,21.0504,33.3693,-0.347163,0.0,0.0
85,21,16.2468,17.0392,162.068,96.5176,100.292,-0.00463171,0.0384588,21.0507,33.3593,-0.343128,0.0,0.0
102,25.25,16.3836,17.4891,162.431,96.5762,100.333,-0.00482309,0.0380427,21.0508,33.3493,-0.341422,0.0,0.0
119,29.5,16.4956,17.3077,157.239,96.624,100.53,-0.00474916,0.0375126,21.0522,33.3393,-0.354467,0.0,0.0
136,33.75,16.6421,17.147,159.539,96.6965,100.531,-0.00474443,0.0373535,21.0527,33.3493,-0.347904,0.0,0.0
153,38,16.4622,18.025,163.76,96.774,100.504,-0.00457664,0.0370468,21.0526,33.3393,-0.338325,0.0,0.0
170,42.25,16.8757,17.8972,159.2,96.8203,100.609,-0.00448368,0.0368743,21.0526,33.3293,-0.343393,0.0,0.0
187,46.5,16.4054,17.5534,161.056,96.9098,100.452,-0.00428894,0.0368167,21.0516,33.3393,-0.321109,0.0,0.0
204,50.75,16.5721,17.8932,162.746,96.9774,100.265,-0.00453472,0.0367988,21.0505,33.3193,-0.2982,0.0,0.0
221,55,16.6706,18.0234,157.888,97.0447,100.101,-0.00453029,0.036757,21.0492,33.3093,-0.277406,0.0,0.0
238,59.25,17.0936,17.735,158.714,97.1317,100.153,-0.00443352,0.03698,21.0474,33.2992,-0.27401,0.0,0.0
255,63.5,17.034,17.8336,160.95,97.2235,100.109,-0.00443711,0.037987,21.0455,33.3193,-0.261659,0.0,0.0
272,67.75,17.1146,17.8351,156.049,97.2956,100.114,-0.00442518,0.0390687,21.0428,33.2892,-0.255449,0.0,0.0
289,72,16.6827,18.1738,159.061,97.3739,99.9889,-0.00446015,0.0395776,21.0425,33.2592,-0.237057,0.0,0.0
306,76.25,17.0272,18.2749,159.826,97.4483,100.14,-0.00451277,0.0391681,21.0452,33.2492,-0.243763,0.0,0.0
323,80.5,16.8727,18.3955,156.504,97.5275,99.7517,-0.00463232,0.0385645,21.0468,33.2492,-0.201718,0.0,0.0
340,84.75,16.8797,17.8037,157.98,97.5623,99.8147,-0.00471934,0.0379379,21.0486,33.2492,-0.204169,0.0,0.0
357,89,17.3184,18.7343,157.404,97.6149,99.7822,-0.00455514,0.0376308,21.0493,33.2292,-0.196436,0.0,0.0
374,93.25,17.6596,18.3555,157.155,97.6671,99.4627,-0.00439522,0.037635,21.0482,33.2292,-0.162965,0.0,0.0
391,97.5,17.6013,18.6617,162.14,97.6941,99.2128,-0.00456373,0.0372141,21.0473,33.1891,-0.137992,0.0,0.0
408,101.75,17.5378,18.5436,155.855,97.7265,98.7376,-0.00461185,0.037512,21.0493,33.1891,-0.0920759,0.0,0.0
425,106,17.4525,18.7879,157.94,97.7621,98.7925,-0.00435315,0.0378706,21.0494,33.1491,-0.0937848,0.0,0.0
442,110.25,17.0426,18.5722,158.534,97.757,97.3596,-0.00296,0.0435381,21.015,33.0891,0.0364339,0.0,1.0
459,114.5,19.4308,21.9885,132.156,97.7641,60.6734,0.00563723,0.167238,20.6209,32.7087,4.26739,0.0,0.0
476,118.75,25.8232,29.8767,128.193,97.7934,53.0977,0.0163992,0.424066,20.1206,32.0782,5.46312,0.0,0.0
493,123,32.3886,40.0013,124.378,97.7906,51.2025,0.0220648,0.624181,19.8665,31.4676,5.788,0.0,0.0
510,127.25,38.6106,48.1374,120.331,97.8053,51.7213,0.0254886,0.743338,19.7347,30.8471,5.69915,0.0,0.0
527,131.5,44.0791,55.8699,116.642,97.8286,51.7402,0.0275007,0.816176,19.6646,30.1565,5.69802,0.0,0.0
544,135.75,48.2256,61.8771,126.037,97.8112,52.1416,0.0284936,0.866556,19.624,29.4759,5.6273,0.0,0.0
561,140,53.5283,68.3127,115.629,97.8207,46.676,0.0292169,0.888989,19.6193,28.8153,6.61871,0.0,0.0
578,144.25,57.1264,73.4495,119.39,97.8282,50.6717,0.0292415,0.903256,19.6154,28.1447,5.88466,0.0,0.0
595,148.5,61.1298,77.5297,122.973,97.8306,48.3727,0.0296695,0.919136,19.6014,27.4741,6.30022,0.0,0.0
612,152.75,64.6046,82.1876,117.064,97.8444,45.8771,0.0308624,0.934134,19.5797,26.8035,6.77532,0.0,0.0
629,157,67.9101,86.0574,114.162,97.848,45.9412,0.0324011,0.955416,19.5319,26.0829,6.76315,0.0,0.0
646,161.25,70.3712,89.8055,120.998,97.8583,43.9826,0.0339915,0.982108,19.4905,25.4023,7.15382,0.0,0.0
663,165.5,74.3349,93.0578,114.166,97.8365,42.4103,0.0349371,1.01286,19.4421,24.6617,7.47747,0.0,0.0
680,169.75,77.1418,98.0728,121.818,97.8409,44.5196,0.0363196,1.05016,19.3902,23.8509,7.04368,0.0,0.0
697,174,79.722,100.646,115.397,97.8326,42.967,0.0376697,1.08277,19.3414,23.0703,7.36046,0.0,0.0
714,178.25,82.4991,103.797,119.003,97.8235,45.0349,0.0384943,1.10081,19.3188,22.3296,6.93913,0.0,0.0
731,182.5,84.3632,107.378,112.153,97.8116,42.9453,0.0394155,1.12825,19.2676,21.4689,7.36304,0.0,0.0
748,186.75,87.7233,110.468,114.717,97.7811,42.2082,0.0405852,1.15396,19.2218,20.6882,7.51512,0.0,0.0
765,191,90.9441,114.156,106.652,97.7479,39.1138,0.0422767,1.18691,19.1763,19.8274,8.19317,0.0,0.0
782,195.25,93.7914,118.398,105.846,97.7012,36.913,0.0459814,1.24418,19.0648,18.9767,8.70695,0.0,0.0
799,199.5,97.5798,120.815,108.618,97.6505,38.7244,0.04881,1.29442,18.9872,18.0559,8.27376,0.0,0.0
816,203.75,98.986,125.581,103.749,97.5928,35.9263,0.0516298,1.35883,18.8652,17.125,8.93937,0.0,0.0
833,208,103.539,130.121,105.492,97.5298,34.1593,0.0535043,1.41205,18.797,16.1242,9.38476,0.0,0.0
850,212.25,106.386,134.134,110.931,97.455,36.0403,0.0559939,1.45335,18.7379,15.1733,8.89841,0.0,0.0
867,216.5,109.164,137.919,99.9479,97.3767,34.1798,0.0590962,1.49859,18.6712,14.1224,9.36534,0.0,0.0
884,220.75,112.732,141.802,109.29,97.2683,32.1172,0.0616101,1.53299,18.6287,13.1516,9.91215,0.0,0.0
901,225,115.31,145.126,109.469,97.1816,33.1047,0.0628098,1.55598,18.5938,12.1307,9.6333,0.0,0.0
918,229.25,117.585,148.199,108.496,97.0981,32.6492,0.062896,1.58033,18.5525,11.1198,9.74954,0.0,0.0
935,233.5,120.34,151.408,104.279,97.0075,30.3908,0.0638108,1.61254,18.5063,10.0588,10.3824,0.0,0.0
952,237.75,122.451,154.148,104.909,96.9086,34.9424,0.0648042,1.62686,18.5009,9.04795,9.12485,0.0,0.0
969,242,124.901,156.862,103.338,96.8132,33.6675,0.0641628,1.62899,18.5276,8.00703,9.44851,0.0,0.0
986,246.25,126.247,158.018,101.877,96.6953,36.4204,0.0607216,1.5888,18.6208,7.06621,8.73454,0.0,0.0
1003,250.5,126.852,157.885,100.577,96.5971,35.4593,0.057401,1.52966,18.7435,6.04531,8.9647,0.0,0.0
1020,254.75,126.154,157.013,114.107,96.4978,38.2972,0.0522745,1.44765,18.8867,5.22459,8.26679,0.0,0.0
1037,259,125.988,155.35,106.051,96.3929,38.4026,0.0475065,1.36043,19.0103,4.38385,8.23246,0.0,0.0
1054,263.25,124.428,152.061,113.114,96.3043,45.8802,0.0411415,1.24804,19.2368,3.65321,6.63279,0.0,0.0
1071,267.5,121.793,147.803,114.681,96.2248,44.3082,0.0357126,1.10884,19.4856,3.05268,6.93725,0.0,0.0
1088,271.75,118.652,142.589,119.596,96.1353,42.3678,0.0311014,0.975438,19.722,2.41212,7.32953,0.0,0.0
1105,276,113.496,134.697,137.681,96.0423,56.0036,0.0215345,0.812281,20.0426,2.08183,4.82487,0.0,0.0
1122,280.25,106.481,124.313,146.076,95.962,90.5257,0.010004,0.55969,20.5209,2.00176,0.521682,0.0,0.0
1139,284.5,98.7602,113.514,147.867,95.8959,96.5993,0.00303765,0.359875,20.8175,2.02178,-0.0653763,0.0,0.0
1156,288.75,92.7872,104.906,147.882,95.8338,96.3664,-0.000576368,0.231914,20.9496,2.01177,-0.0495755,0.0,0.0
1173,293,86.3169,96.0899,148.548,95.797,96.6013,-0.00237059,0.163654,21.0023,2.03178,-0.074789,0.0,0.0
1190,297.25,80.4995,89.1933,149.761,95.793,98.0538,-0.00338538,0.125957,21.0223,2.03178,-0.208663,0.0,0.0
1207,301.5,76.2562,82.2242,152.42,95.7978,96.7191,-0.00360898,0.103515,21.0329,2.03178,-0.0856186,0.0,0.0
1224,305.75,71.8429,76.6674,151.41,95.8243,97.3156,-0.00384019,0.0879184,21.0364,2.02178,-0.13814,0.0,0.0
1241,310,68.3385,71.2057,150.709,95.9011,97.4183,-0.00414747,0.0771566,21.0384,2.02178,-0.140418,0.0,0.0
1258,314.25,64.6199,66.5966,148.591,96.004,97.7718,-0.00444511,0.0694227,21.0406,2.02178,-0.163225,0.0,0.0
1275,318.5,61.5114,62.8407,153.553,96.1385,98.5549,-0.00453214,0.0640559,21.041,2.01177,-0.222056,0.0,0.0
1292,322.75,58.8798,59.9236,146.279,96.2999,97.9924,-0.00422013,0.0596279,21.0411,2.03178,-0.155847,0.0,0.0
1309,327,56.5152,56.5785,151.254,96.4638,98.2354,-0.00454897,0.0559995,21.0414,2.03178,-0.162797,0.0,0.0
1326,331.25,54.5027,53.7851,152.589,96.6213,98.5271,-0.00453871,0.0530531,21.0427,2.04179,-0.174724,0.0,0.0
1343,335.5,52.1979,51.8542,148.959,96.7997,98.4687,-0.00460256,0.0507191,21.0447,2.02178,-0.152918,0.0,0.0
1360,339.75,50.0753,49.1726,153.255,96.9557,99.1085,-0.00436628,0.0485459,21.045,2.02178,-0.196451,0.0,0.0
1377,344,48.7052,47.1107,155.807,97.0839,99.438,-0.00440009,0.0469403,21.045,2.03178,-0.214323,0.0,0.0
1394,348.25,47.0365,45.5084,154.644,97.2235,99.3051,-0.00435017,0.0454847,21.0446,2.03178,-0.189498,0.0,0.0
1411,352.5,45.5144,44.2648,153.744,97.3498,99.3499,-0.00446992,0.0443633,21.0444,2.04179,-0.181927,0.0,0.0
1428,356.75,44.7857,42.4815,151.76,97.4262,99.0505,-0.00458652,0.0436752,21.0444,2.02178,-0.147915,0.0,0.0
1445,361,43.5723,41.474,151.606,97.5136,99.4639,-0.0046667,0.0428887,21.0451,2.02178,-0.177141,0.0,0.0
1462,365.25,42.488,40.2644,154.402,97.5848,100.079,-0.00474992,0.0421036,21.0452,2.02178,-0.225786,0.0,0.0
1479,369.5,42.1594,39.1626,156.499,97.5872,100.065,-0.00492762,0.041498,21.0467,2.03178,-0.224256,0.0,0.0
1496,373.75,40.9717,38.0494,152.163,97.5844,100.318,-0.0050009,0.041127,21.0462,2.01177,-0.247171,0.0,0.0
1513,378,40.3747,36.8245,154.301,97.5666,99.5083,-0.00491959,0.0406558,21.0447,2.03178,-0.176274,0.0,0.0
1530,382.25,39.5605,36.5853,150.084,97.5112,99.4523,-0.00469566,0.0402414,21.0465,2.02178,-0.176316,0.0,0.0
1547,386.5,37.8326,35.0401,151.997,97.4404,99.6288,-0.00473567,0.0400253,21.0474,2.03178,-0.198683,0.0,0.0
1564,390.75,37.3789,34.5927,150.066,97.3806,99.5655,-0.00455828,0.0396527,21.0471,2.01177,-0.198481,0.0,0.0
1581,395,37.3626,34.7585,151.291,97.3193,99.5006,-0.00450529,0.0394111,21.0468,2.03178,-0.198283,0.0,0.0
1598,399.25,37.1005,33.9184,155.433,97.2797,99.4871,,0.039336,,2.03178,-0.200706,0.0,0.0
1615,403.5,36.5712,33.6226,153.363,97.2362,99.2093,,,,2.02178,-0.179699,0.0,0.0
1632,407.75,35.8276,33.2632,153.76,97.2699,100.036,,,,2.03178,-0.250873,0.0,0.0
1640,409.75,34.9496,32.3594,155.909,97.3466,99.8618,,,,2.02178,-0.228188,0.0,0.0