File: 01_Data/ABS/Cone/ABS_Cone_HF25Scalar_220217_R1.csv
LABORATORY,FSRI
TEST IDENT,PlasticA_HF25_1
OPERATOR,Dow
MATERIAL,Plastic A
ORIENTATION,Horizontal
HEAT FLUX,25
SURF AREA,0.01
C FACTOR,0.0393671
SPEC HOLDER DIFF,305.1
SPECIMEN MASS,32.7
SCAN TIME,0.25
O2 DELAY TIME,11
CO DELAY TIME,11
CO2 DELAY TIME,8
FLOW FACTOR,1
SCAN COUNT,1632
TIME TO IGN,113
END OF TEST SCAN,1152
END OF TEST TIME,288
TEST STATUS,1
PRE TEST CMT,Dimensions: 100.06 x 100.24 x 3.04 mm