File: 01_Data/ABS/Cone/ABS_HRRPUA_50.csv
Time after Ignition,ABS_R1,ABS_R2,ABS_R3,Mean,Std. Dev.
0.0,-0.2,3.1,10.9,4.6,5.7
0.5,2.2,3.9,17.4,7.9,8.3
1.0,4.2,8.0,28.3,13.5,13.0
1.5,15.8,15.7,36.8,22.8,12.1
2.0,24.5,25.6,54.2,34.8,16.9
2.5,38.7,33.2,69.5,47.1,19.6
3.0,56.4,57.1,93.0,68.8,20.9
3.5,69.9,76.0,112.2,86.0,22.9
4.0,91.8,101.6,137.8,110.4,24.3
4.5,111.8,129.1,156.9,132.6,22.8
5.0,142.1,149.4,182.8,158.1,21.7
5.5,168.5,178.8,214.9,187.4,24.4
6.0,192.1,194.8,232.8,206.6,22.8
6.5,221.5,228.7,252.5,234.2,16.2
7.0,249.7,252.8,284.8,262.4,19.4
7.5,271.0,275.6,302.5,283.0,17.1
8.0,289.2,297.6,318.3,301.7,15.0
8.5,319.4,323.1,331.1,324.5,6.0
9.0,337.7,354.7,358.6,350.3,11.1
9.5,371.1,375.1,367.5,371.2,3.8
10.0,360.2,396.6,397.6,384.8,21.3
10.5,395.8,418.1,410.8,408.2,11.4
11.0,417.4,445.7,423.5,428.9,14.9
11.5,423.3,451.5,447.6,440.8,15.3
12.0,462.8,471.2,462.3,465.4,5.0
12.5,489.4,504.2,503.2,498.9,8.3
13.0,498.2,503.5,511.8,504.5,6.9
13.5,524.1,522.3,530.3,525.6,4.2
14.0,533.6,514.4,543.7,530.6,14.9
14.5,559.2,542.0,541.7,547.6,10.0
15.0,575.8,547.3,578.8,567.3,17.4
15.5,598.9,586.2,609.7,598.2,11.8
16.0,588.2,596.6,619.1,601.3,16.0
16.5,595.4,604.2,608.7,602.8,6.8
17.0,618.7,607.8,666.3,631.0,31.1
17.5,631.6,642.6,653.5,642.5,11.0
18.0,628.0,629.6,650.9,636.1,12.8
18.5,676.3,677.0,661.5,671.6,8.8
19.0,665.1,680.1,697.6,680.9,16.3
19.5,692.9,727.6,713.1,711.2,17.4
20.0,706.5,700.6,695.8,700.9,5.4
20.5,714.1,739.3,743.4,732.2,15.8
21.0,722.6,725.1,744.9,730.9,12.2
21.5,697.4,748.6,761.5,735.8,33.9
22.0,725.6,769.5,769.1,754.8,25.3
22.5,765.0,791.1,779.7,778.6,13.1
23.0,740.1,790.3,767.7,766.0,25.1
23.5,733.6,735.4,805.1,758.0,40.8
24.0,765.1,805.0,775.6,781.9,20.7
24.5,783.7,770.5,772.6,775.6,7.1
25.0,799.3,760.0,797.5,785.6,22.2
25.5,775.2,822.8,815.8,804.6,25.7
26.0,802.3,812.6,789.2,801.4,11.7
26.5,791.7,788.0,798.3,792.7,5.2
27.0,783.2,800.7,820.1,801.3,18.5
27.5,804.3,822.4,835.8,820.8,15.8
28.0,807.9,803.0,805.1,805.3,2.5
28.5,820.8,827.8,837.1,828.5,8.2
29.0,829.5,846.3,819.4,831.7,13.6
29.5,836.2,850.0,813.7,833.3,18.3
30.0,874.6,830.6,840.6,848.6,23.0
30.5,798.9,820.3,808.6,809.3,10.7
31.0,806.3,808.1,817.0,810.5,5.7
31.5,832.8,909.9,845.0,862.5,41.4
32.0,850.3,845.8,827.3,841.1,12.2
32.5,832.2,882.4,842.3,852.3,26.5
33.0,876.5,840.7,823.9,847.0,26.9
33.5,862.5,849.6,814.4,842.2,24.9
34.0,847.4,844.9,862.2,851.5,9.4
34.5,858.1,876.1,838.7,857.6,18.7
35.0,862.0,861.8,848.0,857.3,8.0
35.5,851.6,864.8,870.4,862.3,9.6
36.0,878.3,869.1,850.8,866.1,14.0
36.5,876.3,888.2,881.6,882.0,6.0
37.0,877.2,900.7,892.3,890.1,11.9
37.5,911.7,901.9,913.8,909.1,6.3
38.0,881.6,876.5,874.0,877.4,3.9
38.5,862.4,930.0,893.9,895.4,33.8
39.0,864.4,898.1,898.0,886.8,19.4
39.5,915.4,906.8,895.5,905.9,10.0
40.0,861.9,909.0,862.7,877.9,27.0
40.5,924.7,901.8,924.2,916.9,13.1
41.0,859.9,904.1,956.7,906.9,48.5
41.5,884.2,913.5,932.4,910.0,24.3
42.0,916.7,913.9,897.4,909.3,10.5
42.5,908.4,878.7,919.6,902.2,21.1
43.0,897.6,939.3,918.5,918.5,20.9
43.5,859.9,965.3,942.1,922.4,55.4
44.0,949.1,936.6,952.0,945.9,8.2
44.5,909.1,931.1,964.3,934.8,27.8
45.0,977.7,918.5,992.3,962.8,39.1
45.5,917.4,962.8,1018.1,966.1,50.4
46.0,905.2,956.4,938.9,933.5,26.0
46.5,939.2,986.6,1018.9,981.6,40.1
47.0,947.1,947.9,952.5,949.2,2.9
47.5,926.4,922.1,942.6,930.4,10.8
48.0,967.0,945.9,1001.5,971.5,28.1
48.5,924.0,986.9,969.0,960.0,32.4
49.0,967.3,980.0,969.3,972.2,6.8
49.5,927.2,941.1,1011.3,959.9,45.1
50.0,938.7,972.5,1002.9,971.4,32.1
50.5,936.4,962.4,1034.5,977.8,50.8
51.0,987.0,975.4,996.1,986.2,10.3
51.5,948.4,960.9,1001.6,970.3,27.8
52.0,1030.2,1021.8,1017.1,1023.1,6.6
52.5,903.5,987.8,1014.3,968.5,57.9
53.0,1085.8,990.6,988.2,1021.5,55.7
53.5,983.8,1021.9,1071.7,1025.8,44.1
54.0,980.3,1060.6,1079.6,1040.1,52.7
54.5,1033.1,1035.1,1045.3,1037.9,6.5
55.0,1038.6,1064.4,1063.3,1055.4,14.6
55.5,1020.4,1019.7,1090.0,1043.4,40.4
56.0,964.0,1058.6,1030.7,1017.8,48.6
56.5,1027.6,1077.2,1058.7,1054.5,25.1
57.0,1022.5,1028.2,1061.1,1037.3,20.8
57.5,1025.9,1026.9,1131.0,1061.3,60.4
58.0,1077.6,1059.4,1162.3,1099.8,54.9
58.5,1001.9,1085.9,1077.3,1055.0,46.2
59.0,1115.2,1090.2,1095.0,1100.2,13.2
59.5,1043.6,1093.4,1106.4,1081.1,33.1
60.0,1078.7,1103.7,1173.1,1118.5,48.9
60.5,1009.2,1126.9,1154.0,1096.7,77.0
61.0,1146.6,1131.4,1119.7,1132.5,13.5
61.5,1006.7,1150.6,1126.6,1094.6,77.1
62.0,1109.3,1117.3,1104.9,1110.5,6.3
62.5,1128.1,1119.7,1137.7,1128.5,9.0
63.0,1082.7,1094.0,1147.3,1108.0,34.5
63.5,1139.2,1149.8,1218.1,1169.0,42.9
64.0,1146.3,1118.9,1232.6,1166.0,59.4
64.5,1166.1,1192.5,1209.8,1189.5,22.0
65.0,1112.7,1186.4,1222.9,1174.0,56.1
65.5,1204.7,1215.9,1304.2,1241.6,54.5
66.0,1228.0,1175.1,1299.0,1234.0,62.1
66.5,1128.6,1185.1,1167.5,1160.4,28.9
67.0,1184.8,1166.4,1271.4,1207.5,56.1
67.5,1149.1,1192.9,1235.5,1192.5,43.2
68.0,1174.2,1110.6,1264.2,1183.0,77.2
68.5,1182.8,1225.9,1263.7,1224.1,40.5
69.0,1141.1,1245.2,1263.1,1216.5,65.9
69.5,1114.0,1270.7,1253.2,1212.6,85.9
70.0,1220.1,1224.5,1389.6,1278.1,96.6
70.5,1181.3,1180.3,1281.3,1214.3,58.1
71.0,1185.4,1317.9,1346.3,1283.2,85.9
71.5,1192.7,1170.8,1360.3,1241.3,103.7
72.0,1313.3,1157.0,1291.6,1253.9,84.7
72.5,1282.4,1152.7,1285.9,1240.3,75.9
73.0,1269.5,1183.3,1409.8,1287.5,114.3
73.5,1263.5,1250.6,1301.9,1272.0,26.7
74.0,1249.7,1265.0,1387.2,1300.6,75.4
74.5,1220.9,1325.5,1394.2,1313.5,87.2
75.0,1239.8,1237.2,1393.1,1290.0,89.3
75.5,1234.6,1306.9,1420.7,1320.7,93.8
76.0,1256.5,1220.4,1416.8,1297.9,104.5
76.5,1172.7,1399.3,1347.9,1306.6,118.8
77.0,1329.6,1316.5,1415.7,1353.9,53.9
77.5,1275.6,1268.8,1579.0,1374.4,177.2
78.0,1337.3,1407.1,1328.4,1357.6,43.1
78.5,1315.8,1339.5,1536.4,1397.2,121.1
79.0,1199.0,1209.9,1397.4,1268.8,111.5
79.5,1297.4,1344.8,1376.2,1339.4,39.7
80.0,1296.0,1442.1,1467.0,1401.7,92.4
80.5,1361.1,1269.3,1391.6,1340.7,63.6
81.0,1306.4,1330.5,1421.3,1352.7,60.6
81.5,1268.8,1435.5,1414.0,1372.7,90.7
82.0,1439.8,1296.1,1481.7,1405.9,97.3
82.5,1298.0,1328.0,1583.2,1403.1,156.7
83.0,1308.6,1304.8,1427.3,1346.9,69.6
83.5,1382.3,1433.7,1479.8,1431.9,48.8
84.0,1446.0,1323.5,1425.6,1398.4,65.6
84.5,1433.5,1344.5,1479.6,1419.2,68.7
85.0,1516.8,1344.3,1436.4,1432.5,86.3
85.5,1355.2,1224.9,1412.7,1331.0,96.2
86.0,1513.1,1335.9,1480.1,1443.0,94.2
86.5,1380.1,1379.7,1473.4,1411.1,54.0
87.0,1352.8,1402.4,1501.0,1418.7,75.4
87.5,1339.8,1344.2,1524.2,1402.7,105.3
88.0,1363.3,1281.7,1489.5,1378.1,104.7
88.5,1564.6,1325.5,1410.1,1433.4,121.2
89.0,1416.4,1358.5,1380.9,1385.3,29.2
89.5,1449.1,1342.3,1421.7,1404.4,55.5
90.0,1405.4,1405.4,1525.0,1445.3,69.0
90.5,1423.6,1425.1,1562.9,1470.5,80.0
91.0,1374.0,1308.1,1422.0,1368.0,57.2
91.5,1446.4,1478.2,1447.3,1457.3,18.1
92.0,1357.3,1302.5,1481.0,1380.3,91.4
92.5,1327.9,1403.6,1506.7,1412.7,89.7
93.0,1428.9,1391.2,1549.6,1456.6,82.8
93.5,1410.9,1379.0,1395.6,1395.2,15.9
94.0,1476.7,1315.9,1411.1,1401.2,80.9
94.5,1426.5,1471.1,1458.9,1452.2,23.0
95.0,1411.0,1450.5,1376.9,1412.8,36.8
95.5,1542.0,1388.1,1337.3,1422.5,106.6
96.0,1440.2,1280.5,1408.3,1376.4,84.5
96.5,1390.0,1460.3,1363.5,1404.6,50.1
97.0,1476.6,1354.6,1341.1,1390.7,74.6
97.5,1402.9,1281.9,1353.7,1346.2,60.8
98.0,1535.7,1283.0,1335.5,1384.8,133.3
98.5,1388.7,1306.1,1359.1,1351.3,41.9
99.0,1442.0,1276.3,1361.3,1359.9,82.8
99.5,1409.1,1314.0,1297.3,1340.1,60.3
100.0,1441.7,1322.8,1238.4,1334.3,102.1
100.5,1389.7,1368.0,1277.3,1345.0,59.6
101.0,1397.5,1253.4,1280.7,1310.5,76.5
101.5,1396.4,1271.7,1247.8,1305.3,79.8
102.0,1355.4,1245.7,1228.2,1276.4,69.0
102.5,1345.1,1287.4,1238.9,1290.5,53.2
103.0,1340.3,1227.8,1170.3,1246.1,86.5
103.5,1336.5,1191.2,1177.9,1235.2,88.0
104.0,1301.3,1224.3,1124.8,1216.8,88.5
104.5,1287.0,1157.3,1090.6,1178.3,99.9
105.0,1329.9,1148.2,1013.6,1163.9,158.8
105.5,1221.2,1099.4,1002.7,1107.8,109.5
106.0,1254.3,1159.9,970.5,1128.2,144.6
106.5,1201.5,1167.2,902.8,1090.5,163.5
107.0,1284.7,1090.0,868.8,1081.2,208.1
107.5,1211.8,1059.1,833.9,1034.9,190.1
108.0,1214.8,1037.6,799.5,1017.3,208.4
108.5,1164.2,1012.8,742.0,973.0,213.9
109.0,1130.4,977.5,720.8,942.9,207.0
109.5,1050.9,934.5,668.7,884.7,195.9
110.0,1036.9,934.1,629.9,867.0,211.6
110.5,1000.9,911.2,580.6,830.9,221.3
111.0,960.7,866.7,550.7,792.7,214.8
111.5,893.5,862.9,522.0,759.5,206.2
112.0,870.1,793.5,490.2,717.9,200.9
112.5,836.3,778.6,456.0,690.3,204.9
113.0,812.6,746.9,427.8,662.4,205.8
113.5,777.2,715.8,398.6,630.5,203.2
114.0,723.0,672.7,369.0,588.2,191.5
114.5,686.2,646.4,342.4,558.3,188.0
115.0,641.6,596.9,322.4,520.3,172.8
115.5,592.6,550.7,288.9,477.4,164.6