File: 01_Data/ABS/Cone/ABS_Cone_HF25Scan_220217_R1.csv
Names,Time,Stack TC,Smoke TC,Exh Press,Smoke Comp,Smoke Meas,CO Meter,CO2 Meter,O2 Meter,Sample Mass,Ext Coeff,Start Test,Flame Verif
Chan Gain,,500,500,1,1,1,1,1,1,1,1,1.0,1.0
Offset,,0,0,0.140898,0,0,0,0,0,0,0,0.0,0.0
Gain,,1,1,25.011,12.9668,12.6588,1,1,1,1.00088,1.01977,1.0,1.0
Units,sec,C,C,Pa,%,%,%,%,%,g,/m,,
Baseline,,17.9799,18.9041,160.475,97.389,101.114,-0.00444739,0.0381312,21.049,-871.195,-0.335731,,
17,4,16.3559,16.4684,160.445,97.1899,100.841,-0.00444756,0.0458846,21.038,33.5395,-0.329862,0.0,0.0
34,8.25,16.8314,17.4379,159.23,97.165,100.839,-0.00466584,0.0478526,21.0349,33.5395,-0.332019,0.0,0.0
51,12.5,16.9986,17.6188,159.606,97.148,100.876,-0.00457267,0.0505913,21.0314,33.5595,-0.336875,0.0,0.0
68,16.75,16.7758,17.3915,160.994,97.1108,100.831,-0.00457043,0.0521102,21.0303,33.5395,-0.336258,0.0,0.0
85,21,17.0333,17.7157,160.005,97.0843,100.8,-0.0045364,0.0543491,21.0274,33.5495,-0.335993,0.0,0.0
102,25.25,17.0045,17.8359,158.968,97.0435,100.794,-0.0046263,0.0526379,21.0352,33.5495,-0.3392,0.0,0.0
119,29.5,16.7202,17.8405,157.877,96.9885,100.585,-0.00460208,0.0480679,21.0429,33.5194,-0.325704,0.0,0.0
136,33.75,17.0482,17.682,157.399,96.9509,100.707,-0.00453947,0.0445198,21.0467,33.5294,-0.340022,0.0,0.0
153,38,16.9976,17.9992,158.818,96.8927,100.605,-0.00451668,0.04228,21.0461,33.5094,-0.336362,0.0,0.0
170,42.25,17.1764,17.8178,156.875,96.8326,100.398,-0.00449759,0.0411812,21.0481,33.5194,-0.323452,0.0,0.0
187,46.5,17.3451,17.924,159.224,96.7621,100.088,-0.00474365,0.0406542,21.0496,33.4994,-0.302279,0.0,0.0
204,50.75,16.9394,18.3876,162.517,96.6973,99.8205,-0.00472223,0.0415244,21.0463,33.4894,-0.284356,0.0,0.0
221,55,17.4779,18.4289,155.926,96.6339,99.5141,-0.0047455,0.0423396,21.0439,33.4694,-0.26272,0.0,0.0
238,59.25,17.5646,18.7874,162.03,96.5702,99.3298,-0.00447012,0.0430662,21.0412,33.4594,-0.252039,0.0,0.0
255,63.5,17.1373,18.2538,160.329,96.5227,99.1147,-0.00436701,0.0453601,21.0354,33.4394,-0.237039,0.0,0.0
272,67.75,17.106,18.1178,157.816,96.478,98.9165,-0.00450306,0.0479268,21.0317,33.4093,-0.22328,0.0,0.0
289,72,17.7179,18.7736,162.407,96.3933,98.8438,-0.00465636,0.047722,21.0369,33.4193,-0.224566,0.0,0.0
306,76.25,17.543,19.4823,159.094,96.3375,98.3312,-0.00466355,0.0456534,21.0414,33.4294,-0.18323,0.0,0.0
323,80.5,18.276,19.0534,160.832,96.2774,98.3185,-0.00451779,0.0441071,21.0415,33.3893,-0.187657,0.0,0.0
340,84.75,17.9991,18.9483,156.611,96.1919,98.0233,-0.00426088,0.0426425,21.0423,33.3793,-0.168708,0.0,0.0
357,89,17.9825,19.2823,160.488,96.1638,98.1176,-0.00450884,0.041971,21.0451,33.3493,-0.179919,0.0,0.0
374,93.25,18.0711,18.9807,158.858,96.1175,97.3256,-0.00427872,0.0419777,21.0459,33.3493,-0.111733,0.0,0.0
391,97.5,18.0478,19.349,160.78,96.0744,97.1622,-0.00405232,0.0418825,21.046,33.3193,-0.100715,0.0,0.0
408,101.75,17.9537,19.2277,164.169,96.0431,97.0907,-0.00386383,0.0414427,21.046,33.3193,-0.0970446,0.0,0.0
425,106,18.2976,19.3573,161.169,96.0063,96.4309,-0.00383194,0.0404463,21.0479,33.2992,-0.0394722,0.0,0.0
442,110.25,17.9429,19.2943,158.701,95.9786,95.673,-0.00372216,0.0397778,21.049,33.2492,0.0285342,0.0,0.0
459,114.5,18.4472,20.0847,146.655,95.9549,76.2609,-0.000454526,0.0574739,20.9606,33.1091,2.0549,0.0,1.0
476,118.75,22.0862,24.3749,129.955,95.9367,53.2913,0.0101466,0.195846,20.4963,32.5986,5.25911,0.0,1.0
493,123,28.9014,34.4431,133.83,95.943,50.5704,0.0196981,0.434535,19.9862,31.9581,5.72848,0.0,0.0
510,127.25,35.2881,43.9132,126.207,95.905,48.7111,0.0249507,0.603518,19.7732,31.3275,6.06003,0.0,0.0
527,131.5,41.9044,52.2324,124.859,95.8904,46.324,0.0278406,0.717829,19.669,30.6669,6.50813,0.0,0.0
544,135.75,47.1616,59.87,123.79,95.8552,46.1108,0.029899,0.798565,19.6105,29.9563,6.54612,0.0,0.0
561,140,52.4394,66.7071,118.801,95.8374,45.0913,0.0305438,0.85183,19.5933,29.2757,6.74445,0.0,0.0
578,144.25,56.7577,72.5835,128.607,95.8156,48.1536,0.0301264,0.87955,19.5933,28.5851,6.15465,0.0,0.0
595,148.5,60.4349,77.128,129.86,95.778,46.4369,0.0292688,0.90025,19.592,27.8645,6.47589,0.0,0.0
612,152.75,64.2088,81.318,126.099,95.7349,44.3959,0.0291293,0.915462,19.5866,27.2139,6.87391,0.0,0.0
629,157,66.7759,84.9778,126.298,95.6739,42.1182,0.0302994,0.930263,19.5737,26.4833,7.33934,0.0,0.0
646,161.25,69.2546,87.6319,119.729,95.6296,39.6879,0.0319022,0.949525,19.5363,25.7826,7.86685,0.0,0.0
663,165.5,72.5707,91.5068,120.422,95.5627,43.0593,0.0333163,0.981241,19.4835,25.032,7.13127,0.0,0.0
680,169.75,75.03,95.2383,119.023,95.5168,42.8646,0.0342008,1.00406,19.4529,24.3514,7.16751,0.0,0.0
697,174,78.6904,99.0265,125.299,95.4595,43.3722,0.0358554,1.02317,19.4308,23.5907,7.05682,0.0,0.0
714,178.25,81.3648,102.475,117.421,95.41,41.2548,0.037198,1.0455,19.3958,22.8,7.49991,0.0,0.0
731,182.5,83.8637,105.054,110.22,95.3657,41.7786,0.0376371,1.07008,19.3545,21.9893,7.38289,0.0,0.0
748,186.75,86.535,108.221,118.06,95.3407,42.2743,0.0383373,1.10552,19.2954,21.2186,7.27505,0.0,0.0
765,191,89.2654,112.057,118.502,95.3083,41.4232,0.0398969,1.14138,19.2285,20.3879,7.45393,0.0,0.0
782,195.25,92.2575,115.611,113.175,95.2675,39.5786,0.0421334,1.18106,19.164,19.5472,7.8576,0.0,0.0
799,199.5,94.5051,118.296,101.728,95.2533,38.3903,0.0434528,1.21556,19.1123,18.6564,8.12895,0.0,0.0
816,203.75,97.3802,121.992,114.631,95.2379,39.8393,0.0468317,1.26206,19.0322,17.8257,7.79607,0.0,0.0
833,208,99.7208,125.416,111.76,95.2212,36.2338,0.0492818,1.3168,18.9328,16.9048,8.64307,0.0,0.0
850,212.25,104.146,130.458,100.862,95.2145,34.1809,0.0533311,1.37806,18.8259,15.914,9.16418,0.0,0.0
867,216.5,107.026,134.351,95.5987,95.2208,34.0608,0.056048,1.43383,18.7489,14.853,9.19627,0.0,0.0
884,220.75,110.054,138.064,106.556,95.2185,30.7976,0.0581466,1.48178,18.6679,13.9122,10.0969,0.0,0.0
901,225,112.882,141.978,106.17,95.2224,34.8782,0.0599122,1.53415,18.5969,12.8913,8.98427,0.0,0.0
918,229.25,115.563,145.524,105.257,95.2363,32.001,0.0615014,1.57436,18.551,11.8304,9.75574,0.0,0.0
935,233.5,118.746,149.508,106.742,95.2533,28.6218,0.0645218,1.61131,18.5101,10.8395,10.7556,0.0,0.0
952,237.75,121.802,152.669,102.413,95.281,32.2069,0.0650469,1.63473,18.4917,9.7886,9.70257,0.0,0.0
969,242,123.883,155.115,96.594,95.3099,31.2975,0.0640665,1.63911,18.5138,8.69764,9.96149,0.0,0.0
986,246.25,125.435,156.714,110.82,95.3665,34.9679,0.0620763,1.61789,18.5928,7.69676,8.97483,0.0,0.0
1003,250.5,127.153,158.332,110.088,95.4476,32.7701,0.0588031,1.58172,18.6654,6.75593,9.5631,0.0,0.0
1020,254.75,127.635,157.821,108.168,95.5251,33.7869,0.0552095,1.52297,18.7937,5.89518,9.29704,0.0,0.0
1037,259,126.969,157.087,107.3,95.613,37.3503,0.05176,1.46315,18.928,4.92432,8.40833,0.0,0.0
1054,263.25,126.005,155.387,111.228,95.7289,39.1714,0.0471851,1.38177,19.0676,4.16366,7.99332,0.0,0.0
1071,267.5,125.144,152.632,112.509,95.8568,40.9948,0.0413068,1.27826,19.2884,3.45303,7.59826,0.0,0.0
1088,271.75,122.42,147.839,118.528,96.0083,46.1912,0.0357265,1.15051,19.5003,2.77243,6.54482,0.0,0.0
1105,276,119.101,142.211,133.646,96.1373,50.5639,0.0280301,1.013,19.7734,2.282,5.74774,0.0,0.0
1122,280.25,112.833,133.433,148.147,96.2845,76.4997,0.015267,0.795227,20.2665,2.04179,2.05762,0.0,0.0
1139,284.5,105.569,122.402,146.883,96.4218,96.7237,0.00606905,0.54705,20.6978,2.04179,-0.0279654,0.0,0.0
1156,288.75,97.0456,111.131,148.839,96.5631,98.3544,0.00169133,0.374281,20.9012,2.03178,-0.164419,0.0,0.0
1173,293,90.5414,101.854,154.408,96.6688,98.4687,-0.000932593,0.27512,20.9855,2.01177,-0.16503,0.0,0.0
1190,297.25,84.2805,93.6589,147.634,96.7922,98.1056,-0.00208549,0.210209,21.0138,2.03178,-0.120563,0.0,0.0
1207,301.5,79.8618,86.9549,149.742,96.9026,98.5645,-0.00273926,0.170568,21.0278,2.03178,-0.152115,0.0,0.0
1224,305.75,74.5354,80.7311,155.314,96.9897,98.8176,-0.0032719,0.141439,21.0349,2.03178,-0.167018,0.0,0.0
1241,310,70.1801,74.4707,154.237,97.0938,98.9659,-0.00372403,0.121317,21.0401,2.03178,-0.170843,0.0,0.0
1258,314.25,67.3491,70.287,149.462,97.1583,99.0872,-0.00397761,0.105723,21.044,2.03178,-0.17586,0.0,0.0
1275,318.5,63.7471,65.9193,152.555,97.1792,99.3522,-0.00394048,0.0938879,21.0459,2.04179,-0.197822,0.0,0.0
1292,322.75,60.1726,62.2118,149.333,97.1816,99.7177,-0.00374187,0.0849885,21.0462,2.03178,-0.230448,0.0,0.0
1309,327,58.3899,58.6796,159.171,97.1709,99.1776,-0.00415217,0.0776996,21.0465,2.04179,-0.182851,0.0,0.0
1326,331.25,55.6941,56.071,151.277,97.1147,99.7745,-0.00421019,0.0717469,21.0476,2.04179,-0.241698,0.0,0.0
1343,335.5,53.9762,53.4308,153.215,97.0479,99.6288,-0.00408212,0.0669252,21.0473,2.0518,-0.234793,0.0,0.0
1360,339.75,52.0633,51.3595,153.219,96.9849,99.6339,-0.00415698,0.0629746,21.0483,2.04179,-0.241045,0.0,0.0
1377,344,50.363,48.4479,150.85,96.9228,99.2649,-0.00410149,0.0595558,21.0482,2.0518,-0.213592,0.0,0.0
1394,348.25,47.5582,46.2015,156.139,96.8369,99.1633,-0.00419043,0.0566936,21.0477,2.03178,-0.21236,0.0,0.0
1411,352.5,47.4401,45.268,152.844,96.7942,99.2228,-0.00429562,0.0542305,21.0469,2.01177,-0.221674,0.0,0.0
1428,356.75,46.2322,43.9439,153.165,96.9276,99.7304,-0.00411338,0.0521669,21.048,2.01177,-0.255006,0.0,0.0
1445,361,44.2719,42.4154,154.924,97.1242,99.9765,-0.00413156,0.0505195,21.0488,2.02178,-0.258919,0.0,0.0
1462,365.25,43.6189,41.1387,153.71,97.29,100.225,-0.00432995,0.0490361,21.0482,2.03178,-0.265825,0.0,0.0
1479,369.5,42.4425,40.1891,150.835,97.4068,100.257,-0.0043766,0.0479323,21.0491,2.01177,-0.258028,0.0,0.0
1496,373.75,41.8432,39.3043,154.339,97.4384,100.283,-0.00437722,0.0470033,21.0499,2.07182,-0.257431,0.0,0.0
1513,378,40.8935,38.3019,152.159,97.4111,100.459,-0.00438022,0.0461408,21.0484,2.0518,-0.275604,0.0,0.0
1530,382.25,40.4666,37.6103,157.8,97.326,100.208,-0.00407048,0.045648,21.0473,2.04179,-0.261032,0.0,0.0
1547,386.5,39.5978,36.7064,159.664,97.146,100.123,-0.00416712,0.0449789,21.0451,2.08183,-0.270041,0.0,0.0
1564,390.75,39.0496,36.112,155.762,96.9101,99.6064,-0.00440502,0.0447131,21.0455,2.07182,-0.245484,0.0,0.0
1581,395,38.3219,35.6603,153.139,96.7416,99.3658,-0.00449534,0.0445833,21.0459,2.06181,-0.239416,0.0,0.0
1598,399.25,38.0304,34.6224,155.018,96.8452,99.8019,,0.0441919,,2.0518,-0.269014,0.0,0.0
1615,403.5,37.5984,34.394,148.917,96.92,99.8058,,,,2.06181,-0.262454,0.0,0.0
1632,407.75,36.7145,33.9234,153.66,97.0522,100.094,,,,2.04179,-0.276091,0.0,0.0