File: 01_Data/ABS/Cone/ABS_Cone_HF25Scalar_220217_R2.csv
LABORATORY,FSRI
TEST IDENT,PlasticA_HF25_2
OPERATOR,Dow
MATERIAL,Plastic A
ORIENTATION,Horizontal
HEAT FLUX,25
SURF AREA,0.01
C FACTOR,0.0393671
SPEC HOLDER DIFF,305.33
SPECIMEN MASS,32.5
SCAN TIME,0.25
O2 DELAY TIME,11
CO DELAY TIME,11
CO2 DELAY TIME,8
FLOW FACTOR,1
SCAN COUNT,1640
TIME TO IGN,110
END OF TEST SCAN,1160
END OF TEST TIME,290
TEST STATUS,1
PRE TEST CMT,Dimensions: 100.36 x 100.07 x 3.05 mm