File: 01_Data/ABS/Cone/ABS_Cone_HF50Scalar_220217_R2.csv
LABORATORY,FSRI
TEST IDENT,PlasticA_HF50_2
OPERATOR,Dow
MATERIAL,Plastic A
ORIENTATION,Horizontal
HEAT FLUX,50
SURF AREA,0.01
C FACTOR,0.0393671
SPEC HOLDER DIFF,304.92
SPECIMEN MASS,32.5
SCAN TIME,0.25
O2 DELAY TIME,11
CO DELAY TIME,11
CO2 DELAY TIME,8
FLOW FACTOR,1
SCAN COUNT,1053
TIME TO IGN,25
END OF TEST SCAN,573
END OF TEST TIME,143.25
TEST STATUS,1
PRE TEST CMT,Dimensions: 100.08 x 99.81 x 3.07 mm