File: 01_Data/ABS/Cone/ABS_Cone_HF75Scan_220218_R1.csv
Names,Time,Stack TC,Smoke TC,Exh Press,Smoke Comp,Smoke Meas,CO Meter,CO2 Meter,O2 Meter,Sample Mass,Ext Coeff,Start Test,Flame Verif
Chan Gain,,500,500,1,1,1,1,1,1,1,1,1.0,1.0
Offset,,0,0,0.134285,0,0,0,0,0,0,0,0.0,0.0
Gain,,1,1,25.011,13.3843,12.7012,1,1,1,1.00088,1.02252,1.0,1.0
Units,sec,C,C,Pa,%,%,%,%,%,g,/m,,
Baseline,,31.3759,33.3453,151.753,99.7772,95.9427,0.000908753,0.0490518,21.0124,-866.351,0.351576,,
9,2,29.1792,30.8998,150.409,98.8011,95.1291,0.000798208,0.052374,21.0114,31.8879,0.339709,0.0,0.0
18,4.25,29.5283,31.0159,152.453,98.8133,95.0496,0.000755749,0.0518069,21.0118,31.9179,0.348317,0.0,0.0
27,6.5,29.8841,31.2931,151.821,98.8403,95.2775,0.000616825,0.0509666,21.0119,31.948,0.329281,0.0,0.0
36,8.75,29.9773,31.5678,153.178,98.8366,93.929,0.000677183,0.0502788,21.0111,31.928,0.456802,0.0,0.0
45,11,30.0259,31.6433,154.276,98.8415,93.9942,0.00168968,0.0529624,20.9991,31.928,0.451032,0.0,0.0
54,13.25,30.3776,32.131,146.975,98.8672,73.3202,0.00583507,0.101051,20.8425,31.7178,2.68135,0.0,1.0
63,15.5,31.4227,33.859,131.404,98.8738,49.4648,0.0141844,0.243853,20.5244,31.5476,6.21211,0.0,1.0
72,17.75,34.0085,38.8353,121.846,98.9052,41.6424,0.0245864,0.46579,20.1598,31.0972,7.75898,0.0,0.0
81,20,38.0168,43.9625,109.512,98.9142,38.9249,0.0355614,0.70372,19.7686,30.5768,8.36511,0.0,0.0
90,22.25,42.9438,50.6,108.925,98.9351,32.8794,0.0447202,0.934588,19.427,30.1864,9.88095,0.0,0.0
99,24.5,48.0805,58.0252,100.716,98.9498,31.7367,0.0560101,1.13976,19.1642,29.5759,10.1995,0.0,0.0
108,26.75,53.4749,66.3031,103.318,98.9526,31.8972,0.0660635,1.33204,18.8555,29.0054,10.1546,0.0,0.0
117,29,59.5296,74.8909,104.084,98.973,26.0978,0.0751433,1.53109,18.5811,28.4049,11.9563,0.0,0.0
126,31.25,64.8247,82.9802,96.4266,99.0229,25.9303,0.082775,1.68685,18.3647,27.7443,12.0186,0.0,0.0
135,33.5,70.9945,92.2831,98.4982,99.018,22.6236,0.0889484,1.80739,18.1995,27.0637,13.2417,0.0,0.0
144,35.75,76.3815,100.094,93.1369,99.0515,23.4248,0.0949399,1.90041,18.0779,26.4231,12.9326,0.0,0.0
153,38,82.0081,107.917,103.307,99.0674,23.024,0.100495,1.97006,18.002,25.6925,13.0888,0.0,0.0
162,40.25,87.4332,115.918,104.233,99.0433,23.9748,0.106548,2.02899,17.8927,24.9719,12.7237,0.0,0.0
171,42.5,92.5755,123.22,87.1315,99.0531,21.755,0.111979,2.1149,17.7472,24.2412,13.5961,0.0,0.0
180,44.75,98.0701,130.386,89.9121,99.0735,21.6709,0.118678,2.21788,17.6115,23.4405,13.6327,0.0,0.0
189,47,103.414,138.191,82.8098,99.0768,20.4107,0.127203,2.33191,17.4626,22.7199,14.1703,0.0,0.0
198,49.25,108.955,145.531,86.814,99.0747,17.8777,0.136705,2.45063,17.2836,21.8792,15.3586,0.0,0.0
207,51.5,114.043,153.757,89.7877,99.1172,20.0526,0.147369,2.57067,17.1003,21.1085,14.3327,0.0,0.0
216,53.75,119.25,161.445,83.5387,99.1258,18.2766,0.15735,2.70706,16.8661,20.1176,15.1653,0.0,0.0
225,56,124.889,168.714,76.5197,99.118,16.4695,0.166211,2.82815,16.6609,19.3469,16.0984,0.0,0.0
234,58.25,130.027,176.708,72.7621,99.1274,17.0982,0.178016,2.98729,16.4163,18.3461,15.7633,0.0,0.0
243,60.5,135.152,185.305,84.731,99.1519,17.4405,0.19316,3.20192,16.1126,17.3652,15.5877,0.0,0.0
252,62.75,141.04,194.211,78.695,99.1446,14.8854,0.210227,3.43604,15.7352,16.2442,17.0079,0.0,0.0
261,65,147.646,204.046,74.6061,99.1446,14.3795,0.231176,3.69751,15.3603,15.2934,17.318,0.0,0.0
270,67.25,154.131,213.572,78.2973,99.1564,13.9865,0.248922,3.91763,15.0417,14.1324,17.5677,0.0,0.0
279,69.5,159.038,223.202,81.2291,99.145,13.3977,0.263765,4.11855,14.7925,13.0614,17.9524,0.0,0.0
288,71.75,165.502,232.497,77.5844,99.1315,13.3113,0.27694,4.29405,14.599,12.0305,18.0092,0.0,0.0
297,74,170.919,241.418,72.7987,99.1246,12.2539,0.289691,4.45059,14.2862,10.8595,18.751,0.0,0.0
306,76.25,176.479,251.16,77.4394,99.1331,13.8974,0.305633,4.72696,13.8824,9.65846,17.6229,0.0,0.0
315,78.5,182.246,259.659,55.6105,99.1295,16.7292,0.320746,4.97517,13.5375,8.37733,15.9591,0.0,0.0
324,80.75,187.891,270.41,77.8455,99.1107,28.056,0.327368,5.26907,13.1539,7.14626,11.3198,0.0,0.0
333,83,194.563,280.734,59.852,99.1058,15.7955,0.333404,5.56568,12.7954,5.77506,16.4721,0.0,0.0
342,85.25,200.464,290.878,59.6307,99.1005,11.5794,0.340428,5.71578,12.6536,4.76417,19.2566,0.0,0.0
351,87.5,205.191,298.665,92.3111,99.0796,14.4683,0.335914,5.66579,12.8416,3.64319,17.257,0.0,0.0
360,89.75,209.105,303.226,93.9193,99.0739,12.4996,0.311571,5.37158,13.4767,2.35206,18.5683,0.0,0.0
369,92,210.65,305.598,82.4465,99.085,14.0675,0.274503,4.80883,14.1354,1.57138,17.5094,0.0,0.0
378,94.25,211.385,302.842,85.3973,99.0772,21.6705,0.202489,4.14118,15.2926,0.930815,13.6332,0.0,0.0
387,96.5,208.598,295.374,109.984,99.0641,33.4806,0.136119,3.15448,17.0418,0.580508,9.73012,0.0,0.0
396,98.75,202.357,282.66,122.075,99.0449,63.14,0.0848577,2.13695,18.4838,0.480421,4.03823,0.0,0.0
405,101,194.881,269.113,134.717,99.0437,88.2963,0.0509198,1.36333,19.5043,0.450394,1.03026,0.0,0.0
414,103.25,185.895,254.485,134.515,99.0404,89.1417,0.0319034,0.837876,20.1643,0.420368,0.944498,0.0,0.0
423,105.5,178.338,240.78,135.021,99.0131,88.7568,0.0224724,0.531047,20.4967,0.370324,0.980831,0.0,0.0
432,107.75,171.423,227.869,138.172,98.9955,89.6285,0.0164808,0.370154,20.6967,0.380333,0.891575,0.0,0.0
441,110,164.381,217.512,140.705,98.9869,88.9556,0.0134978,0.269294,20.7977,0.340298,0.958391,0.0,0.0
450,112.25,158.501,207.261,136.253,98.962,88.9983,0.0119291,0.211627,20.8488,0.350307,0.951835,0.0,0.0
459,114.5,152.487,196.987,136.84,98.9477,88.9955,0.0111978,0.178513,20.8758,0.310272,0.950812,0.0,0.0
468,116.75,147.576,188.064,133.155,98.9375,88.9812,0.0106393,0.157132,20.8956,0.290254,0.951332,0.0,0.0
477,119,142.781,179.54,137.944,98.9391,89.2006,0.0103039,0.140455,20.9151,0.290254,0.929393,0.0,0.0
486,121.25,137.719,171.876,134.34,98.9093,89.2804,0.00994126,0.126602,20.9308,0.270237,0.918664,0.0,0.0
495,123.5,133.476,164.783,138.724,98.9028,88.8986,0.00950391,0.11473,20.9424,0.290254,0.95651,0.0,0.0
504,125.75,128.711,158.03,137.7,98.895,89.0769,0.00881021,0.105387,20.9559,0.270237,0.937835,0.0,0.0
513,128,125.303,152.338,136.712,98.8934,89.5025,0.0078393,0.0959546,20.9667,0.260228,0.894934,0.0,0.0
522,130.25,121.944,146.434,138.623,98.8762,89.5723,0.00672827,0.0881788,20.9762,0.290254,0.886388,0.0,0.0
531,132.5,118.508,140.99,138.829,98.8693,89.2506,0.00567414,0.0817419,20.9843,0.260228,0.918033,0.0,0.0
540,134.75,115.306,136.326,137.98,98.8766,89.2293,0.00468604,0.0770757,20.9894,0.250219,0.920842,0.0,0.0
549,137,112.259,131.419,136.322,98.8628,89.3506,0.00399358,0.0732535,20.9935,0.210184,0.907396,0.0,0.0
558,139.25,109.239,127.054,140.641,98.8403,89.1862,0.00350311,0.0700466,20.9917,0.210184,0.92187,0.0,0.0
567,141.5,106.57,122.58,137.408,98.8452,89.1766,0.00309753,0.067606,20.9925,0.230202,0.923289,0.0,0.0
576,143.75,104.343,119.085,138.648,98.8374,89.0568,0.00282772,0.0654181,20.9952,0.230202,0.93464,0.0,0.0
585,146,101.051,115.036,137.573,98.8097,90.2064,0.00266836,0.0635201,20.997,0.220193,0.817071,0.0,0.0
594,148.25,98.9849,111.928,140.459,98.8146,89.4184,0.00246874,0.0619397,20.9989,0.180158,0.896214,0.0,0.0
603,150.5,97.0447,108.982,140.845,98.8199,90.1758,0.00216639,0.0608312,21.0015,0.210184,0.821043,0.0,0.0
612,152.75,95.1918,106.294,140.368,98.7986,89.1769,0.00203898,0.0594521,21.0038,0.190167,0.919024,0.0,0.0
621,155,92.7209,103.249,140.041,98.7843,89.4409,0.00194593,0.0585321,21.0057,0.190167,0.891216,0.0,0.0
630,157.25,90.8659,100.756,139.233,98.7782,89.825,0.00184099,0.0577374,21.0063,0.220193,0.852221,0.0,0.0
639,159.5,89.7586,97.5518,136.701,98.7762,89.5762,0.00170804,0.056748,21.0068,0.200175,0.876919,0.0,0.0
648,161.75,87.8129,95.5824,137.68,98.7672,89.2591,0.00159046,0.0558401,21.0072,0.190167,0.907907,0.0,0.0
657,164,85.5429,92.4844,137.792,98.7525,88.6591,0.00147053,0.0553716,21.0068,0.200175,0.96707,0.0,0.0
666,166.25,84.538,91.5652,141.306,98.7545,89.4921,0.00135764,0.0546332,21.0068,0.210184,0.883378,0.0,0.0
675,168.5,82.9121,88.7102,143.615,98.7476,89.4382,0.00128554,0.0542658,21.0075,0.210184,0.888149,0.0,0.0
684,170.75,82.2426,87.6565,138.218,98.741,88.6366,0.00130555,0.053996,21.0078,0.220193,0.968305,0.0,0.0
693,173,80.8101,85.7812,141.1,98.7312,89.4308,0.00128726,0.053791,21.0091,0.200175,0.887405,0.0,0.0
702,175.25,80.0535,84.5553,137.938,98.7476,89.6987,0.00123845,0.0534566,21.0098,0.210184,0.862065,0.0,0.0
711,177.5,78.8102,82.4874,141.559,98.7222,90.3778,0.00103476,0.0530974,21.0106,0.190167,0.792115,0.0,0.0
720,179.75,77.3679,81.2159,138.585,98.7267,88.9773,0.000661768,0.0525535,21.0109,0.16014,0.932596,0.0,0.0
729,182,76.848,79.8844,138.468,98.7504,90.2064,0.000422464,0.0521454,21.0125,0.16014,0.811693,0.0,0.0
738,184.25,75.3623,78.2588,142.044,98.7553,90.1696,0.000411543,0.0517508,21.0128,0.170149,0.8158,0.0,0.0
747,186.5,74.3953,77.4133,139.828,98.7733,90.156,0.000475896,0.051381,21.0111,0.190167,0.818782,0.0,0.0
756,188.75,73.4249,76.0263,139.782,98.8043,90.6235,0.000560804,0.0512311,21.0114,0.180158,0.775214,0.0,0.0
765,191,73.1578,75.1344,139.023,98.8358,90.4394,0.000673406,0.0510154,21.0108,0.190167,0.796311,0.0,0.0
774,193.25,72.0261,74.2901,139.939,98.8799,90.0607,0.000842694,0.0508371,21.0099,0.210184,0.837949,0.0,0.0
783,195.5,70.5853,72.7453,138.251,98.9355,90.1243,0.000894203,0.0505871,21.0106,0.190167,0.836659,0.0,0.0
792,197.75,70.4436,72.3016,140.681,99.0376,90.8499,0.000849739,0.0505621,21.0113,0.230202,0.773986,0.0,0.0
801,200,69.778,70.8573,139.414,99.0943,90.5452,0.00075899,0.050463,21.0115,0.180158,0.809256,0.0,0.0
810,202.25,69.3202,70.2691,139.24,99.1981,91.0196,0.000715733,0.0508747,21.0116,0.16014,0.771766,0.0,0.0
819,204.5,68.4177,69.1305,140.634,99.3288,91.3293,0.000668019,0.0513532,21.0105,0.150131,0.75311,0.0,0.0
828,206.75,68.3592,68.8433,138.076,99.4689,91.739,0.000570101,0.0517268,21.0098,0.150131,0.725604,0.0,0.0
837,209,67.4128,68.0158,139.553,99.6017,91.4793,0.000653848,0.0519616,21.0108,0.170149,0.762994,0.0,0.0
846,211.25,66.9726,67.9232,140.912,99.7826,90.9975,,0.0519117,,0.170149,0.826639,0.0,0.0
855,213.5,66.3489,67.0781,137.376,99.9439,92.1716,,,,0.190167,0.726144,0.0,0.0
864,215.75,66.0014,66.4299,139.164,100.111,93.2112,,,,0.220193,0.640491,0.0,0.0
873,218,65.5354,65.4253,138.23,100.226,91.846,,,,0.180158,0.783179,0.0,0.0
882,220.25,64.5961,65.0585,136.329,100.308,92.5084,,,,0.190167,0.726065,0.0,0.0
884,220.75,64.9898,65.2335,142.458,100.35,92.522,,,,0.16014,0.728511,0.0,0.0