File: 01_Data/ABS/Cone/ABS_Cone_HF25Scalar_220217_R3.csv
LABORATORY,FSRI
TEST IDENT,PlasticA_HF25_3
OPERATOR,Dow
MATERIAL,Plastic A
ORIENTATION,Horizontal
HEAT FLUX,25
SURF AREA,0.01
C FACTOR,0.0393671
SPEC HOLDER DIFF,305.28
SPECIMEN MASS,32.7
SCAN TIME,0.25
O2 DELAY TIME,11
CO DELAY TIME,11
CO2 DELAY TIME,8
FLOW FACTOR,1
SCAN COUNT,1610
TIME TO IGN,108.25
END OF TEST SCAN,1130
END OF TEST TIME,282.5
TEST STATUS,1
PRE TEST CMT,Dimensions: 100.10 x 100.25 x 3.05 mm