File: 01_Data/ABS/Cone/ABS_Cone_HF75Scalar_220218_R2.csv
LABORATORY,FSRI
TEST IDENT,PlasticA_HF75_2
OPERATOR,Dow
MATERIAL,Plastic A
ORIENTATION,Horizontal
HEAT FLUX,75
SURF AREA,0.01
C FACTOR,0.0385692
SPEC HOLDER DIFF,300.82
SPECIMEN MASS,32.4
SCAN TIME,0.25
O2 DELAY TIME,11
CO DELAY TIME,11
CO2 DELAY TIME,8
FLOW FACTOR,1
SCAN COUNT,910
TIME TO IGN,12.75
END OF TEST SCAN,430
END OF TEST TIME,107.5
TEST STATUS,1
PRE TEST CMT,Dimensions: 99.83 x 100.09 x 3.06 mm