File: 01_Data/ABS/Cone/ABS_Cone_HF75Scan_220218_R3.csv
Names,Time,Stack TC,Smoke TC,Exh Press,Smoke Comp,Smoke Meas,CO Meter,CO2 Meter,O2 Meter,Sample Mass,Ext Coeff,Start Test,Flame Verif
Chan Gain,,500,500,1,1,1,1,1,1,1,1,1.0,1.0
Offset,,0,0,0.134285,0,0,0,0,0,0,0,0.0,0.0
Gain,,1,1,25.011,13.3843,12.7012,1,1,1,1.00088,1.02252,1.0,1.0
Units,sec,C,C,Pa,%,%,%,%,%,g,/m,,
Baseline,,49.7044,49.0704,142.465,100.966,92.9976,0.000335959,0.0526484,21.0011,-867.086,0.737534,,
9,2,45.2126,44.6208,141.559,100.811,93.3922,0.000664714,0.0652655,20.9796,31.0372,0.685597,0.0,0.0
18,4.25,45.1549,44.7723,146.134,100.809,93.262,0.000736194,0.0645191,20.9804,30.9971,0.698005,0.0,0.0
27,6.5,45.785,45.4959,143.02,100.793,92.7976,0.000700316,0.0631213,20.9832,31.0071,0.741285,0.0,0.0
36,8.75,45.4427,44.771,142.611,100.791,91.591,0.0006854,0.0620924,20.9871,30.9771,0.858534,0.0,0.0
45,11,45.8081,44.9214,146.716,100.777,91.301,0.00120049,0.0620074,20.9878,30.9471,0.8857,0.0,0.0
54,13.25,45.5003,45.4321,136.948,100.745,74.3776,0.00455804,0.0840609,20.9241,30.877,2.72163,0.0,1.0
63,15.5,46.4713,46.6891,126.069,100.759,48.0318,0.0123747,0.206999,20.6405,30.7269,6.64519,0.0,1.0
72,17.75,48.4802,49.9393,105.51,100.734,38.1373,0.0231782,0.439654,20.2855,30.2265,8.71197,0.0,1.0
81,20,52.5002,55.8963,105.57,100.713,37.5396,0.0345069,0.701004,19.8399,29.7761,8.8518,0.0,0.0
90,22.25,57.2438,62.538,111.561,100.708,32.2038,0.0447224,0.939619,19.4791,29.3057,10.2265,0.0,0.0
99,24.5,61.5717,69.0386,99.4355,100.705,31.3735,0.0545652,1.14272,19.1963,28.7952,10.4605,0.0,0.0
108,26.75,66.6766,76.9868,103.244,100.691,30.565,0.0646125,1.33842,18.8803,28.1346,10.6934,0.0,0.0
117,29,72.3626,84.7588,102.827,100.669,26.4563,0.0737407,1.52637,18.5661,27.5141,11.9863,0.0,0.0
126,31.25,77.9081,92.6768,97.7189,100.683,23.088,0.0817429,1.69074,18.3675,26.9336,13.209,0.0,0.0
135,33.5,83.1263,100.711,90.3563,100.658,23.5857,0.0906757,1.80961,18.2174,26.283,13.0155,0.0,0.0
144,35.75,88.7232,108.933,91.1952,100.633,21.4786,0.0979141,1.92514,18.0352,25.5123,13.8527,0.0,0.0
153,38,93.6945,116.193,88.8496,100.628,22.3786,0.103861,2.04089,17.8782,24.7917,13.484,0.0,0.0
162,40.25,99.165,124.131,92.4935,100.625,20.7049,0.110869,2.14073,17.7253,24.0611,14.181,0.0,0.0
171,42.5,104.508,131.841,81.903,100.587,20.1448,0.117994,2.22947,17.5734,23.4005,14.4236,0.0,0.0
180,44.75,109.305,138.972,98.5943,100.589,21.8682,0.126152,2.33666,17.4107,22.4697,13.6875,0.0,0.0
189,47,113.959,145.231,86.5216,100.601,19.2758,0.137047,2.46952,17.2197,21.709,14.8204,0.0,0.0
198,49.25,119.99,153.597,90.1235,100.58,17.5669,0.149096,2.61312,16.9868,20.8683,15.6512,0.0,0.0
207,51.5,125.361,161.663,81.0909,100.575,19.4778,0.15951,2.72915,16.8127,19.9475,14.7245,0.0,0.0
216,53.75,130.359,168.903,80.3421,100.57,15.2303,0.173599,2.85726,16.6438,19.0066,16.9305,0.0,0.0
225,56,135.629,177.399,89.764,100.571,14.7861,0.191976,3.04478,16.3737,18.0058,17.1961,0.0,0.0
234,58.25,141.443,186.527,80.7375,100.541,16.8176,0.209251,3.26331,16.0787,17.185,16.0387,0.0,0.0
243,60.5,147.895,196.705,104.582,100.536,15.0687,0.228053,3.51048,15.6508,16.1742,17.0231,0.0,0.0
252,62.75,154.399,206.759,69.9303,100.533,15.1834,0.243284,3.75969,15.2891,14.873,16.9548,0.0,0.0
261,65,160.231,216.569,73.8337,100.522,17.499,0.256189,3.99116,14.9707,13.8721,15.6807,0.0,0.0
270,67.25,166.078,226.116,75.3641,100.515,12.4837,0.273567,4.19568,14.6769,12.7512,18.7092,0.0,0.0
279,69.5,171.954,234.991,69.8181,100.512,14.0008,0.293331,4.46407,14.2649,11.4901,17.6803,0.0,0.0
288,71.75,178.19,246.187,59.6391,100.514,13.8392,0.307162,4.79025,13.7852,10.1789,17.7846,0.0,0.0
297,74,185.224,257.792,56.5318,100.507,16.406,0.319342,5.15915,13.3194,9.00789,16.258,0.0,0.0
306,76.25,191.668,269.773,85.0554,100.507,19.6417,0.333314,5.5699,12.7759,7.90692,14.6433,0.0,0.0
315,78.5,199.373,283.198,66.4689,100.508,13.3694,0.342439,5.85936,12.5016,6.56575,18.0938,0.0,0.0
324,80.75,204.913,291.479,59.5231,100.516,21.6569,0.344861,5.90886,12.3097,5.09446,13.7681,0.0,0.0
333,83,210.611,301.911,54.3755,100.499,16.7773,0.339638,6.0577,12.1144,4.02352,16.0564,0.0,0.0
342,85.25,216.977,311.902,51.7369,100.517,14.7609,0.328006,6.14014,12.0672,2.98261,17.2066,0.0,0.0
351,87.5,220.687,317.875,71.7652,100.511,13.219,0.305396,5.90602,12.3817,1.81159,18.1956,0.0,0.0
360,89.75,222.7,318.741,71.4095,100.506,15.1753,0.267387,5.31188,13.1667,0.980859,16.9573,0.0,0.0
369,92,223.485,316.875,86.5041,100.517,21.5526,0.215562,4.49617,14.511,0.380333,13.8115,0.0,0.0
378,94.25,221.217,310.493,105.055,100.532,35.0205,0.159261,3.55946,15.8542,-0.0600526,9.45867,0.0,0.0
387,96.5,215.95,299.484,118.719,100.545,53.425,0.105303,2.59867,17.2247,-0.200175,5.67163,0.0,0.0
396,98.75,208.05,285.389,129.334,100.545,89.3397,0.0659012,1.71473,18.6475,-0.24021,1.05981,0.0,0.0
405,101,199.502,270.505,125.622,100.54,89.5587,0.04182,1.0632,19.4611,-0.270237,1.03741,0.0,0.0
414,103.25,191.751,256.896,128.387,100.555,89.6312,0.0275017,0.685248,20.0492,-0.280245,1.03154,0.0,0.0
423,105.5,184.745,245.085,130.671,100.558,89.5529,0.0195561,0.452978,20.4209,-0.300263,1.03959,0.0,0.0
432,107.75,177.903,233.443,132.326,100.57,89.6991,0.0153728,0.32328,20.6165,-0.330289,1.02606,0.0,0.0
441,110,172.006,223.018,133.474,100.576,89.5529,0.0131375,0.252741,20.7246,-0.360315,1.0412,0.0,0.0
450,112.25,166.186,213.46,128.728,100.6,89.6242,0.0119731,0.20981,20.7908,-0.360315,1.03624,0.0,0.0
459,114.5,160.781,204.239,131.664,100.604,89.6456,0.0113855,0.181385,20.8302,-0.32028,1.03444,0.0,0.0
468,116.75,155.815,195.878,129.073,100.6,89.8029,0.0110143,0.162006,20.8585,-0.380333,1.01834,0.0,0.0
477,119,150.893,188.427,132.247,100.618,89.3766,0.0105279,0.146157,20.8801,-0.420368,1.06267,0.0,0.0
486,121.25,146.447,180.994,130.78,100.637,89.5254,0.00988415,0.131523,20.8963,-0.400351,1.04938,0.0,0.0
495,123.5,142.613,173.702,135.615,100.622,89.4165,0.00913194,0.119654,20.9083,-0.440386,1.05895,0.0,0.0
504,125.75,138.141,167.695,133.829,100.633,89.6646,0.00806981,0.10943,20.9186,-0.440386,1.03508,0.0,0.0
513,128,134.734,162.068,133.371,100.662,89.5142,0.00695707,0.0997082,20.9296,-0.440386,1.05276,0.0,0.0
522,130.25,131.492,156.07,134.611,100.666,89.7932,0.00584926,0.09215,20.9403,-0.410359,1.02521,0.0,0.0
531,132.5,127.629,150.836,132.847,100.681,90.1731,0.0049066,0.0861336,20.9486,-0.420368,0.988652,0.0,0.0
540,134.75,125.208,146.072,130.82,100.69,89.4576,0.00428259,0.0812136,20.9544,-0.430377,1.06095,0.0,0.0
549,137,121.215,141.348,130.957,100.705,89.3936,0.00388879,0.0776904,20.9591,-0.430377,1.06867,0.0,0.0
558,139.25,119.004,137.221,133.557,100.731,89.8909,0.0035055,0.0746185,20.9638,-0.430377,1.0212,0.0,0.0
567,141.5,116.16,132.998,133.616,100.723,89.0847,0.00314812,0.0721491,20.9672,-0.460403,1.10132,0.0,0.0
576,143.75,114.288,130.083,133.678,100.749,89.3611,0.00275369,0.0701549,20.9698,-0.430377,1.07583,0.0,0.0
585,146,112.002,126.399,132.609,100.77,89.2952,0.00237214,0.0684358,20.9731,-0.460403,1.08437,0.0,0.0
594,148.25,109.432,123.045,133.875,100.783,89.6649,0.00219785,0.0671012,20.9719,-0.470412,1.0484,0.0,0.0
603,150.5,107.559,119.59,132.743,100.814,89.3812,0.00224703,0.0661212,20.9709,-0.460403,1.07962,0.0,0.0
612,152.75,105.346,117.071,130.531,100.849,89.901,0.00221307,0.065067,20.9717,-0.470412,1.0307,0.0,0.0
621,155,103.861,114.049,135.556,100.859,89.9173,0.00196562,0.0640293,20.9729,-0.470412,1.02999,0.0,0.0
630,157.25,101.607,111.238,134.622,100.889,89.6828,0.0017058,0.0632841,20.974,-0.460403,1.0561,0.0,0.0
639,159.5,100.098,109.029,130.294,100.929,89.6351,0.00142894,0.0626651,20.9746,-0.490429,1.06442,0.0,0.0
648,161.75,98.3202,106.85,132.189,100.891,90.0859,0.00127252,0.0619015,20.9754,-0.480421,1.01602,0.0,0.0
657,164,96.8932,104.474,133.523,100.972,89.8541,0.00123623,0.0612021,20.9766,-0.460403,1.04631,0.0,0.0
666,166.25,95.1088,102.233,130.601,100.985,89.3731,0.00121056,0.0607614,20.976,-0.480421,1.09565,0.0,0.0
675,168.5,94.3021,99.8818,140.031,101.011,89.4231,0.00116044,0.0603089,20.976,-0.480421,1.09292,0.0,0.0
684,170.75,92.6723,98.6981,136.673,101.023,89.387,0.00115396,0.0599086,20.9777,-0.500438,1.09759,0.0,0.0
693,173,90.5804,95.7779,137.063,101.044,90.439,0.00112665,0.0596417,20.9785,-0.490429,0.99457,0.0,0.0
702,175.25,90.4281,94.8029,133.632,101.057,90.1909,0.000974968,0.0591712,20.98,-0.500438,1.02033,0.0,0.0
711,177.5,89.2066,93.3481,132.265,101.089,90.0987,0.000739213,0.0588857,20.9808,-0.480421,1.03237,0.0,0.0
720,179.75,87.9248,91.9729,134.933,101.11,90.1064,0.000610739,0.058551,20.9811,-0.480421,1.03345,0.0,0.0
729,182,86.8261,90.7991,134.074,101.135,90.3902,0.000609178,0.0582499,20.9826,-0.440386,1.00746,0.0,0.0
738,184.25,85.1181,88.5103,141.89,101.166,89.5208,0.000636913,0.0580701,20.9833,-0.430377,1.0969,0.0,0.0
747,186.5,84.7626,87.6481,132.785,101.179,90.0781,0.000765944,0.0579982,20.9835,-0.510447,1.04235,0.0,0.0
756,188.75,84.3681,86.8727,131.782,101.205,90.0235,0.000855804,0.0578696,20.9836,-0.410359,1.05015,0.0,0.0
765,191,83.2614,85.1233,132.193,101.217,90.1328,0.0008675,0.05783,20.9837,-0.490429,1.04028,0.0,0.0
774,193.25,82.2013,84.3212,136.94,101.258,89.9006,0.000916906,0.0578513,20.9826,-0.480421,1.06707,0.0,0.0
783,195.5,81.7485,83.4292,132.846,101.239,90.2041,0.00104225,0.0579649,20.9816,-0.450394,1.03514,0.0,0.0
792,197.75,80.8024,82.4284,138.576,101.246,90.1615,0.00103915,0.0580379,20.9813,-0.490429,1.04003,0.0,0.0
801,200,79.9521,81.8098,135.087,101.264,89.6498,0.000877466,0.0581642,20.9811,-0.500438,1.09267,0.0,0.0
810,202.25,79.3617,80.4327,135.548,101.264,91.0216,0.000827616,0.0582083,20.9811,-0.480421,0.956426,0.0,0.0
819,204.5,78.2325,79.8197,132.488,101.26,90.558,0.000910354,0.0580803,20.981,-0.490429,1.00194,0.0,0.0
828,206.75,78.2384,78.6476,134.546,101.261,90.5157,0.000951996,0.0578964,20.9825,-0.480421,1.00619,0.0,0.0
837,209,77.0031,78.1823,134.397,101.274,90.7057,,0.0577434,,-0.470412,0.988515,0.0,0.0
846,211.25,76.9814,77.2762,135.296,101.273,90.2882,,0.0575417,,-0.500438,1.02985,0.0,0.0
855,213.5,76.7161,76.3817,135.003,101.27,90.1653,,,,-0.480421,1.04174,0.0,0.0
864,215.75,75.5201,76.2665,136.613,101.299,90.4301,,,,-0.490429,1.01805,0.0,0.0
873,218,75.2091,75.3821,134.627,101.278,90.5274,,,,-0.470412,1.00652,0.0,0.0
879,219.5,75.1338,74.8302,136.759,101.278,90.6425,,,,-0.500438,0.995126,0.0,0.0