File: 01_Data/ABS/Cone/ABS_Cone_HF50Scan_220217_R2.csv
Names,Time,Stack TC,Smoke TC,Exh Press,Smoke Comp,Smoke Meas,CO Meter,CO2 Meter,O2 Meter,Sample Mass,Ext Coeff,Start Test,Flame Verif
Chan Gain,,500,500,1,1,1,1,1,1,1,1,1.0,1.0
Offset,,0,0,0.140898,0,0,0,0,0,0,0,0.0,0.0
Gain,,1,1,25.011,12.9668,12.6588,1,1,1,1.00088,1.01977,1.0,1.0
Units,sec,C,C,Pa,%,%,%,%,%,g,/m,,
Baseline,,34.1316,35.133,147.322,95.8549,97.3714,-0.00433253,0.0380251,21.0453,-872.193,-0.140357,,
11,2.5,32.1271,32.5637,149.814,95.9406,97.5072,-0.0043166,0.0432494,21.037,32.1883,-0.144882,0.0,0.0
22,5.25,31.681,32.1536,146.037,95.941,97.7197,-0.00435171,0.0441184,21.0358,32.1082,-0.164317,0.0,0.0
33,8,31.8179,32.79,148.517,95.9395,97.8634,-0.00441464,0.0445314,21.0363,32.0882,-0.17761,0.0,0.0
44,10.75,32.227,32.9244,144.329,95.9418,97.7664,-0.00438118,0.043913,21.0384,32.1182,-0.168521,0.0,0.0
55,13.5,31.7884,32.6569,148.062,95.9438,97.4114,-0.00426514,0.0424918,21.0408,32.0882,-0.135794,0.0,0.0
66,16.25,31.9663,32.8048,142.76,95.9493,97.2742,-0.00445226,0.0408477,21.0434,32.0882,-0.122674,0.0,0.0
77,19,32.1101,33.0954,145.375,95.9462,97.1356,-0.00460597,0.0396282,21.0448,32.0481,-0.110206,0.0,0.0
88,21.75,32.1182,32.9522,148.735,95.9406,95.7305,-0.00450814,0.0387375,21.0448,32.0481,0.0196124,0.0,0.0
99,24.5,32.1775,32.8705,147.736,95.9513,95.7935,-0.00395112,0.0388321,21.0409,32.0481,0.0147272,0.0,0.0
110,27.25,32.3141,33.6544,144.274,95.9573,77.1259,-0.000690806,0.0600734,20.976,31.878,1.95423,0.0,1.0
121,30,33.6567,35.4614,128.855,95.9565,59.5654,0.00472687,0.172198,20.7226,31.6578,4.26531,0.0,1.0
132,32.75,36.6718,40.0455,121.348,95.9466,52.186,0.0123646,0.32887,20.4084,31.2875,5.4475,0.0,0.0
143,35.5,40.8002,45.7048,119.53,95.9454,49.4289,0.019479,0.496692,20.0853,30.8771,5.93294,0.0,0.0
154,38.25,45.0109,52.0623,116.037,95.9505,43.9895,0.0255065,0.669683,19.833,30.5068,6.9763,0.0,0.0
165,41,49.6138,58.5674,116.346,95.9509,37.6068,0.0316509,0.796726,19.6254,29.9063,8.37867,0.0,0.0
176,43.75,54.6913,65.7489,100.64,95.9406,38.4185,0.0381872,0.945474,19.3521,29.3658,8.1867,0.0,0.0
187,46.5,59.6152,73.1356,107.73,95.926,34.779,0.0442183,1.08554,19.1486,28.8053,9.07562,0.0,0.0
198,49.25,64.7338,80.4624,105.489,95.9165,32.5654,0.0488718,1.19977,19.0156,28.1547,9.66301,0.0,0.0
209,52,70.3053,87.5933,100.518,95.9236,33.9905,0.0525502,1.28765,18.902,27.5342,9.28053,0.0,0.0
220,54.75,75.1156,93.5257,99.9708,95.9288,33.0332,0.0554258,1.36211,18.8006,26.9136,9.53656,0.0,0.0
231,57.5,79.4285,101.129,106.786,95.9122,33.4218,0.057107,1.4284,18.7155,26.213,9.43038,0.0,0.0
242,60.25,84.4224,106.7,103.731,95.892,32.5298,0.0590287,1.47435,18.6583,25.6525,9.67049,0.0,0.0
253,63,88.4785,112.759,97.1711,95.8904,32.057,0.0618253,1.5234,18.5824,24.9219,9.80133,0.0,0.0
264,65.75,91.8947,117.908,93.302,95.9038,31.2631,0.0649502,1.58488,18.4774,24.2513,10.0269,0.0,0.0
275,68.5,97.4534,124.456,103.919,95.892,30.2166,0.0693475,1.64851,18.3803,23.5307,10.3304,0.0,0.0
286,71.25,101.204,130.075,95.9285,95.8908,28.6744,0.073438,1.7038,18.3095,22.79,10.7989,0.0,0.0
297,74,105.405,136.01,100.297,95.8686,28.8069,0.0781177,1.75208,18.2556,22.0193,10.7556,0.0,0.0
308,76.75,108.986,140.866,94.5912,95.8627,26.8722,0.0836199,1.82584,18.0997,21.2487,11.3769,0.0,0.0
319,79.5,113.983,147.56,93.1784,95.8754,25.6808,0.0892248,1.91817,17.936,20.3779,11.7837,0.0,0.0
330,82.25,118.329,153.045,89.4208,95.8702,22.2766,0.0955516,2.01412,17.7952,19.5672,13.0554,0.0,0.0
341,85,122.666,159.59,88.5919,95.8674,23.9965,0.101781,2.12867,17.5859,18.6564,12.3898,0.0,0.0
352,87.75,126.839,165.861,92.7372,95.8607,22.5331,0.108062,2.25141,17.3965,17.7756,12.9521,0.0,0.0
363,90.5,132.341,172.891,93.4272,95.8746,23.0025,0.11468,2.35397,17.2676,16.8148,12.7689,0.0,0.0
374,93.25,136.566,179.165,75.001,95.8722,21.75,0.119946,2.43734,17.1464,15.8439,13.2695,0.0,0.0
385,96,140.748,184.628,100.567,95.8754,18.7217,0.129697,2.51511,17.0423,14.9631,14.611,0.0,0.0
396,98.75,145.302,191.42,76.3917,95.8718,17.6794,0.138014,2.60489,16.8823,13.8722,15.1231,0.0,0.0
407,101.5,149.908,197.894,99.2021,95.875,20.0564,0.145553,2.72184,16.6919,12.8913,13.9949,0.0,0.0
418,104.25,154.4,204.599,83.0344,95.8837,18.9593,0.153689,2.84145,16.5238,11.8404,14.499,0.0,0.0
429,107,158.781,210.121,77.3771,95.8932,17.8111,0.15947,2.92401,16.409,10.7094,15.0587,0.0,0.0
440,109.75,162.282,216.505,86.1074,95.8967,16.5066,0.165348,2.98495,16.3136,9.62846,15.7394,0.0,0.0
451,112.5,166.55,221.802,76.7458,95.9007,17.1285,0.170895,3.06595,16.1523,8.45743,15.4089,0.0,0.0
462,115.25,170.706,228.926,68.1361,95.9046,15.3538,0.17437,3.17667,16.021,7.42652,16.3878,0.0,0.0
473,118,174.907,234.115,78.8761,95.9169,17.1567,0.175199,3.22465,15.9884,6.40563,15.3957,0.0,0.0
484,120.75,178.035,237.142,82.0269,95.9335,17.1061,0.171866,3.20351,16.0852,5.28464,15.4237,0.0,0.0
495,123.5,180.257,239.952,77.1381,95.9553,16.2412,0.165426,3.12627,16.2369,4.18367,15.8899,0.0,0.0
506,126.25,181.84,241.798,85.6548,95.9596,21.4023,0.150821,2.98373,16.527,3.1928,13.4218,0.0,0.0
517,129,181.791,241.344,90.426,95.9723,20.1128,0.131177,2.7703,16.925,2.42213,13.9789,0.0,0.0
528,131.75,181.469,238.959,91.9266,96.0174,26.6335,0.108145,2.5027,17.4398,1.76155,11.4712,0.0,0.0
539,134.5,178.893,233.062,98.4122,96.0154,37.8332,0.0836701,2.13791,18.1028,1.17103,8.33099,0.0,0.0
550,137.25,174.844,225.225,107.22,96.0364,37.3414,0.0586346,1.74019,18.755,0.840738,8.44999,0.0,0.0
561,140,169.052,214.826,126.107,96.0487,58.5537,0.0376361,1.30248,19.4427,0.58051,4.42715,0.0,0.0
572,142.75,161.388,202.97,135.831,96.0926,88.9657,0.0235192,0.909086,20.0831,0.550483,0.689338,0.0,0.0
583,145.5,153.58,190.213,137.299,96.1068,92.2722,0.0164294,0.605181,20.5197,0.550483,0.364231,0.0,0.0
594,148.25,146.36,178.786,134.41,96.1361,91.5896,0.0135483,0.40343,20.7586,0.540475,0.43338,0.0,0.0
605,151,140.058,168.756,135.558,96.1567,92.4503,0.0122184,0.294608,20.8624,0.510448,0.351622,0.0,0.0
616,153.75,133.865,159.631,136.901,96.2109,92.3437,0.0111477,0.230657,20.9103,0.50044,0.366988,0.0,0.0
627,156.5,128.44,151.5,136.648,96.2529,92.2189,0.00993907,0.194714,20.9389,0.490431,0.382983,0.0,0.0
638,159.25,123.212,144.076,141.893,96.2782,92.5851,0.00860584,0.166959,20.9562,0.450396,0.349881,0.0,0.0
649,162,118.697,137.75,140.291,96.3162,92.5759,0.00734467,0.147254,20.9709,0.430378,0.354306,0.0,0.0
660,164.75,114.291,130.534,138.525,96.3609,93.0271,0.00608949,0.131374,20.9782,0.450396,0.314965,0.0,0.0
671,167.5,109.986,124.909,133.827,96.4123,92.6848,0.00473826,0.118079,20.9869,0.430378,0.352712,0.0,0.0
682,170.25,106.358,119.438,139.32,96.4709,93.9496,0.00356743,0.105513,20.9976,0.420369,0.236899,0.0,0.0
693,173,103.175,114.742,138.426,96.5311,92.8525,0.00246103,0.0958533,21.006,0.380334,0.347553,0.0,0.0
704,175.75,99.7407,109.974,137.78,96.5698,93.5648,0.00146297,0.0871827,21.0129,0.380334,0.282778,0.0,0.0
715,178.5,96.7481,105.414,137.245,96.6339,93.2484,0.00055369,0.0803502,21.0179,0.400352,0.319015,0.0,0.0
726,181.25,93.5511,101.935,140.505,96.7028,93.379,-0.000290493,0.0739466,21.0243,0.380334,0.31287,0.0,0.0
737,184,90.7302,98.1469,139.411,96.7523,93.2233,-0.00106207,0.0689419,21.0284,0.390343,0.33237,0.0,0.0
748,186.75,88.6522,94.6877,138.429,96.8084,94.3178,-0.00180115,0.0646725,21.03,0.380334,0.233159,0.0,0.0
759,189.5,86.325,91.1707,147.181,96.8662,94.4908,-0.00239285,0.0611882,21.0319,0.380334,0.222095,0.0,0.0
770,192.25,84.4305,88.6705,141.913,96.937,94.706,-0.00265139,0.0582091,21.0331,0.400352,0.208286,0.0,0.0
781,195,82.1535,85.5523,138.861,96.9873,93.4528,-0.00280208,0.0556363,21.0349,0.390343,0.332084,0.0,0.0
792,197.75,80.3809,83.269,134.054,97.0431,95.5613,-0.00290373,0.0537064,21.0358,0.390343,0.137644,0.0,0.0
803,200.5,78.7381,80.5865,142.175,97.0799,94.2173,-0.00294927,0.0521752,21.0365,0.370325,0.267737,0.0,0.0
814,203.25,76.9742,78.4834,136.62,97.1199,94.589,-0.00282606,0.0506399,21.0383,0.360316,0.236204,0.0,0.0
825,206,75.1096,77.1509,141.656,97.1705,93.9523,-0.00272185,0.049519,21.0389,0.370325,0.301281,0.0,0.0
836,208.75,73.563,74.6085,137.922,97.2006,94.57,-0.00282203,0.0483995,21.0391,0.360316,0.245427,0.0,0.0
847,211.5,71.9628,72.9629,138.536,97.2311,94.7879,-0.00324053,0.047647,21.0386,0.370325,0.227645,0.0,0.0
858,214.25,71.116,71.5324,139.908,97.2287,95.7363,-0.00349105,0.0469222,21.0395,0.380334,0.138369,0.0,0.0
869,217,69.0805,69.5718,143.125,97.2362,95.1163,-0.00361594,0.0460957,21.0403,0.360316,0.197183,0.0,0.0
880,219.75,69.1544,68.5237,142.38,97.2513,95.1016,-0.00368211,0.0454694,21.0405,0.380334,0.199947,0.0,0.0
891,222.5,67.4416,66.6742,140.243,97.2564,94.9011,-0.00368294,0.0449462,21.0412,0.390343,0.2193,0.0,0.0
902,225.25,66.3119,65.7954,141.534,97.2726,95.1537,-0.00378069,0.0444759,21.0424,0.350308,0.197009,0.0,0.0
913,228,65.5126,65.219,144.73,97.2544,93.9627,-0.00380999,0.044074,21.0428,0.360316,0.308007,0.0,0.0
924,230.75,64.6048,63.7518,137.516,97.2742,95.0827,-0.00381878,0.0437599,21.0429,0.360316,0.203839,0.0,0.0
935,233.5,63.5375,62.5859,140.747,97.2786,95.0703,-0.00393274,0.0432784,21.0421,0.350308,0.205402,0.0,0.0
946,236.25,63.1084,61.5013,144.912,97.2497,95.4029,-0.00401714,0.0429695,21.0427,0.360316,0.171503,0.0,0.0
957,239,62.1371,60.747,136.575,97.2437,95.2801,-0.0039986,0.0425454,21.0431,0.360316,0.182483,0.0,0.0
968,241.75,61.4281,59.9774,141.833,97.2148,96.0817,-0.00402862,0.0423251,21.0432,0.340299,0.104882,0.0,0.0
979,244.5,61.1344,59.3072,140.034,97.2046,95.0707,-0.00412373,0.0420974,21.0438,0.340299,0.198559,0.0,0.0
990,247.25,60.0103,57.9851,143.709,97.197,95.9612,-0.0040675,0.0417734,21.0437,0.340299,0.114472,0.0,0.0
1001,250,59.1969,57.6111,141.96,97.1646,96.0411,-0.00391638,0.0413162,21.0437,0.340299,0.104034,0.0,0.0
1012,252.75,58.4206,56.3312,143.432,97.1345,95.4346,,0.0410059,,0.340299,0.157935,0.0,0.0
1023,255.5,58.4748,56.3393,147.531,97.1116,96.0697,,,,0.33029,0.0964884,0.0,0.0
1034,258.25,57.6777,55.7344,138.509,97.1127,96.1651,,,,0.320281,0.0877166,0.0,0.0
1045,261,57.4826,55.4876,140.698,97.0815,95.1194,,,,0.360316,0.182648,0.0,0.0
1053,263,56.8885,54.5024,141.065,97.0811,95.9917,,,,0.350308,0.100951,0.0,0.0