File: 01_Data/ABS/Cone/ABS_HRRPUA_75.csv
Time after Ignition,ABS_R1,ABS_R2,ABS_R3,Mean,Std. Dev.
0.0,33.8,47.4,28.7,36.7,9.7
0.5,59.7,69.3,41.6,56.9,14.1
1.0,82.9,93.8,71.6,82.8,11.1
1.5,117.7,112.9,96.2,109.0,11.3
2.0,144.3,128.3,122.5,131.7,11.3
2.5,169.9,155.8,158.3,161.3,7.5
3.0,206.2,186.6,179.9,190.9,13.7
3.5,231.9,199.4,210.7,214.0,16.5
4.0,274.2,230.6,235.4,246.7,23.9
4.5,292.6,261.5,273.5,275.9,15.7
5.0,339.8,285.0,317.0,313.9,27.6
5.5,371.8,316.6,342.8,343.7,27.6
6.0,393.2,330.5,386.7,370.1,34.5
6.5,422.7,382.6,409.8,405.0,20.4
7.0,463.8,398.8,455.1,439.3,35.3
7.5,509.3,458.8,486.9,485.0,25.3
8.0,521.6,503.6,522.7,516.0,10.7
8.5,567.1,523.1,563.9,551.4,24.5
9.0,607.3,584.1,574.3,588.6,16.9
9.5,619.5,604.3,611.0,611.6,7.6
10.0,635.7,609.2,634.0,626.3,14.8
10.5,638.8,676.3,626.7,647.3,25.9
11.0,672.8,687.4,644.7,668.3,21.7
11.5,680.8,702.9,669.1,684.3,17.1
12.0,732.4,743.4,693.0,722.9,26.5
12.5,756.5,746.6,687.3,730.1,37.4
13.0,742.6,764.8,744.6,750.7,12.2
13.5,777.3,809.3,773.2,786.6,19.8
14.0,789.8,794.8,778.3,787.6,8.5
14.5,820.0,811.3,797.4,809.6,11.4
15.0,799.7,823.8,826.5,816.7,14.7
15.5,832.7,895.3,812.1,846.7,43.3
16.0,858.9,888.5,893.3,880.2,18.6
16.5,859.8,877.4,895.6,877.6,17.9
17.0,885.0,905.2,882.1,890.8,12.6
17.5,928.6,876.2,874.0,892.9,30.9
18.0,958.3,953.0,904.2,938.5,29.8
18.5,905.9,958.3,877.0,913.7,41.2
19.0,947.5,934.2,965.4,949.0,15.7
19.5,958.7,948.2,915.9,940.9,22.3
20.0,964.8,986.8,899.7,950.4,45.3
20.5,1036.3,962.3,936.8,978.5,51.7
21.0,1018.0,987.8,980.8,995.6,19.8
21.5,1020.4,998.6,1002.4,1007.1,11.7
22.0,968.1,1004.5,1017.0,996.6,25.4
22.5,1079.8,1069.7,1007.3,1052.3,39.3
23.0,1043.7,1060.4,952.3,1018.8,58.2
23.5,1009.7,1051.4,964.7,1008.6,43.4
24.0,1041.4,1014.8,983.0,1013.0,29.2
24.5,1032.4,1031.2,989.9,1017.8,24.2
25.0,1061.6,1074.9,1020.7,1052.4,28.2
25.5,1026.1,985.9,1051.9,1021.3,33.2
26.0,1002.1,988.4,1019.9,1003.5,15.8
26.5,1041.7,1025.7,1049.2,1038.9,12.0
27.0,1101.0,1018.0,1057.2,1058.7,41.6
27.5,1075.3,1042.5,1061.2,1059.7,16.5
28.0,1114.3,1021.4,1058.4,1064.7,46.7
28.5,1107.9,1123.9,1024.4,1085.4,53.4
29.0,1054.8,1063.4,1059.4,1059.2,4.3
29.5,1056.8,1090.7,1054.4,1067.3,20.3
30.0,1066.8,1108.6,1076.5,1084.0,21.9
30.5,1136.2,1111.0,1085.4,1110.9,25.4
31.0,1165.0,1124.6,1042.9,1110.9,62.2
31.5,1138.0,1095.8,1093.1,1109.0,25.2
32.0,1074.8,1078.1,1143.3,1098.8,38.6
32.5,1106.3,1139.4,1118.7,1121.5,16.7
33.0,1040.5,1100.7,1094.3,1078.5,33.1
33.5,1132.4,1106.1,1133.0,1123.8,15.4
34.0,1090.1,1119.9,1173.5,1127.8,42.2
34.5,1110.5,1164.1,1198.5,1157.7,44.3
35.0,1073.3,1173.2,1213.4,1153.3,72.1
35.5,1069.7,1161.1,1171.5,1134.1,56.0
36.0,1164.6,1099.9,1176.8,1147.1,41.3
36.5,1153.7,1238.6,1272.2,1221.5,61.1
37.0,1168.0,1195.7,1233.5,1199.0,32.9
37.5,1205.9,1150.5,1266.9,1207.8,58.2
38.0,1169.0,1342.0,1261.8,1257.6,86.6
38.5,1194.2,1118.7,1231.3,1181.4,57.4
39.0,1249.1,1138.0,1260.7,1215.9,67.8
39.5,1235.1,1197.9,1249.7,1227.6,26.7
40.0,1280.1,1198.9,1282.6,1253.9,47.7
40.5,1204.9,1163.5,1268.5,1212.3,52.9
41.0,1225.3,1287.2,1327.6,1280.0,51.5
41.5,1248.0,1256.1,1242.9,1249.0,6.7
42.0,1254.5,1351.6,1271.0,1292.4,51.9
42.5,1219.5,1304.2,1324.8,1282.9,55.8
43.0,1170.8,1280.4,1402.4,1284.5,115.8
43.5,1342.2,1285.9,1334.9,1321.0,30.6
44.0,1315.4,1312.3,1327.5,1318.4,8.0
44.5,1157.4,1262.3,1452.1,1290.6,149.4
45.0,1316.0,1400.4,1450.0,1388.8,67.7
45.5,1352.1,1365.9,1331.6,1349.8,17.2
46.0,1263.6,1442.8,1272.3,1326.2,101.1
46.5,1353.6,1324.2,1352.7,1343.5,16.7
47.0,1298.9,1395.2,1320.3,1338.1,50.5
47.5,1391.7,1441.8,1703.0,1512.1,167.2
48.0,1302.8,1452.1,1424.8,1393.2,79.5
48.5,1360.1,1425.3,1446.7,1410.7,45.1
49.0,1430.8,1288.1,1474.0,1397.6,97.3
49.5,1516.4,1520.6,1496.6,1511.2,12.8
50.0,1430.7,1414.9,1447.7,1431.1,16.4
50.5,1471.2,1468.0,1424.2,1454.5,26.3
51.0,1453.8,1498.0,1491.9,1481.3,23.9
51.5,1431.3,1441.0,1364.3,1412.2,41.7
52.0,1612.5,1490.4,1571.3,1558.0,62.1
52.5,1568.5,1525.8,1564.4,1552.9,23.6
53.0,1530.2,1686.8,1454.8,1557.2,118.3
53.5,1436.8,1511.2,1454.8,1467.6,38.8
54.0,1493.1,1770.4,1566.7,1610.1,143.6
54.5,1521.0,1541.1,1864.7,1642.3,192.9
55.0,1615.4,1603.5,1472.1,1563.6,79.5
55.5,1531.5,1744.5,1792.5,1689.5,138.9
56.0,1669.9,1735.7,1476.8,1627.5,134.6
56.5,1735.7,1412.9,1664.1,1604.2,169.5
57.0,1622.2,1506.6,1803.8,1644.2,149.8
57.5,1486.1,1705.7,1666.4,1619.4,117.1
58.0,1864.7,1718.8,1553.9,1712.5,155.5
58.5,1676.4,1747.7,1722.6,1715.6,36.2
59.0,1697.2,1717.4,1877.9,1764.2,99.0
59.5,1691.9,1725.0,1581.3,1666.1,75.2
60.0,1512.9,1503.8,1688.7,1568.5,104.2
60.5,1666.1,1784.7,1633.5,1694.7,79.5
61.0,1715.1,1629.3,1656.4,1666.9,43.9
61.5,1588.6,1697.0,2094.8,1793.5,266.5
62.0,1593.9,1647.0,2022.0,1754.3,233.4
62.5,1708.2,1728.2,1702.6,1713.0,13.5
63.0,1839.4,1884.2,1577.0,1766.8,166.0
63.5,1540.8,1740.4,1563.2,1614.8,109.4
64.0,1833.9,1927.9,2090.1,1950.6,129.6
64.5,1662.9,1619.2,1641.4,1641.2,21.8
65.0,1823.0,1833.5,2160.3,1938.9,191.8
65.5,1826.4,1700.4,1931.1,1819.3,115.5
66.0,1898.3,1840.2,2105.5,1948.0,139.5
66.5,2056.1,1796.3,1891.8,1914.7,131.4
67.0,1682.2,1744.1,2239.5,1888.6,305.5
67.5,2039.7,1852.9,1844.6,1912.4,110.3
68.0,1942.3,1612.0,2170.4,1908.2,280.8
68.5,1977.2,1722.1,1760.5,1820.0,137.5
69.0,2122.6,1775.4,1861.5,1919.8,180.8
69.5,1852.2,1785.7,2189.7,1942.5,216.6
70.0,1668.8,1665.7,1793.5,1709.3,72.9
70.5,1832.1,1673.3,2350.7,1952.0,354.3
71.0,1933.2,1929.1,2223.5,2028.6,168.8
71.5,2044.4,1758.4,1878.0,1893.6,143.6
72.0,1667.7,1911.3,2355.3,1978.1,348.6
72.5,1735.6,1926.8,2076.9,1913.1,171.1
73.0,1801.2,2015.9,1829.2,1882.1,116.7
73.5,1660.1,1785.9,1829.5,1758.5,88.0
74.0,1908.5,1825.5,2101.3,1945.1,141.5
74.5,1947.5,1971.2,1986.6,1968.4,19.7
75.0,1783.2,1821.0,1993.6,1865.9,112.2
75.5,1853.4,1833.1,2012.1,1899.5,98.0
76.0,1913.2,1938.9,1878.2,1910.1,30.4
76.5,1735.0,1819.6,2141.8,1898.8,214.6
77.0,1963.0,1738.7,1863.7,1855.1,112.4
77.5,2047.2,1700.2,1809.1,1852.2,177.4
78.0,1669.7,1677.2,1741.6,1696.2,39.5
78.5,1808.9,1696.9,1737.2,1747.7,56.7
79.0,1635.4,1608.5,1696.6,1646.8,45.1
79.5,1844.6,1641.7,1730.2,1738.8,101.7
80.0,1742.7,1444.6,1576.8,1588.1,149.3
80.5,1676.8,1532.6,1537.4,1582.3,81.9
81.0,1583.6,1410.8,1509.5,1501.3,86.7
81.5,1624.5,1450.5,1455.0,1510.0,99.2
82.0,1524.2,1389.7,1380.4,1431.4,80.5
82.5,1533.4,1261.8,1356.3,1383.8,137.9
83.0,1416.0,1156.9,1311.2,1294.7,130.3
83.5,1365.4,1207.9,1221.4,1264.9,87.3
84.0,1301.9,1056.2,1129.8,1162.7,126.1
84.5,1213.0,1012.7,1027.8,1084.5,111.5
85.0,1125.0,987.7,956.1,1022.9,89.8
85.5,1025.7,908.8,867.6,934.0,82.0
86.0,948.6,840.4,782.5,857.2,84.3
86.5,860.2,788.5,713.0,787.2,73.6
87.0,795.3,730.3,,762.8,46.0
87.5,729.7,660.8,,695.2,48.7
88.0,649.4,603.4,,626.4,32.5
88.5,579.1,552.1,,565.6,19.1
88.75,553.5,512.1,,532.8,29.3