File: 01_Data/ABS/Cone/ABS_Cone_HF75Scan_220218_R2.csv
Names,Time,Stack TC,Smoke TC,Exh Press,Smoke Comp,Smoke Meas,CO Meter,CO2 Meter,O2 Meter,Sample Mass,Ext Coeff,Start Test,Flame Verif
Chan Gain,,500,500,1,1,1,1,1,1,1,1,1.0,1.0
Offset,,0,0,0.134285,0,0,0,0,0,0,0,0.0,0.0
Gain,,1,1,25.011,13.3843,12.7012,1,1,1,1.00088,1.02252,1.0,1.0
Units,sec,C,C,Pa,%,%,%,%,%,g,/m,,
Baseline,,43.463,44.2031,145.493,100.159,93.5002,0.00058303,0.0529158,21.0035,-866.754,0.617189,,
10,2.25,40.5313,41.3556,142.739,99.2724,92.991,0.000826362,0.0657043,20.9829,32.3483,0.586291,0.0,0.0
20,4.75,40.8302,41.1679,143.725,99.0988,92.2995,0.000890599,0.0640395,20.9837,32.2983,0.63754,0.0,0.0
30,7.25,40.6108,41.838,143.697,99.0274,92.4088,0.000750616,0.0650785,20.9796,32.3083,0.620452,0.0,0.0
40,9.75,40.9404,41.525,147.661,99.0376,92.2573,0.000693348,0.0667845,20.975,32.3183,0.636099,0.0,0.0
50,12.25,41.3863,41.6599,150.65,99.1287,89.8518,0.00284459,0.0761927,20.9359,32.1381,0.881317,0.0,0.0
60,14.75,41.0553,42.5823,130.296,99.2692,54.4301,0.00960665,0.173342,20.7187,31.998,5.38993,0.0,1.0
70,17.25,43.7437,45.3934,118.49,99.4534,47.4798,0.0195969,0.406901,20.3886,31.6577,6.63189,0.0,1.0
80,19.75,47.8518,51.5181,107.016,99.6392,39.2404,0.032446,0.663992,20.0031,31.0972,8.3582,0.0,0.0
90,22.25,52.3326,59.3043,103.185,99.8655,33.7984,0.0451055,0.951278,19.4326,30.4567,9.71764,0.0,0.0
100,24.75,57.6003,67.6004,105.7,100.036,31.0917,0.0561614,1.20966,19.0656,29.9462,10.4817,0.0,0.0
110,27.25,64.1046,75.5724,93.9559,100.219,27.4358,0.0676494,1.43958,18.7242,29.2756,11.62,0.0,0.0
120,29.75,70.1656,85.6781,93.4384,100.343,24.833,0.0783606,1.65996,18.4161,28.585,12.5252,0.0,0.0
130,32.25,76.1467,94.9956,88.0894,100.433,23.281,0.0899361,1.81359,18.1758,27.7743,13.1121,0.0,0.0
140,34.75,83.0068,104.562,89.835,100.458,24.0198,0.098918,1.93759,17.9984,27.0937,12.8341,0.0,0.0
150,37.25,89.2011,112.986,89.5388,100.436,22.0651,0.105296,2.02651,17.88,26.3331,13.5935,0.0,0.0
160,39.75,94.9303,121.402,85.0203,100.435,23.9019,0.112065,2.08998,17.8104,25.5424,12.8762,0.0,0.0
170,42.25,100.2,129.254,92.1928,100.406,21.9635,0.118917,2.16453,17.6874,24.6716,13.6322,0.0,0.0
180,44.75,105.603,136.719,83.6647,100.342,19.8313,0.126038,2.26927,17.528,23.9209,14.5424,0.0,0.0
190,47.25,111.616,144.405,90.1846,100.274,19.9258,0.134461,2.39362,17.3488,23.0202,14.4937,0.0,0.0
200,49.75,116.894,152.532,87.6207,100.226,17.4482,0.144831,2.51717,17.1559,22.0093,15.6804,0.0,0.0
210,52.25,121.936,160.014,79.9063,100.161,17.7595,0.159313,2.66388,16.9243,21.0284,15.516,0.0,0.0
220,54.75,127.888,169.212,90.9448,100.321,16.0932,0.175796,2.83729,16.6348,20.0876,16.4139,0.0,0.0
230,57.25,133.565,177.312,71.7232,100.595,15.1958,0.192041,3.02217,16.3538,19.1167,16.953,0.0,0.0
240,59.75,139.781,186.428,78.9492,100.829,13.7834,0.210853,3.23476,16.041,17.9557,17.8489,0.0,0.0
250,62.25,145.52,195.79,86.601,100.946,14.1648,0.231144,3.44298,15.7801,16.6946,17.6145,0.0,0.0
260,64.75,152.425,206.641,70.9424,101.014,14.347,0.256813,3.76077,15.2482,15.4135,17.5059,0.0,0.0
270,67.25,159.632,218.582,66.3277,100.989,13.1578,0.277852,4.14171,14.7432,14.3025,18.2798,0.0,0.0
280,69.75,166.443,230.446,57.682,100.908,13.9505,0.293822,4.40717,14.3447,13.0314,17.7479,0.0,0.0
290,72.25,173.15,241.178,71.3668,100.763,15.0617,0.304204,4.62216,14.0644,11.7903,17.0476,0.0,0.0
300,74.75,180.249,252.717,62.9601,100.555,11.5744,0.313382,4.77473,13.8708,10.3791,19.3912,0.0,0.0
310,77.25,185.867,261.201,58.9323,100.448,17.4099,0.322462,4.8726,13.6884,9.138,15.72,0.0,0.0
320,79.75,191.213,269.52,65.6712,100.535,16.9308,0.332547,5.0055,13.4685,7.67672,15.978,0.0,0.0
330,82.25,197.344,279.238,65.0209,100.635,12.4744,0.346441,5.21995,13.159,6.17541,18.7266,0.0,0.0
340,84.75,203.534,289.806,71.3325,100.738,11.6388,0.353206,5.49584,12.9005,4.88428,19.3578,0.0,0.0
350,87.25,208.491,297.321,78.2416,100.87,11.6077,0.342937,5.42534,12.9952,3.64319,19.3935,0.0,0.0
360,89.75,212.229,300.618,72.9475,100.968,12.783,0.30676,4.98576,13.751,2.60228,18.5371,0.0,0.0
370,92.25,214.036,301.2,86.704,101.073,14.6392,0.25091,4.32673,14.8232,1.73152,17.3303,0.0,0.0
380,94.75,212.473,297.214,99.3195,101.147,27.3241,0.174637,3.51473,16.2409,1.08095,11.7393,0.0,0.0
390,97.25,208.639,287.5,117.066,101.211,50.2187,0.105527,2.55395,17.9121,0.820719,6.28596,0.0,0.0
400,99.75,200.757,273.481,130.756,101.212,78.7956,0.0651689,1.56047,18.9504,0.760666,2.24558,0.0,0.0
410,102.25,191.899,258.418,133.993,101.215,83.9857,0.0366684,0.992028,19.7967,0.710622,1.67375,0.0,0.0
420,104.75,183.98,244.1,134.34,101.149,87.9412,0.0221808,0.598293,20.3308,0.700613,1.25509,0.0,0.0
430,107.25,176.313,231.252,133.866,101.094,89.6056,0.0156232,0.387764,20.593,0.660578,1.08199,0.0,0.0
440,109.75,169.186,219.445,137.33,100.976,89.7979,0.0125845,0.27802,20.7246,0.640561,1.05232,0.0,0.0
450,112.25,162.221,207.681,133.007,100.84,89.2471,0.011456,0.213385,20.81,0.610535,1.09538,0.0,0.0
460,114.75,155.829,197.221,133.624,100.676,89.5727,0.0109723,0.177501,20.8531,0.660578,1.04817,0.0,0.0
470,117.25,150.893,188.863,132.96,100.51,89.3312,0.0105832,0.155232,20.8789,0.590517,1.0576,0.0,0.0
480,119.75,146,180.072,137.304,100.319,89.3397,0.0101807,0.138925,20.8972,0.580508,1.03963,0.0,0.0
490,122.25,140.836,172.565,133.872,100.138,88.8777,0.00957818,0.125947,20.9117,0.540473,1.06995,0.0,0.0
500,124.75,136.496,164.691,132.81,99.9464,88.6358,0.00887349,0.114615,20.9252,0.540473,1.07721,0.0,0.0
510,127.25,132.211,158.487,132.612,99.7458,88.8033,0.00806408,0.105341,20.937,0.560491,1.04227,0.0,0.0
520,129.75,127.965,152.078,133.624,99.5857,88.2951,0.00728966,0.0976549,20.945,0.550482,1.07933,0.0,0.0
530,132.25,124.712,146.484,132.456,99.4436,88.1719,0.00658202,0.0910968,20.9514,0.540473,1.07905,0.0,0.0
540,134.75,120.77,140.715,132.73,99.3472,88.3374,0.00565248,0.0856916,20.9565,0.530464,1.05353,0.0,0.0
550,137.25,117.721,135.387,133.202,99.2459,88.2742,0.00471148,0.0813115,20.9631,0.540473,1.0508,0.0,0.0
560,139.75,113.949,130.901,135.577,99.1997,88.625,0.00410649,0.0775969,20.9678,0.520456,1.01105,0.0,0.0
570,142.25,111.487,127.062,136.634,99.1499,88.0866,0.00377903,0.0747637,20.9709,0.530464,1.0612,0.0,0.0
580,144.75,109.221,122.885,135.726,99.1732,87.9482,0.00352278,0.072451,20.9734,0.510447,1.07741,0.0,0.0
590,147.25,106.206,119.168,136.275,99.1944,87.9079,0.0031286,0.0704447,20.9756,0.520456,1.08344,0.0,0.0
600,149.75,103.741,115.433,138.183,99.2532,87.9168,0.00283025,0.0687708,20.9785,0.510447,1.08785,0.0,0.0
610,152.25,101.552,112.36,132.536,99.3349,88.361,0.00262094,0.0672207,20.9807,0.520456,1.05003,0.0,0.0
620,154.75,99.4782,108.986,136,99.4358,88.2676,0.0022359,0.0659567,20.981,0.520456,1.06862,0.0,0.0
630,157.25,97.3046,106.324,137.302,99.5379,88.2017,0.00187936,0.0646805,20.9817,0.490429,1.08452,0.0,0.0
640,159.75,95.1891,103.28,133.993,99.6584,88.692,0.00170854,0.0635466,20.9827,0.480421,1.04565,0.0,0.0
650,162.25,93.5508,100.708,136.694,99.7944,88.5657,0.00178929,0.0625895,20.9843,0.500438,1.07067,0.0,0.0
660,164.75,91.8732,98.9675,134.298,99.9182,89.1308,0.00180165,0.0617713,20.9862,0.520456,1.02473,0.0,0.0
670,167.25,90.4826,96.4574,135.941,100.069,89.206,0.0017366,0.0611631,20.9874,0.480421,1.03065,0.0,0.0
680,169.75,89.1397,93.9604,136.704,100.163,88.9963,0.00164271,0.0608295,20.9878,0.500438,1.06025,0.0,0.0
690,172.25,87.2624,92.5743,139.196,100.277,89.2227,0.00151088,0.0603771,20.9879,0.470412,1.04767,0.0,0.0
700,174.75,85.8868,90.3135,136.231,100.357,89.2816,0.00140646,0.0600561,20.9892,0.490429,1.04887,0.0,0.0
710,177.25,85.0062,89.0094,136.939,100.459,89.8153,0.00135949,0.0595734,20.9883,0.490429,1.00453,0.0,0.0
720,179.75,83.92,87.3943,134.199,100.506,89.0324,0.00130193,0.0591792,20.9875,0.500438,1.08726,0.0,0.0
730,182.25,82.7359,85.6347,139.634,100.557,89.6084,0.00124153,0.0589755,20.9883,0.470412,1.03397,0.0,0.0
740,184.75,81.6694,84.2267,137.467,100.585,89.1351,0.00128467,0.0586393,20.9885,0.470412,1.08395,0.0,0.0
750,187.25,80.4573,82.7086,135.974,100.598,89.9797,0.00137323,0.0584285,20.9886,0.480421,1.00056,0.0,0.0
760,189.75,79.6617,81.4327,135.239,100.557,89.7386,0.00137894,0.0581798,20.9887,0.440386,1.02098,0.0,0.0
770,192.25,78.7232,80.3384,138.67,100.54,89.5022,0.00123777,0.0579069,20.9887,0.430377,1.04308,0.0,0.0
780,194.75,77.6152,79.0673,134.025,100.511,89.113,0.00106628,0.0576463,20.99,0.440386,1.07961,0.0,0.0
790,197.25,76.8722,77.5469,137.59,100.505,89.6208,0.000940396,0.0573767,20.9907,0.460403,1.0281,0.0,0.0
800,199.75,76.5,76.8168,136.404,100.477,89.2467,0.000836114,0.0570441,20.9905,0.450394,1.0631,0.0,0.0
810,202.25,75.3513,76.3279,136.467,100.453,89.2851,0.000899287,0.0567198,20.99,0.460403,1.05713,0.0,0.0
820,204.75,74.3475,74.5866,140.598,100.43,89.6161,0.000919891,0.0563677,20.9898,0.440386,1.02189,0.0,0.0
830,207.25,74.1002,74.3715,138.56,100.397,89.9591,0.000884673,0.0561952,20.9913,0.430377,0.984598,0.0,0.0
840,209.75,73.3688,73.5169,134.279,100.376,89.6425,0.000776946,0.0560539,20.993,0.430377,1.0144,0.0,0.0
850,212.25,72.1257,71.9996,137.286,100.344,88.9804,0.000754313,0.0558545,20.9939,0.430377,1.07801,0.0,0.0
860,214.75,71.8248,71.7602,134.829,100.304,89.32,0.000786842,0.055682,20.9942,0.420368,1.04027,0.0,0.0
870,217.25,71.2089,71.8307,138.053,100.281,89.5006,,0.0555138,,0.410359,1.0201,0.0,0.0
880,219.75,70.8133,71.026,137.556,100.252,88.9409,,,,0.420368,1.07374,0.0,0.0
890,222.25,70.6646,70.3757,138.783,100.22,88.7591,,,,0.410359,1.08924,0.0,0.0
900,224.75,69.9048,69.742,138.228,100.221,90.034,,,,0.450394,0.961473,0.0,0.0
910,227.25,69.3448,69.1849,136.863,100.35,89.9312,,,,0.400351,0.983184,0.0,0.0