File: 01_Data/Cellulose_Insulation/FTIR/IS/Cellulose_Insulation_IS_S_220913_R6.dpt
7497.03,0.53365
7473.89,0.52238
7450.74,0.52051
7427.6,0.52415
7404.45,0.52233
7381.31,0.51616
7358.16,0.52182
7335.02,0.51544
7311.87,0.52134
7288.73,0.52388
7265.58,0.51980
7242.44,0.51570
7219.29,0.51620
7196.15,0.52182
7173,0.52077
7149.86,0.51385
7126.71,0.51405
7103.57,0.51284
7080.42,0.51455
7057.28,0.50960
7034.13,0.50635
7010.99,0.49415
6987.84,0.50023
6964.7,0.48975
6941.55,0.49163
6918.41,0.48792
6895.26,0.48935
6872.12,0.49363
6848.97,0.48358
6825.83,0.48341
6802.68,0.48872
6779.54,0.48536
6756.39,0.48591
6733.25,0.48183
6710.1,0.48438
6686.96,0.48850
6663.82,0.48640
6640.67,0.48524
6617.53,0.48720
6594.38,0.48809
6571.24,0.48793
6548.09,0.49249
6524.95,0.49428
6501.8,0.49128
6478.66,0.49318
6455.51,0.49258
6432.37,0.48784
6409.22,0.48728
6386.08,0.49078
6362.93,0.49252
6339.79,0.49401
6316.64,0.49047
6293.5,0.49443
6270.35,0.49607
6247.21,0.49653
6224.06,0.49886
6200.92,0.50502
6177.77,0.50338
6154.63,0.50726
6131.48,0.51013
6108.34,0.50811
6085.19,0.50965
6062.05,0.51329
6038.9,0.51261
6015.76,0.51167
5992.61,0.51019
5969.47,0.51093
5946.32,0.50977
5923.18,0.50941
5900.03,0.50774
5876.89,0.51036
5853.74,0.50774
5830.6,0.50965
5807.45,0.50735
5784.31,0.51042
5761.16,0.51148
5738.02,0.50979
5714.87,0.51178
5691.73,0.50711
5668.58,0.50914
5645.44,0.51027
5622.29,0.51065
5599.15,0.51054
5576,0.50910
5552.86,0.51157
5529.71,0.51384
5506.57,0.51198
5483.42,0.51426
5460.28,0.51391
5437.13,0.51544
5413.99,0.51618
5390.84,0.51779
5367.7,0.51683
5344.55,0.51740
5321.41,0.51519
5298.26,0.51215
5275.12,0.50383
5251.97,0.49025
5228.83,0.48050
5205.68,0.47485
5182.54,0.47404
5159.39,0.47732
5136.25,0.48032
5113.1,0.48412
5089.96,0.48574
5066.81,0.48789
5043.67,0.48731
5020.52,0.48528
4997.38,0.48117
4974.23,0.47498
4951.09,0.46632
4927.94,0.45680
4904.8,0.44632
4881.65,0.43572
4858.51,0.42688
4835.36,0.41740
4812.22,0.40900
4789.07,0.40377
4765.93,0.39948
4742.78,0.39679
4719.64,0.39677
4696.49,0.39887
4673.35,0.40043
4650.2,0.40464
4627.06,0.40870
4603.92,0.41632
4580.77,0.42168
4557.63,0.42781
4534.48,0.43186
4511.34,0.43720
4488.19,0.43832
4465.05,0.43311
4441.9,0.42129
4418.76,0.40677
4395.61,0.39580
4372.47,0.40210
4349.32,0.40296
4326.18,0.39830
4303.03,0.39124
4279.89,0.38683
4256.74,0.38979
4233.6,0.39291
4210.45,0.39506
4187.31,0.39681
4164.16,0.40072
4141.02,0.39772
4117.87,0.38989
4094.73,0.37343
4071.58,0.35600
4048.44,0.33761
4025.29,0.32453
4002.15,0.32522
3979,0.33122
3955.86,0.33883
3932.71,0.34806
3909.57,0.35688
3886.42,0.36414
3863.28,0.37125
3840.13,0.37932
3816.99,0.38130
3793.84,0.37911
3770.7,0.37545
3747.55,0.36700
3724.41,0.34385
3701.26,0.26553
3678.12,0.24557
3654.97,0.18427
3631.83,0.14612
3608.68,0.10983
3585.54,0.08258
3562.39,0.06424
3539.25,0.05299
3516.1,0.04560
3492.96,0.03992
3469.81,0.03655
3446.67,0.03455
3423.52,0.03293
3400.38,0.03237
3377.23,0.03285
3354.09,0.03260
3330.94,0.03485
3307.8,0.03688
3284.65,0.03896
3261.51,0.04452
3238.36,0.05047
3215.22,0.05660
3192.07,0.06379
3168.93,0.07148
3145.78,0.07972
3122.64,0.08776
3099.49,0.09574
3076.35,0.10217
3053.2,0.10886
3030.06,0.11381
3006.91,0.11175
2983.77,0.10056
2960.62,0.07489
2937.48,0.06350
2914.33,0.05947
2891.19,0.06253
2868.04,0.06758
2844.9,0.08317
2821.75,0.10859
2798.61,0.12832
2775.46,0.13737
2752.32,0.14305
2729.17,0.14696
2706.03,0.15669
2682.88,0.16876
2659.74,0.17643
2636.59,0.18432
2613.45,0.19238
2590.3,0.19919
2567.16,0.20286
2544.02,0.20342
2520.87,0.20680
2497.73,0.21861
2474.58,0.23115
2451.44,0.23961
2428.29,0.25001
2405.15,0.26049
2382,0.26859
2358.86,0.27453
2335.71,0.28057
2312.57,0.28170
2289.42,0.27890
2266.28,0.27137
2243.13,0.26708
2219.99,0.26704
2196.84,0.26550
2173.7,0.25502
2150.55,0.24542
2127.41,0.24223
2104.26,0.24578
2081.12,0.24709
2057.97,0.24249
2034.83,0.24649
2011.68,0.26075
1988.54,0.26849
1965.39,0.27425
1942.25,0.28170
1919.1,0.28648
1895.96,0.28584
1872.81,0.28210
1849.67,0.27484
1826.52,0.26392
1803.38,0.24639
1780.23,0.22001
1757.09,0.14817
1733.94,0.11544
1710.8,0.13753
1687.65,0.13886
1664.51,0.10423
1641.36,0.10252
1618.22,0.10110
1595.07,0.09453
1571.93,0.13034
1548.78,0.13733
1525.64,0.09212
1502.49,0.05930
1479.35,0.05076
1456.2,0.03921
1433.06,0.03508
1409.91,0.04058
1386.77,0.03921
1363.62,0.03853
1340.48,0.04055
1317.33,0.04122
1294.19,0.04617
1271.04,0.04167
1247.9,0.04364
1224.75,0.04390
1201.61,0.04290
1178.46,0.03287
1155.32,0.03322
1132.17,0.02862
1109.03,0.03149
1085.88,0.03154
1062.74,0.04003
1039.59,0.04295
1016.45,0.04971
993.304,0.05949
970.159,0.08061
947.014,0.10210
923.869,0.10665
900.724,0.09206
877.579,0.10412
854.434,0.11707
831.289,0.11603
808.144,0.09840
784.999,0.09641
761.854,0.08540
738.709,0.07552
715.565,0.05907
692.42,0.05500
669.275,0.04809
646.13,0.04896
622.985,0.04256
599.84,0.04941