File: 01_Data/Cellulose_Insulation/FTIR/IS/Cellulose_Insulation_IS_S_220913_R4.dpt
7497.03,0.53365
7473.89,0.52993
7450.74,0.51771
7427.6,0.52242
7404.45,0.52064
7381.31,0.52166
7358.16,0.51676
7335.02,0.51540
7311.87,0.51784
7288.73,0.52102
7265.58,0.52481
7242.44,0.52576
7219.29,0.52018
7196.15,0.52572
7173,0.52098
7149.86,0.51406
7126.71,0.51732
7103.57,0.51113
7080.42,0.50320
7057.28,0.50460
7034.13,0.50102
7010.99,0.49373
6987.84,0.49150
6964.7,0.49271
6941.55,0.48879
6918.41,0.48829
6895.26,0.48524
6872.12,0.49103
6848.97,0.49028
6825.83,0.48746
6802.68,0.48323
6779.54,0.48951
6756.39,0.48439
6733.25,0.48437
6710.1,0.48393
6686.96,0.48573
6663.82,0.48835
6640.67,0.48824
6617.53,0.48752
6594.38,0.49024
6571.24,0.48944
6548.09,0.48883
6524.95,0.48682
6501.8,0.48653
6478.66,0.49342
6455.51,0.48814
6432.37,0.49135
6409.22,0.48785
6386.08,0.49018
6362.93,0.49207
6339.79,0.48840
6316.64,0.49224
6293.5,0.49577
6270.35,0.49384
6247.21,0.49878
6224.06,0.50313
6200.92,0.50359
6177.77,0.50539
6154.63,0.50595
6131.48,0.50541
6108.34,0.51207
6085.19,0.50661
6062.05,0.51362
6038.9,0.51160
6015.76,0.51232
5992.61,0.51151
5969.47,0.50917
5946.32,0.51368
5923.18,0.50997
5900.03,0.51054
5876.89,0.50981
5853.74,0.50852
5830.6,0.50991
5807.45,0.50746
5784.31,0.51032
5761.16,0.51013
5738.02,0.51016
5714.87,0.50787
5691.73,0.50993
5668.58,0.51001
5645.44,0.51068
5622.29,0.50758
5599.15,0.50999
5576,0.51134
5552.86,0.51248
5529.71,0.51270
5506.57,0.51259
5483.42,0.51460
5460.28,0.51292
5437.13,0.51528
5413.99,0.51788
5390.84,0.51898
5367.7,0.51829
5344.55,0.51673
5321.41,0.51624
5298.26,0.51129
5275.12,0.50230
5251.97,0.48678
5228.83,0.47577
5205.68,0.47011
5182.54,0.46739
5159.39,0.47235
5136.25,0.47654
5113.1,0.48089
5089.96,0.48286
5066.81,0.48596
5043.67,0.48600
5020.52,0.48527
4997.38,0.47917
4974.23,0.47292
4951.09,0.46604
4927.94,0.45644
4904.8,0.44613
4881.65,0.43401
4858.51,0.42559
4835.36,0.41824
4812.22,0.40895
4789.07,0.40465
4765.93,0.39915
4742.78,0.39619
4719.64,0.39622
4696.49,0.39764
4673.35,0.40090
4650.2,0.40366
4627.06,0.40958
4603.92,0.41507
4580.77,0.42198
4557.63,0.42751
4534.48,0.43231
4511.34,0.43754
4488.19,0.43857
4465.05,0.43371
4441.9,0.42219
4418.76,0.40616
4395.61,0.39645
4372.47,0.40129
4349.32,0.40386
4326.18,0.39822
4303.03,0.39156
4279.89,0.38768
4256.74,0.38977
4233.6,0.39287
4210.45,0.39469
4187.31,0.39636
4164.16,0.39930
4141.02,0.39695
4117.87,0.38791
4094.73,0.37327
4071.58,0.35565
4048.44,0.33662
4025.29,0.32390
4002.15,0.32410
3979,0.33029
3955.86,0.33767
3932.71,0.34690
3909.57,0.35578
3886.42,0.36291
3863.28,0.36991
3840.13,0.37805
3816.99,0.37900
3793.84,0.37670
3770.7,0.37344
3747.55,0.36332
3724.41,0.34081
3701.26,0.26219
3678.12,0.24140
3654.97,0.17848
3631.83,0.14095
3608.68,0.10542
3585.54,0.07956
3562.39,0.06304
3539.25,0.05161
3516.1,0.04413
3492.96,0.03955
3469.81,0.03587
3446.67,0.03414
3423.52,0.03311
3400.38,0.03246
3377.23,0.03251
3354.09,0.03237
3330.94,0.03386
3307.8,0.03703
3284.65,0.03935
3261.51,0.04387
3238.36,0.04962
3215.22,0.05557
3192.07,0.06254
3168.93,0.06979
3145.78,0.07840
3122.64,0.08560
3099.49,0.09318
3076.35,0.10012
3053.2,0.10668
3030.06,0.11201
3006.91,0.10985
2983.77,0.09986
2960.62,0.07567
2937.48,0.06316
2914.33,0.05923
2891.19,0.06187
2868.04,0.06795
2844.9,0.08287
2821.75,0.10843
2798.61,0.12772
2775.46,0.13649
2752.32,0.14247
2729.17,0.14622
2706.03,0.15602
2682.88,0.16787
2659.74,0.17526
2636.59,0.18389
2613.45,0.19190
2590.3,0.19821
2567.16,0.20230
2544.02,0.20240
2520.87,0.20604
2497.73,0.21729
2474.58,0.23056
2451.44,0.23871
2428.29,0.24899
2405.15,0.25968
2382,0.26774
2358.86,0.27301
2335.71,0.27837
2312.57,0.28016
2289.42,0.27691
2266.28,0.26990
2243.13,0.26529
2219.99,0.26506
2196.84,0.26363
2173.7,0.25260
2150.55,0.24275
2127.41,0.23992
2104.26,0.24339
2081.12,0.24500
2057.97,0.24038
2034.83,0.24464
2011.68,0.25862
1988.54,0.26663
1965.39,0.27222
1942.25,0.28002
1919.1,0.28477
1895.96,0.28416
1872.81,0.28052
1849.67,0.27309
1826.52,0.26237
1803.38,0.24469
1780.23,0.21941
1757.09,0.14917
1733.94,0.11444
1710.8,0.13634
1687.65,0.13628
1664.51,0.10110
1641.36,0.09864
1618.22,0.09841
1595.07,0.09355
1571.93,0.12849
1548.78,0.13620
1525.64,0.09184
1502.49,0.05969
1479.35,0.05063
1456.2,0.03895
1433.06,0.03531
1409.91,0.04040
1386.77,0.03973
1363.62,0.03904
1340.48,0.04077
1317.33,0.04131
1294.19,0.04662
1271.04,0.04142
1247.9,0.04376
1224.75,0.04396
1201.61,0.04271
1178.46,0.03311
1155.32,0.03305
1132.17,0.02908
1109.03,0.03161
1085.88,0.03077
1062.74,0.04021
1039.59,0.04330
1016.45,0.05022
993.304,0.06005
970.159,0.08076
947.014,0.10184
923.869,0.10693
900.724,0.09069
877.579,0.10363
854.434,0.11496
831.289,0.11358
808.144,0.09612
784.999,0.09393
761.854,0.08279
738.709,0.07364
715.565,0.05860
692.42,0.05416
669.275,0.04665
646.13,0.04739
622.985,0.04482
599.84,0.04751