File: 01_Data/Cellulose_Insulation/FTIR/IS/Cellulose_Insulation_IS_S_220913_R5.dpt
7497.03,0.52589
7473.89,0.51842
7450.74,0.52139
7427.6,0.52785
7404.45,0.51932
7381.31,0.51883
7358.16,0.51832
7335.02,0.52255
7311.87,0.51613
7288.73,0.51378
7265.58,0.52134
7242.44,0.51115
7219.29,0.51738
7196.15,0.51525
7173,0.51989
7149.86,0.51552
7126.71,0.51464
7103.57,0.50790
7080.42,0.50885
7057.28,0.50372
7034.13,0.50188
7010.99,0.49243
6987.84,0.50532
6964.7,0.49606
6941.55,0.49119
6918.41,0.48873
6895.26,0.49152
6872.12,0.48666
6848.97,0.48533
6825.83,0.48704
6802.68,0.48534
6779.54,0.48583
6756.39,0.48728
6733.25,0.48407
6710.1,0.48370
6686.96,0.48093
6663.82,0.48965
6640.67,0.48907
6617.53,0.48892
6594.38,0.48819
6571.24,0.49021
6548.09,0.49147
6524.95,0.49581
6501.8,0.49236
6478.66,0.48842
6455.51,0.48961
6432.37,0.48913
6409.22,0.49487
6386.08,0.49264
6362.93,0.49228
6339.79,0.49185
6316.64,0.49213
6293.5,0.49423
6270.35,0.49501
6247.21,0.49838
6224.06,0.49911
6200.92,0.50483
6177.77,0.50516
6154.63,0.50779
6131.48,0.51049
6108.34,0.51268
6085.19,0.51049
6062.05,0.51346
6038.9,0.51391
6015.76,0.51194
5992.61,0.51208
5969.47,0.51353
5946.32,0.51122
5923.18,0.51161
5900.03,0.51097
5876.89,0.51082
5853.74,0.50880
5830.6,0.51000
5807.45,0.51073
5784.31,0.50826
5761.16,0.50981
5738.02,0.51095
5714.87,0.51005
5691.73,0.50971
5668.58,0.51137
5645.44,0.51153
5622.29,0.51161
5599.15,0.51006
5576,0.51459
5552.86,0.51083
5529.71,0.51363
5506.57,0.51432
5483.42,0.51384
5460.28,0.51471
5437.13,0.51650
5413.99,0.51906
5390.84,0.51805
5367.7,0.51950
5344.55,0.51863
5321.41,0.51705
5298.26,0.51375
5275.12,0.50390
5251.97,0.49170
5228.83,0.47948
5205.68,0.47359
5182.54,0.47321
5159.39,0.47459
5136.25,0.47882
5113.1,0.48406
5089.96,0.48720
5066.81,0.48822
5043.67,0.48895
5020.52,0.48812
4997.38,0.48190
4974.23,0.47487
4951.09,0.46859
4927.94,0.45724
4904.8,0.44813
4881.65,0.43569
4858.51,0.42697
4835.36,0.41823
4812.22,0.40925
4789.07,0.40566
4765.93,0.39959
4742.78,0.39761
4719.64,0.39778
4696.49,0.39953
4673.35,0.40262
4650.2,0.40547
4627.06,0.41119
4603.92,0.41792
4580.77,0.42352
4557.63,0.42895
4534.48,0.43383
4511.34,0.43926
4488.19,0.43989
4465.05,0.43414
4441.9,0.42249
4418.76,0.40709
4395.61,0.39617
4372.47,0.40364
4349.32,0.40579
4326.18,0.39939
4303.03,0.39283
4279.89,0.38853
4256.74,0.39211
4233.6,0.39421
4210.45,0.39628
4187.31,0.39833
4164.16,0.40210
4141.02,0.39864
4117.87,0.39017
4094.73,0.37514
4071.58,0.35682
4048.44,0.33818
4025.29,0.32493
4002.15,0.32575
3979,0.33225
3955.86,0.34015
3932.71,0.34962
3909.57,0.35743
3886.42,0.36543
3863.28,0.37240
3840.13,0.38025
3816.99,0.38120
3793.84,0.37999
3770.7,0.37609
3747.55,0.36621
3724.41,0.34404
3701.26,0.26558
3678.12,0.24475
3654.97,0.18316
3631.83,0.14414
3608.68,0.10849
3585.54,0.08196
3562.39,0.06326
3539.25,0.05258
3516.1,0.04521
3492.96,0.03940
3469.81,0.03585
3446.67,0.03405
3423.52,0.03312
3400.38,0.03262
3377.23,0.03251
3354.09,0.03333
3330.94,0.03461
3307.8,0.03659
3284.65,0.03979
3261.51,0.04390
3238.36,0.05047
3215.22,0.05676
3192.07,0.06395
3168.93,0.07152
3145.78,0.07948
3122.64,0.08731
3099.49,0.09494
3076.35,0.10144
3053.2,0.10846
3030.06,0.11348
3006.91,0.11161
2983.77,0.10044
2960.62,0.07550
2937.48,0.06326
2914.33,0.05940
2891.19,0.06200
2868.04,0.06849
2844.9,0.08316
2821.75,0.10909
2798.61,0.12817
2775.46,0.13763
2752.32,0.14333
2729.17,0.14729
2706.03,0.15655
2682.88,0.16844
2659.74,0.17652
2636.59,0.18457
2613.45,0.19309
2590.3,0.19987
2567.16,0.20343
2544.02,0.20389
2520.87,0.20748
2497.73,0.21896
2474.58,0.23112
2451.44,0.24024
2428.29,0.25063
2405.15,0.26146
2382,0.26929
2358.86,0.27474
2335.71,0.28045
2312.57,0.28234
2289.42,0.27879
2266.28,0.27164
2243.13,0.26735
2219.99,0.26696
2196.84,0.26615
2173.7,0.25466
2150.55,0.24544
2127.41,0.24251
2104.26,0.24583
2081.12,0.24725
2057.97,0.24218
2034.83,0.24663
2011.68,0.26077
1988.54,0.26893
1965.39,0.27417
1942.25,0.28169
1919.1,0.28664
1895.96,0.28637
1872.81,0.28205
1849.67,0.27500
1826.52,0.26413
1803.38,0.24640
1780.23,0.22029
1757.09,0.14921
1733.94,0.11548
1710.8,0.13750
1687.65,0.13843
1664.51,0.10343
1641.36,0.10119
1618.22,0.10056
1595.07,0.09445
1571.93,0.12999
1548.78,0.13717
1525.64,0.09205
1502.49,0.05981
1479.35,0.05084
1456.2,0.03959
1433.06,0.03503
1409.91,0.04064
1386.77,0.03908
1363.62,0.03871
1340.48,0.04072
1317.33,0.04153
1294.19,0.04651
1271.04,0.04105
1247.9,0.04377
1224.75,0.04396
1201.61,0.04281
1178.46,0.03286
1155.32,0.03343
1132.17,0.02913
1109.03,0.03089
1085.88,0.03047
1062.74,0.04018
1039.59,0.04380
1016.45,0.04939
993.304,0.06001
970.159,0.08001
947.014,0.10225
923.869,0.10650
900.724,0.09142
877.579,0.10425
854.434,0.11626
831.289,0.11497
808.144,0.09811
784.999,0.09488
761.854,0.08496
738.709,0.07472
715.565,0.05998
692.42,0.05507
669.275,0.04768
646.13,0.04851
622.985,0.04487
599.84,0.04597