File: 01_Data/Cellulose_Insulation/FTIR/IS/Cellulose_Insulation_IS_S_220913_R3.dpt
7497.03,0.52512
7473.89,0.53177
7450.74,0.53380
7427.6,0.52338
7404.45,0.52906
7381.31,0.51368
7358.16,0.52801
7335.02,0.52278
7311.87,0.51637
7288.73,0.52194
7265.58,0.52556
7242.44,0.51343
7219.29,0.52013
7196.15,0.52098
7173,0.51521
7149.86,0.51440
7126.71,0.51130
7103.57,0.50978
7080.42,0.50905
7057.28,0.50936
7034.13,0.49659
7010.99,0.48857
6987.84,0.48936
6964.7,0.48759
6941.55,0.48697
6918.41,0.48950
6895.26,0.48577
6872.12,0.49226
6848.97,0.48523
6825.83,0.48596
6802.68,0.48369
6779.54,0.48037
6756.39,0.48031
6733.25,0.48404
6710.1,0.48178
6686.96,0.48172
6663.82,0.48300
6640.67,0.48919
6617.53,0.48479
6594.38,0.47951
6571.24,0.49115
6548.09,0.48427
6524.95,0.49079
6501.8,0.48468
6478.66,0.48922
6455.51,0.49294
6432.37,0.49152
6409.22,0.48857
6386.08,0.49043
6362.93,0.49109
6339.79,0.49235
6316.64,0.49638
6293.5,0.49580
6270.35,0.49658
6247.21,0.50029
6224.06,0.50085
6200.92,0.50052
6177.77,0.50580
6154.63,0.50811
6131.48,0.51150
6108.34,0.51014
6085.19,0.50830
6062.05,0.51467
6038.9,0.50944
6015.76,0.51145
5992.61,0.51350
5969.47,0.51233
5946.32,0.51145
5923.18,0.50971
5900.03,0.51015
5876.89,0.50755
5853.74,0.50940
5830.6,0.51171
5807.45,0.50852
5784.31,0.50993
5761.16,0.50911
5738.02,0.51115
5714.87,0.51185
5691.73,0.50800
5668.58,0.50910
5645.44,0.50945
5622.29,0.50854
5599.15,0.51217
5576,0.51112
5552.86,0.51140
5529.71,0.51367
5506.57,0.51090
5483.42,0.51415
5460.28,0.51432
5437.13,0.51534
5413.99,0.51585
5390.84,0.51765
5367.7,0.51974
5344.55,0.51781
5321.41,0.51477
5298.26,0.51124
5275.12,0.50051
5251.97,0.48343
5228.83,0.47150
5205.68,0.46426
5182.54,0.46372
5159.39,0.46988
5136.25,0.47233
5113.1,0.47688
5089.96,0.48006
5066.81,0.48310
5043.67,0.48529
5020.52,0.48271
4997.38,0.47794
4974.23,0.47309
4951.09,0.46588
4927.94,0.45690
4904.8,0.44604
4881.65,0.43548
4858.51,0.42487
4835.36,0.41725
4812.22,0.40982
4789.07,0.40348
4765.93,0.39943
4742.78,0.39641
4719.64,0.39716
4696.49,0.39799
4673.35,0.40095
4650.2,0.40434
4627.06,0.40904
4603.92,0.41592
4580.77,0.42294
4557.63,0.42759
4534.48,0.43154
4511.34,0.43775
4488.19,0.43852
4465.05,0.43288
4441.9,0.42162
4418.76,0.40648
4395.61,0.39628
4372.47,0.40282
4349.32,0.40350
4326.18,0.39873
4303.03,0.39208
4279.89,0.38792
4256.74,0.39062
4233.6,0.39379
4210.45,0.39421
4187.31,0.39662
4164.16,0.40048
4141.02,0.39686
4117.87,0.38833
4094.73,0.37256
4071.58,0.35531
4048.44,0.33598
4025.29,0.32349
4002.15,0.32379
3979,0.32994
3955.86,0.33736
3932.71,0.34700
3909.57,0.35475
3886.42,0.36183
3863.28,0.36927
3840.13,0.37656
3816.99,0.37785
3793.84,0.37618
3770.7,0.37063
3747.55,0.36051
3724.41,0.33779
3701.26,0.26067
3678.12,0.23651
3654.97,0.17350
3631.83,0.13523
3608.68,0.10159
3585.54,0.07731
3562.39,0.06196
3539.25,0.05043
3516.1,0.04421
3492.96,0.03867
3469.81,0.03556
3446.67,0.03334
3423.52,0.03279
3400.38,0.03292
3377.23,0.03230
3354.09,0.03257
3330.94,0.03462
3307.8,0.03691
3284.65,0.03827
3261.51,0.04302
3238.36,0.04913
3215.22,0.05474
3192.07,0.06112
3168.93,0.06769
3145.78,0.07617
3122.64,0.08410
3099.49,0.09174
3076.35,0.09822
3053.2,0.10515
3030.06,0.10995
3006.91,0.10868
2983.77,0.09892
2960.62,0.07487
2937.48,0.06370
2914.33,0.05947
2891.19,0.06204
2868.04,0.06779
2844.9,0.08269
2821.75,0.10789
2798.61,0.12673
2775.46,0.13647
2752.32,0.14123
2729.17,0.14566
2706.03,0.15515
2682.88,0.16694
2659.74,0.17430
2636.59,0.18340
2613.45,0.19069
2590.3,0.19803
2567.16,0.20128
2544.02,0.20194
2520.87,0.20567
2497.73,0.21755
2474.58,0.22983
2451.44,0.23821
2428.29,0.24850
2405.15,0.25899
2382,0.26636
2358.86,0.27174
2335.71,0.27720
2312.57,0.27867
2289.42,0.27524
2266.28,0.26776
2243.13,0.26377
2219.99,0.26326
2196.84,0.26205
2173.7,0.25094
2150.55,0.24137
2127.41,0.23857
2104.26,0.24161
2081.12,0.24313
2057.97,0.23899
2034.83,0.24279
2011.68,0.25701
1988.54,0.26509
1965.39,0.27037
1942.25,0.27813
1919.1,0.28325
1895.96,0.28316
1872.81,0.27880
1849.67,0.27182
1826.52,0.26107
1803.38,0.24357
1780.23,0.21879
1757.09,0.14910
1733.94,0.11391
1710.8,0.13468
1687.65,0.13436
1664.51,0.09909
1641.36,0.09544
1618.22,0.09658
1595.07,0.09269
1571.93,0.12753
1548.78,0.13504
1525.64,0.09118
1502.49,0.05947
1479.35,0.05044
1456.2,0.03923
1433.06,0.03529
1409.91,0.04055
1386.77,0.03964
1363.62,0.03877
1340.48,0.04103
1317.33,0.04147
1294.19,0.04666
1271.04,0.04135
1247.9,0.04374
1224.75,0.04403
1201.61,0.04219
1178.46,0.03271
1155.32,0.03312
1132.17,0.02923
1109.03,0.03075
1085.88,0.03115
1062.74,0.04062
1039.59,0.04352
1016.45,0.05011
993.304,0.05957
970.159,0.08023
947.014,0.10166
923.869,0.10591
900.724,0.09031
877.579,0.10288
854.434,0.11421
831.289,0.11186
808.144,0.09497
784.999,0.09124
761.854,0.08227
738.709,0.07152
715.565,0.05739
692.42,0.05307
669.275,0.04556
646.13,0.04814
622.985,0.04450
599.84,0.04766