File: 01_Data/Cellulose_Insulation/FTIR/IS/Cellulose_Insulation_IS_T_220913_R5.dpt
7497.03,0.02329
7473.89,0.02275
7450.74,0.03644
7427.6,0.02097
7404.45,0.01992
7381.31,0.02825
7358.16,0.02430
7335.02,0.01859
7311.87,0.02662
7288.73,0.02968
7265.58,0.02432
7242.44,0.02560
7219.29,0.02749
7196.15,0.02380
7173,0.02080
7149.86,0.02458
7126.71,0.02472
7103.57,0.02575
7080.42,0.02508
7057.28,0.03269
7034.13,0.02187
7010.99,0.02495
6987.84,0.03082
6964.7,0.02598
6941.55,0.02337
6918.41,0.02822
6895.26,0.02157
6872.12,0.02404
6848.97,0.02393
6825.83,0.02204
6802.68,0.02429
6779.54,0.02607
6756.39,0.02155
6733.25,0.02023
6710.1,0.02901
6686.96,0.02107
6663.82,0.02187
6640.67,0.02416
6617.53,0.01989
6594.38,0.02611
6571.24,0.02019
6548.09,0.02572
6524.95,0.02233
6501.8,0.02235
6478.66,0.02145
6455.51,0.01849
6432.37,0.02346
6409.22,0.02330
6386.08,0.02290
6362.93,0.02593
6339.79,0.02260
6316.64,0.02383
6293.5,0.02456
6270.35,0.02273
6247.21,0.02112
6224.06,0.02199
6200.92,0.02368
6177.77,0.02113
6154.63,0.01977
6131.48,0.02278
6108.34,0.01963
6085.19,0.02079
6062.05,0.02045
6038.9,0.02281
6015.76,0.01921
5992.61,0.02230
5969.47,0.02221
5946.32,0.02211
5923.18,0.02262
5900.03,0.02141
5876.89,0.02545
5853.74,0.02048
5830.6,0.02111
5807.45,0.02304
5784.31,0.02174
5761.16,0.02260
5738.02,0.02195
5714.87,0.02317
5691.73,0.02053
5668.58,0.02142
5645.44,0.02136
5622.29,0.01959
5599.15,0.02258
5576,0.02188
5552.86,0.02267
5529.71,0.02289
5506.57,0.02031
5483.42,0.02220
5460.28,0.02096
5437.13,0.02225
5413.99,0.02359
5390.84,0.02148
5367.7,0.02086
5344.55,0.02235
5321.41,0.02382
5298.26,0.02203
5275.12,0.02215
5251.97,0.02210
5228.83,0.02413
5205.68,0.02129
5182.54,0.02284
5159.39,0.02130
5136.25,0.02039
5113.1,0.02223
5089.96,0.02260
5066.81,0.02234
5043.67,0.02325
5020.52,0.02189
4997.38,0.02360
4974.23,0.02176
4951.09,0.02335
4927.94,0.02247
4904.8,0.02173
4881.65,0.02321
4858.51,0.02240
4835.36,0.02224
4812.22,0.02245
4789.07,0.02294
4765.93,0.02209
4742.78,0.02206
4719.64,0.02256
4696.49,0.02288
4673.35,0.02282
4650.2,0.02374
4627.06,0.02265
4603.92,0.02246
4580.77,0.02179
4557.63,0.02247
4534.48,0.02274
4511.34,0.02234
4488.19,0.02244
4465.05,0.02341
4441.9,0.02178
4418.76,0.02226
4395.61,0.02226
4372.47,0.02247
4349.32,0.02349
4326.18,0.02299
4303.03,0.02257
4279.89,0.02200
4256.74,0.02258
4233.6,0.02183
4210.45,0.02325
4187.31,0.02253
4164.16,0.02298
4141.02,0.02202
4117.87,0.02297
4094.73,0.02256
4071.58,0.02248
4048.44,0.02237
4025.29,0.02252
4002.15,0.02304
3979,0.02261
3955.86,0.02293
3932.71,0.02356
3909.57,0.02257
3886.42,0.02265
3863.28,0.02246
3840.13,0.02289
3816.99,0.02331
3793.84,0.02232
3770.7,0.02245
3747.55,0.02235
3724.41,0.02297
3701.26,0.02292
3678.12,0.02319
3654.97,0.02229
3631.83,0.02300
3608.68,0.02147
3585.54,0.02152
3562.39,0.02170
3539.25,0.02182
3516.1,0.02153
3492.96,0.02099
3469.81,0.02033
3446.67,0.02086
3423.52,0.02084
3400.38,0.02084
3377.23,0.02106
3354.09,0.02036
3330.94,0.02031
3307.8,0.02029
3284.65,0.02006
3261.51,0.02076
3238.36,0.02110
3215.22,0.02124
3192.07,0.02047
3168.93,0.02074
3145.78,0.02092
3122.64,0.02194
3099.49,0.02146
3076.35,0.02057
3053.2,0.02045
3030.06,0.02089
3006.91,0.02065
2983.77,0.02030
2960.62,0.01942
2937.48,0.01970
2914.33,0.02041
2891.19,0.02078
2868.04,0.02093
2844.9,0.02096
2821.75,0.02098
2798.61,0.02122
2775.46,0.02120
2752.32,0.02152
2729.17,0.02171
2706.03,0.02146
2682.88,0.02142
2659.74,0.02139
2636.59,0.02141
2613.45,0.02137
2590.3,0.02159
2567.16,0.02142
2544.02,0.02135
2520.87,0.02103
2497.73,0.02151
2474.58,0.02148
2451.44,0.02092
2428.29,0.02114
2405.15,0.02151
2382,0.02138
2358.86,0.02133
2335.71,0.02133
2312.57,0.02138
2289.42,0.02128
2266.28,0.02139
2243.13,0.02123
2219.99,0.02116
2196.84,0.02098
2173.7,0.02121
2150.55,0.02120
2127.41,0.02112
2104.26,0.02115
2081.12,0.02107
2057.97,0.02096
2034.83,0.02087
2011.68,0.02084
1988.54,0.02111
1965.39,0.02060
1942.25,0.02093
1919.1,0.02104
1895.96,0.02045
1872.81,0.02067
1849.67,0.02016
1826.52,0.02024
1803.38,0.01964
1780.23,0.01922
1757.09,0.01768
1733.94,0.01944
1710.8,0.02060
1687.65,0.01973
1664.51,0.01917
1641.36,0.01851
1618.22,0.01894
1595.07,0.01902
1571.93,0.01883
1548.78,0.01860
1525.64,0.01815
1502.49,0.01882
1479.35,0.01845
1456.2,0.01896
1433.06,0.01898
1409.91,0.01863
1386.77,0.01852
1363.62,0.01825
1340.48,0.01849
1317.33,0.01720
1294.19,0.01801
1271.04,0.01913
1247.9,0.02045
1224.75,0.01943
1201.61,0.01926
1178.46,0.01876
1155.32,0.01693
1132.17,0.01828
1109.03,0.01916
1085.88,0.01849
1062.74,0.02009
1039.59,0.01998
1016.45,0.01949
993.304,0.02152
970.159,0.02070
947.014,0.01992
923.869,0.01937
900.724,0.01990
877.579,0.01934
854.434,0.01961
831.289,0.02017
808.144,0.01844
784.999,0.01895
761.854,0.01879
738.709,0.01852
715.565,0.01735
692.42,0.01832
669.275,0.01831
646.13,0.01817
622.985,0.01586
599.84,0.01774