File: 01_Data/Cellulose_Insulation/FTIR/IS/Cellulose_Insulation_IS_S_220913_R7.dpt
7497.03,0.53120
7473.89,0.52751
7450.74,0.52478
7427.6,0.52845
7404.45,0.52232
7381.31,0.52518
7358.16,0.51630
7335.02,0.51720
7311.87,0.52097
7288.73,0.51468
7265.58,0.50954
7242.44,0.51879
7219.29,0.52092
7196.15,0.51728
7173,0.51727
7149.86,0.51778
7126.71,0.51144
7103.57,0.51356
7080.42,0.51197
7057.28,0.50482
7034.13,0.50431
7010.99,0.49386
6987.84,0.49739
6964.7,0.48912
6941.55,0.49221
6918.41,0.48994
6895.26,0.48603
6872.12,0.48878
6848.97,0.49171
6825.83,0.48016
6802.68,0.48536
6779.54,0.48869
6756.39,0.48915
6733.25,0.48698
6710.1,0.48422
6686.96,0.48950
6663.82,0.48332
6640.67,0.48574
6617.53,0.48754
6594.38,0.49323
6571.24,0.48934
6548.09,0.48763
6524.95,0.48936
6501.8,0.49205
6478.66,0.48843
6455.51,0.48889
6432.37,0.49190
6409.22,0.49231
6386.08,0.49121
6362.93,0.49455
6339.79,0.49312
6316.64,0.49544
6293.5,0.49205
6270.35,0.50027
6247.21,0.49750
6224.06,0.50149
6200.92,0.50507
6177.77,0.50656
6154.63,0.50957
6131.48,0.51011
6108.34,0.51094
6085.19,0.51287
6062.05,0.51104
6038.9,0.51021
6015.76,0.51394
5992.61,0.51334
5969.47,0.51235
5946.32,0.51428
5923.18,0.51446
5900.03,0.51065
5876.89,0.50919
5853.74,0.51078
5830.6,0.51070
5807.45,0.51154
5784.31,0.50691
5761.16,0.50857
5738.02,0.51278
5714.87,0.51062
5691.73,0.51162
5668.58,0.51102
5645.44,0.50949
5622.29,0.51197
5599.15,0.51383
5576,0.51326
5552.86,0.51268
5529.71,0.51257
5506.57,0.51354
5483.42,0.51322
5460.28,0.51683
5437.13,0.51608
5413.99,0.51652
5390.84,0.51759
5367.7,0.51808
5344.55,0.51974
5321.41,0.51880
5298.26,0.51403
5275.12,0.50475
5251.97,0.49351
5228.83,0.48241
5205.68,0.47817
5182.54,0.47571
5159.39,0.47983
5136.25,0.48307
5113.1,0.48795
5089.96,0.48928
5066.81,0.49040
5043.67,0.49032
5020.52,0.48723
4997.38,0.48387
4974.23,0.47688
4951.09,0.46916
4927.94,0.45754
4904.8,0.44771
4881.65,0.43775
4858.51,0.42645
4835.36,0.41873
4812.22,0.41004
4789.07,0.40405
4765.93,0.40040
4742.78,0.39806
4719.64,0.39755
4696.49,0.39893
4673.35,0.40267
4650.2,0.40545
4627.06,0.41058
4603.92,0.41818
4580.77,0.42357
4557.63,0.42889
4534.48,0.43374
4511.34,0.43984
4488.19,0.43922
4465.05,0.43471
4441.9,0.42307
4418.76,0.40761
4395.61,0.39699
4372.47,0.40415
4349.32,0.40625
4326.18,0.39976
4303.03,0.39319
4279.89,0.38843
4256.74,0.39162
4233.6,0.39427
4210.45,0.39587
4187.31,0.39805
4164.16,0.40220
4141.02,0.39975
4117.87,0.39077
4094.73,0.37462
4071.58,0.35739
4048.44,0.33828
4025.29,0.32566
4002.15,0.32646
3979,0.33316
3955.86,0.33951
3932.71,0.34959
3909.57,0.35855
3886.42,0.36577
3863.28,0.37296
3840.13,0.38142
3816.99,0.38323
3793.84,0.38088
3770.7,0.37763
3747.55,0.36826
3724.41,0.34591
3701.26,0.26789
3678.12,0.24786
3654.97,0.18733
3631.83,0.14838
3608.68,0.11078
3585.54,0.08371
3562.39,0.06455
3539.25,0.05325
3516.1,0.04523
3492.96,0.03942
3469.81,0.03609
3446.67,0.03440
3423.52,0.03278
3400.38,0.03258
3377.23,0.03223
3354.09,0.03285
3330.94,0.03407
3307.8,0.03734
3284.65,0.04003
3261.51,0.04423
3238.36,0.05114
3215.22,0.05733
3192.07,0.06453
3168.93,0.07221
3145.78,0.08068
3122.64,0.08865
3099.49,0.09680
3076.35,0.10321
3053.2,0.11005
3030.06,0.11442
3006.91,0.11289
2983.77,0.10141
2960.62,0.07578
2937.48,0.06336
2914.33,0.05941
2891.19,0.06266
2868.04,0.06806
2844.9,0.08326
2821.75,0.10964
2798.61,0.12885
2775.46,0.13795
2752.32,0.14384
2729.17,0.14722
2706.03,0.15775
2682.88,0.16917
2659.74,0.17744
2636.59,0.18534
2613.45,0.19329
2590.3,0.20043
2567.16,0.20390
2544.02,0.20441
2520.87,0.20755
2497.73,0.21980
2474.58,0.23233
2451.44,0.24073
2428.29,0.25096
2405.15,0.26194
2382,0.27041
2358.86,0.27586
2335.71,0.28206
2312.57,0.28385
2289.42,0.28054
2266.28,0.27338
2243.13,0.26906
2219.99,0.26874
2196.84,0.26722
2173.7,0.25638
2150.55,0.24667
2127.41,0.24388
2104.26,0.24738
2081.12,0.24897
2057.97,0.24390
2034.83,0.24800
2011.68,0.26251
1988.54,0.27030
1965.39,0.27590
1942.25,0.28307
1919.1,0.28818
1895.96,0.28754
1872.81,0.28389
1849.67,0.27645
1826.52,0.26523
1803.38,0.24779
1780.23,0.22102
1757.09,0.14816
1733.94,0.11550
1710.8,0.13850
1687.65,0.13983
1664.51,0.10566
1641.36,0.10356
1618.22,0.10194
1595.07,0.09515
1571.93,0.13107
1548.78,0.13837
1525.64,0.09224
1502.49,0.05964
1479.35,0.05060
1456.2,0.03975
1433.06,0.03529
1409.91,0.04085
1386.77,0.03948
1363.62,0.03907
1340.48,0.04028
1317.33,0.04132
1294.19,0.04622
1271.04,0.04098
1247.9,0.04333
1224.75,0.04401
1201.61,0.04285
1178.46,0.03252
1155.32,0.03302
1132.17,0.02873
1109.03,0.03087
1085.88,0.03024
1062.74,0.04033
1039.59,0.04315
1016.45,0.04937
993.304,0.05932
970.159,0.08045
947.014,0.10185
923.869,0.10705
900.724,0.09186
877.579,0.10461
854.434,0.11772
831.289,0.11751
808.144,0.10043
784.999,0.09572
761.854,0.08576
738.709,0.07514
715.565,0.05898
692.42,0.05385
669.275,0.04588
646.13,0.04861
622.985,0.04356
599.84,0.04678