File: 01_Data/Cellulose_Insulation/FTIR/IS/Cellulose_Insulation_IS_S_220913_R2.dpt
7497.03,0.52358
7473.89,0.53306
7450.74,0.52766
7427.6,0.52958
7404.45,0.52504
7381.31,0.51324
7358.16,0.52542
7335.02,0.52418
7311.87,0.51498
7288.73,0.52559
7265.58,0.51916
7242.44,0.51596
7219.29,0.51051
7196.15,0.51538
7173,0.52286
7149.86,0.51864
7126.71,0.50716
7103.57,0.51016
7080.42,0.50580
7057.28,0.50437
7034.13,0.50244
7010.99,0.49359
6987.84,0.49699
6964.7,0.49002
6941.55,0.49017
6918.41,0.48938
6895.26,0.49042
6872.12,0.48661
6848.97,0.48576
6825.83,0.48927
6802.68,0.47927
6779.54,0.48892
6756.39,0.48811
6733.25,0.48195
6710.1,0.48049
6686.96,0.48742
6663.82,0.48441
6640.67,0.48770
6617.53,0.48681
6594.38,0.48489
6571.24,0.48956
6548.09,0.49076
6524.95,0.48529
6501.8,0.48696
6478.66,0.49228
6455.51,0.48642
6432.37,0.49237
6409.22,0.48780
6386.08,0.49287
6362.93,0.49020
6339.79,0.49349
6316.64,0.49576
6293.5,0.49656
6270.35,0.49563
6247.21,0.49405
6224.06,0.49979
6200.92,0.50039
6177.77,0.50491
6154.63,0.50499
6131.48,0.50923
6108.34,0.51150
6085.19,0.50908
6062.05,0.51397
6038.9,0.51122
6015.76,0.51332
5992.61,0.51164
5969.47,0.51240
5946.32,0.51129
5923.18,0.50862
5900.03,0.50993
5876.89,0.50732
5853.74,0.51037
5830.6,0.50813
5807.45,0.50856
5784.31,0.51105
5761.16,0.50889
5738.02,0.51108
5714.87,0.51224
5691.73,0.51031
5668.58,0.50895
5645.44,0.51076
5622.29,0.51096
5599.15,0.51239
5576,0.51140
5552.86,0.51039
5529.71,0.51282
5506.57,0.51460
5483.42,0.51403
5460.28,0.51479
5437.13,0.51555
5413.99,0.51775
5390.84,0.51853
5367.7,0.52046
5344.55,0.51758
5321.41,0.51608
5298.26,0.51058
5275.12,0.50107
5251.97,0.48274
5228.83,0.46793
5205.68,0.46295
5182.54,0.46126
5159.39,0.46476
5136.25,0.47022
5113.1,0.47484
5089.96,0.47868
5066.81,0.48153
5043.67,0.48123
5020.52,0.48171
4997.38,0.47843
4974.23,0.47273
4951.09,0.46597
4927.94,0.45751
4904.8,0.44646
4881.65,0.43667
4858.51,0.42586
4835.36,0.41705
4812.22,0.40980
4789.07,0.40458
4765.93,0.39882
4742.78,0.39547
4719.64,0.39633
4696.49,0.39857
4673.35,0.40100
4650.2,0.40601
4627.06,0.40905
4603.92,0.41642
4580.77,0.42294
4557.63,0.42867
4534.48,0.43259
4511.34,0.43784
4488.19,0.43930
4465.05,0.43336
4441.9,0.42205
4418.76,0.40707
4395.61,0.39671
4372.47,0.40266
4349.32,0.40524
4326.18,0.39913
4303.03,0.39210
4279.89,0.38842
4256.74,0.39079
4233.6,0.39322
4210.45,0.39482
4187.31,0.39652
4164.16,0.39986
4141.02,0.39625
4117.87,0.38774
4094.73,0.37209
4071.58,0.35454
4048.44,0.33676
4025.29,0.32336
4002.15,0.32362
3979,0.32992
3955.86,0.33768
3932.71,0.34614
3909.57,0.35432
3886.42,0.36182
3863.28,0.36837
3840.13,0.37562
3816.99,0.37694
3793.84,0.37518
3770.7,0.37004
3747.55,0.35901
3724.41,0.33578
3701.26,0.25804
3678.12,0.23387
3654.97,0.16984
3631.83,0.13048
3608.68,0.09773
3585.54,0.07562
3562.39,0.06015
3539.25,0.05043
3516.1,0.04359
3492.96,0.03814
3469.81,0.03541
3446.67,0.03378
3423.52,0.03290
3400.38,0.03218
3377.23,0.03182
3354.09,0.03168
3330.94,0.03443
3307.8,0.03690
3284.65,0.03882
3261.51,0.04371
3238.36,0.04818
3215.22,0.05430
3192.07,0.06064
3168.93,0.06756
3145.78,0.07449
3122.64,0.08239
3099.49,0.09010
3076.35,0.09655
3053.2,0.10318
3030.06,0.10855
3006.91,0.10762
2983.77,0.09846
2960.62,0.07505
2937.48,0.06282
2914.33,0.05948
2891.19,0.06191
2868.04,0.06788
2844.9,0.08263
2821.75,0.10800
2798.61,0.12732
2775.46,0.13592
2752.32,0.14104
2729.17,0.14507
2706.03,0.15506
2682.88,0.16634
2659.74,0.17452
2636.59,0.18270
2613.45,0.19092
2590.3,0.19749
2567.16,0.20143
2544.02,0.20175
2520.87,0.20527
2497.73,0.21668
2474.58,0.22972
2451.44,0.23827
2428.29,0.24803
2405.15,0.25815
2382,0.26546
2358.86,0.27135
2335.71,0.27616
2312.57,0.27751
2289.42,0.27400
2266.28,0.26711
2243.13,0.26243
2219.99,0.26214
2196.84,0.26074
2173.7,0.24977
2150.55,0.24033
2127.41,0.23716
2104.26,0.24033
2081.12,0.24182
2057.97,0.23767
2034.83,0.24183
2011.68,0.25605
1988.54,0.26353
1965.39,0.26964
1942.25,0.27701
1919.1,0.28212
1895.96,0.28196
1872.81,0.27797
1849.67,0.27080
1826.52,0.26007
1803.38,0.24280
1780.23,0.21866
1757.09,0.14962
1733.94,0.11425
1710.8,0.13382
1687.65,0.13218
1664.51,0.09722
1641.36,0.09298
1618.22,0.09477
1595.07,0.09166
1571.93,0.12692
1548.78,0.13400
1525.64,0.09090
1502.49,0.05960
1479.35,0.05058
1456.2,0.03966
1433.06,0.03499
1409.91,0.04058
1386.77,0.03958
1363.62,0.03923
1340.48,0.04093
1317.33,0.04160
1294.19,0.04700
1271.04,0.04109
1247.9,0.04363
1224.75,0.04424
1201.61,0.04299
1178.46,0.03261
1155.32,0.03305
1132.17,0.02885
1109.03,0.03105
1085.88,0.03066
1062.74,0.04022
1039.59,0.04295
1016.45,0.05106
993.304,0.05980
970.159,0.08102
947.014,0.10231
923.869,0.10541
900.724,0.09014
877.579,0.10224
854.434,0.11301
831.289,0.11037
808.144,0.09344
784.999,0.09062
761.854,0.08094
738.709,0.07181
715.565,0.05748
692.42,0.05292
669.275,0.04665
646.13,0.04796
622.985,0.04087
599.84,0.04580