File: 01_Data/Cellulose_Insulation/FTIR/IS/Cellulose_Insulation_IS_S_220913_R1.dpt
7497.03,0.53235
7473.89,0.53251
7450.74,0.51919
7427.6,0.52831
7404.45,0.51985
7381.31,0.51947
7358.16,0.52063
7335.02,0.51988
7311.87,0.52419
7288.73,0.52109
7265.58,0.51770
7242.44,0.51434
7219.29,0.51128
7196.15,0.52842
7173,0.51529
7149.86,0.51619
7126.71,0.51665
7103.57,0.50900
7080.42,0.50402
7057.28,0.49981
7034.13,0.49834
7010.99,0.49457
6987.84,0.48751
6964.7,0.49046
6941.55,0.48823
6918.41,0.49008
6895.26,0.48638
6872.12,0.48417
6848.97,0.48727
6825.83,0.48487
6802.68,0.47885
6779.54,0.48033
6756.39,0.48487
6733.25,0.48415
6710.1,0.48296
6686.96,0.48056
6663.82,0.48120
6640.67,0.48373
6617.53,0.48598
6594.38,0.48359
6571.24,0.48698
6548.09,0.48928
6524.95,0.48975
6501.8,0.48721
6478.66,0.48745
6455.51,0.48987
6432.37,0.49227
6409.22,0.49110
6386.08,0.49216
6362.93,0.49148
6339.79,0.48973
6316.64,0.49118
6293.5,0.49040
6270.35,0.49523
6247.21,0.49662
6224.06,0.50144
6200.92,0.50339
6177.77,0.50616
6154.63,0.50755
6131.48,0.50910
6108.34,0.50895
6085.19,0.51097
6062.05,0.51198
6038.9,0.50990
6015.76,0.51282
5992.61,0.51339
5969.47,0.51176
5946.32,0.51047
5923.18,0.51325
5900.03,0.51019
5876.89,0.50913
5853.74,0.50674
5830.6,0.50967
5807.45,0.50901
5784.31,0.51075
5761.16,0.50936
5738.02,0.50874
5714.87,0.51181
5691.73,0.50974
5668.58,0.50989
5645.44,0.50892
5622.29,0.50761
5599.15,0.51085
5576,0.51244
5552.86,0.50975
5529.71,0.51260
5506.57,0.51132
5483.42,0.51379
5460.28,0.51479
5437.13,0.51567
5413.99,0.51753
5390.84,0.51970
5367.7,0.51740
5344.55,0.51714
5321.41,0.51580
5298.26,0.50757
5275.12,0.49647
5251.97,0.47597
5228.83,0.46090
5205.68,0.45230
5182.54,0.45177
5159.39,0.45515
5136.25,0.46219
5113.1,0.46608
5089.96,0.47195
5066.81,0.47535
5043.67,0.47683
5020.52,0.47557
4997.38,0.47423
4974.23,0.46906
4951.09,0.46299
4927.94,0.45610
4904.8,0.44581
4881.65,0.43619
4858.51,0.42521
4835.36,0.41581
4812.22,0.40938
4789.07,0.40298
4765.93,0.39836
4742.78,0.39593
4719.64,0.39496
4696.49,0.39600
4673.35,0.39977
4650.2,0.40411
4627.06,0.40922
4603.92,0.41539
4580.77,0.42162
4557.63,0.42643
4534.48,0.43075
4511.34,0.43666
4488.19,0.43825
4465.05,0.43174
4441.9,0.42154
4418.76,0.40697
4395.61,0.39584
4372.47,0.40299
4349.32,0.40484
4326.18,0.39785
4303.03,0.39124
4279.89,0.38738
4256.74,0.38919
4233.6,0.39169
4210.45,0.39308
4187.31,0.39538
4164.16,0.39799
4141.02,0.39515
4117.87,0.38551
4094.73,0.37016
4071.58,0.35248
4048.44,0.33424
4025.29,0.32197
4002.15,0.32171
3979,0.32735
3955.86,0.33502
3932.71,0.34437
3909.57,0.35190
3886.42,0.35852
3863.28,0.36634
3840.13,0.37380
3816.99,0.37347
3793.84,0.36994
3770.7,0.36517
3747.55,0.35488
3724.41,0.33032
3701.26,0.25339
3678.12,0.22664
3654.97,0.16074
3631.83,0.12302
3608.68,0.09251
3585.54,0.07170
3562.39,0.05775
3539.25,0.04881
3516.1,0.04268
3492.96,0.03801
3469.81,0.03461
3446.67,0.03255
3423.52,0.03216
3400.38,0.03181
3377.23,0.03151
3354.09,0.03134
3330.94,0.03309
3307.8,0.03641
3284.65,0.03846
3261.51,0.04203
3238.36,0.04697
3215.22,0.05246
3192.07,0.05829
3168.93,0.06423
3145.78,0.07137
3122.64,0.07832
3099.49,0.08654
3076.35,0.09181
3053.2,0.09937
3030.06,0.10468
3006.91,0.10506
2983.77,0.09623
2960.62,0.07432
2937.48,0.06279
2914.33,0.05959
2891.19,0.06175
2868.04,0.06749
2844.9,0.08222
2821.75,0.10683
2798.61,0.12504
2775.46,0.13421
2752.32,0.14011
2729.17,0.14330
2706.03,0.15327
2682.88,0.16504
2659.74,0.17284
2636.59,0.18098
2613.45,0.18943
2590.3,0.19584
2567.16,0.19956
2544.02,0.20041
2520.87,0.20337
2497.73,0.21543
2474.58,0.22784
2451.44,0.23604
2428.29,0.24586
2405.15,0.25559
2382,0.26312
2358.86,0.26758
2335.71,0.27261
2312.57,0.27346
2289.42,0.26970
2266.28,0.26248
2243.13,0.25828
2219.99,0.25775
2196.84,0.25604
2173.7,0.24529
2150.55,0.23602
2127.41,0.23270
2104.26,0.23583
2081.12,0.23727
2057.97,0.23300
2034.83,0.23753
2011.68,0.25162
1988.54,0.25955
1965.39,0.26542
1942.25,0.27305
1919.1,0.27817
1895.96,0.27782
1872.81,0.27437
1849.67,0.26709
1826.52,0.25632
1803.38,0.23981
1780.23,0.21617
1757.09,0.14974
1733.94,0.11390
1710.8,0.13064
1687.65,0.12651
1664.51,0.09205
1641.36,0.08727
1618.22,0.09085
1595.07,0.08946
1571.93,0.12381
1548.78,0.13181
1525.64,0.08999
1502.49,0.06018
1479.35,0.05106
1456.2,0.03914
1433.06,0.03498
1409.91,0.04063
1386.77,0.03959
1363.62,0.03915
1340.48,0.04161
1317.33,0.04185
1294.19,0.04702
1271.04,0.04135
1247.9,0.04368
1224.75,0.04437
1201.61,0.04288
1178.46,0.03331
1155.32,0.03306
1132.17,0.02910
1109.03,0.03096
1085.88,0.03132
1062.74,0.04022
1039.59,0.04294
1016.45,0.05009
993.304,0.06015
970.159,0.08105
947.014,0.10088
923.869,0.10530
900.724,0.08920
877.579,0.09976
854.434,0.10940
831.289,0.10619
808.144,0.09047
784.999,0.08661
761.854,0.07670
738.709,0.06773
715.565,0.05451
692.42,0.05135
669.275,0.04621
646.13,0.04550
622.985,0.04399
599.84,0.04496