File: 01_Data/Cellulose_Insulation/FTIR/IS/Cellulose_Insulation_IS_S_220913_R8.dpt
7497.03,0.53216
7473.89,0.53030
7450.74,0.53067
7427.6,0.53324
7404.45,0.52541
7381.31,0.52827
7358.16,0.52610
7335.02,0.52190
7311.87,0.52351
7288.73,0.52364
7265.58,0.51883
7242.44,0.53429
7219.29,0.51985
7196.15,0.53019
7173,0.52066
7149.86,0.51599
7126.71,0.52021
7103.57,0.51767
7080.42,0.51085
7057.28,0.50955
7034.13,0.51143
7010.99,0.50052
6987.84,0.49592
6964.7,0.49725
6941.55,0.48978
6918.41,0.48860
6895.26,0.50092
6872.12,0.50121
6848.97,0.49056
6825.83,0.49484
6802.68,0.49339
6779.54,0.49075
6756.39,0.48796
6733.25,0.49190
6710.1,0.48969
6686.96,0.48964
6663.82,0.49157
6640.67,0.49235
6617.53,0.49501
6594.38,0.49704
6571.24,0.49718
6548.09,0.49913
6524.95,0.50139
6501.8,0.49270
6478.66,0.49517
6455.51,0.49737
6432.37,0.49844
6409.22,0.49765
6386.08,0.49524
6362.93,0.49781
6339.79,0.49635
6316.64,0.49825
6293.5,0.50032
6270.35,0.50621
6247.21,0.50659
6224.06,0.50600
6200.92,0.50878
6177.77,0.51359
6154.63,0.51923
6131.48,0.51577
6108.34,0.51587
6085.19,0.51806
6062.05,0.52028
6038.9,0.52161
6015.76,0.52263
5992.61,0.52246
5969.47,0.52144
5946.32,0.51878
5923.18,0.52221
5900.03,0.52060
5876.89,0.51931
5853.74,0.51801
5830.6,0.51837
5807.45,0.51759
5784.31,0.51653
5761.16,0.51817
5738.02,0.51817
5714.87,0.52036
5691.73,0.51877
5668.58,0.52125
5645.44,0.52062
5622.29,0.52210
5599.15,0.51979
5576,0.52043
5552.86,0.51960
5529.71,0.52167
5506.57,0.52399
5483.42,0.52216
5460.28,0.52419
5437.13,0.52597
5413.99,0.52882
5390.84,0.52723
5367.7,0.52732
5344.55,0.52795
5321.41,0.52644
5298.26,0.52141
5275.12,0.51196
5251.97,0.49704
5228.83,0.48460
5205.68,0.47908
5182.54,0.47639
5159.39,0.47855
5136.25,0.48344
5113.1,0.48899
5089.96,0.49224
5066.81,0.49513
5043.67,0.49465
5020.52,0.49407
4997.38,0.49024
4974.23,0.48254
4951.09,0.47545
4927.94,0.46551
4904.8,0.45466
4881.65,0.44215
4858.51,0.43209
4835.36,0.42413
4812.22,0.41570
4789.07,0.40960
4765.93,0.40541
4742.78,0.40160
4719.64,0.40100
4696.49,0.40440
4673.35,0.40719
4650.2,0.41080
4627.06,0.41567
4603.92,0.42194
4580.77,0.42953
4557.63,0.43467
4534.48,0.43904
4511.34,0.44539
4488.19,0.44654
4465.05,0.44146
4441.9,0.43009
4418.76,0.41480
4395.61,0.40288
4372.47,0.40922
4349.32,0.40979
4326.18,0.40435
4303.03,0.39714
4279.89,0.39229
4256.74,0.39479
4233.6,0.39877
4210.45,0.39941
4187.31,0.40273
4164.16,0.40633
4141.02,0.40303
4117.87,0.39389
4094.73,0.37785
4071.58,0.36028
4048.44,0.34017
4025.29,0.32688
4002.15,0.32750
3979,0.33345
3955.86,0.34154
3932.71,0.35109
3909.57,0.35972
3886.42,0.36757
3863.28,0.37537
3840.13,0.38377
3816.99,0.38517
3793.84,0.38297
3770.7,0.37774
3747.55,0.36867
3724.41,0.34253
3701.26,0.25468
3678.12,0.23482
3654.97,0.17369
3631.83,0.13760
3608.68,0.10372
3585.54,0.07930
3562.39,0.06270
3539.25,0.05166
3516.1,0.04427
3492.96,0.03891
3469.81,0.03552
3446.67,0.03364
3423.52,0.03229
3400.38,0.03217
3377.23,0.03208
3354.09,0.03146
3330.94,0.03432
3307.8,0.03636
3284.65,0.03864
3261.51,0.04361
3238.36,0.04884
3215.22,0.05505
3192.07,0.06200
3168.93,0.06858
3145.78,0.07643
3122.64,0.08479
3099.49,0.09237
3076.35,0.09955
3053.2,0.10614
3030.06,0.11101
3006.91,0.10998
2983.77,0.09917
2960.62,0.07444
2937.48,0.06260
2914.33,0.05783
2891.19,0.06112
2868.04,0.06678
2844.9,0.08179
2821.75,0.10818
2798.61,0.12683
2775.46,0.13637
2752.32,0.14188
2729.17,0.14565
2706.03,0.15556
2682.88,0.16744
2659.74,0.17562
2636.59,0.18395
2613.45,0.19205
2590.3,0.19893
2567.16,0.20256
2544.02,0.20291
2520.87,0.20498
2497.73,0.21796
2474.58,0.23121
2451.44,0.23985
2428.29,0.25061
2405.15,0.26119
2382,0.26909
2358.86,0.27568
2335.71,0.28091
2312.57,0.28271
2289.42,0.27924
2266.28,0.27192
2243.13,0.26761
2219.99,0.26686
2196.84,0.26566
2173.7,0.25409
2150.55,0.24456
2127.41,0.24168
2104.26,0.24493
2081.12,0.24663
2057.97,0.24203
2034.83,0.24626
2011.68,0.26085
1988.54,0.26912
1965.39,0.27462
1942.25,0.28224
1919.1,0.28727
1895.96,0.28692
1872.81,0.28282
1849.67,0.27525
1826.52,0.26434
1803.38,0.24531
1780.23,0.22049
1757.09,0.15376
1733.94,0.11839
1710.8,0.13808
1687.65,0.13679
1664.51,0.10181
1641.36,0.09786
1618.22,0.09829
1595.07,0.09444
1571.93,0.12788
1548.78,0.13249
1525.64,0.09002
1502.49,0.05940
1479.35,0.04874
1456.2,0.03885
1433.06,0.03445
1409.91,0.04013
1386.77,0.03884
1363.62,0.03820
1340.48,0.04017
1317.33,0.04083
1294.19,0.04582
1271.04,0.04144
1247.9,0.04332
1224.75,0.04334
1201.61,0.04163
1178.46,0.03173
1155.32,0.03190
1132.17,0.02784
1109.03,0.03007
1085.88,0.03009
1062.74,0.04007
1039.59,0.04313
1016.45,0.04937
993.304,0.05866
970.159,0.07864
947.014,0.09980
923.869,0.10298
900.724,0.08859
877.579,0.10087
854.434,0.11266
831.289,0.11332
808.144,0.09609
784.999,0.09112
761.854,0.08265
738.709,0.07034
715.565,0.05657
692.42,0.05312
669.275,0.04535
646.13,0.04787
622.985,0.04275
599.84,0.04776