File: 01_Data/Roof_Felt/Cone/Roof_Felt_HRRPUA_50.csv
Time after Ignition,Roof_Felt_R1,Roof_Felt_R2,Roof_Felt_R3,Mean,Std. Dev.
0.0,32.6,48.6,67.0,49.4,17.2
0.5,46.6,59.4,93.8,66.6,24.4
1.0,62.6,86.4,112.2,87.1,24.8
1.5,87.6,104.5,149.3,113.8,31.9
2.0,116.1,130.5,173.1,139.9,29.7
2.5,136.7,151.5,214.1,167.4,41.1
3.0,184.3,185.3,240.7,203.4,32.3
3.5,220.5,220.6,283.9,241.7,36.6
4.0,280.8,253.6,318.2,284.2,32.4
4.5,332.1,286.1,358.9,325.7,36.8
5.0,373.0,310.8,395.5,359.8,43.9
5.5,436.0,367.1,445.6,416.2,42.8
6.0,449.8,405.1,477.6,444.2,36.6
6.5,499.5,424.5,516.1,480.0,48.8
7.0,530.6,436.8,555.2,507.5,62.5
7.5,588.6,472.3,577.3,546.0,64.1
8.0,614.4,513.3,605.7,577.8,56.0
8.5,686.3,535.3,640.5,620.7,77.4
9.0,724.3,589.6,673.3,662.4,68.0
9.5,741.9,594.2,646.7,660.9,74.9
10.0,755.4,646.4,713.4,705.1,55.0
10.5,783.5,670.0,731.0,728.2,56.8
11.0,803.4,699.5,774.1,759.0,53.6
11.5,840.8,713.8,780.7,778.4,63.5
12.0,878.9,726.8,798.4,801.4,76.1
12.5,883.1,746.2,789.6,806.3,70.0
13.0,886.0,738.3,792.2,805.5,74.7
13.5,901.3,738.6,787.8,809.3,83.4
14.0,913.0,752.1,796.3,820.5,83.2
14.5,864.7,775.3,758.9,799.6,57.0
15.0,840.9,787.7,759.9,796.2,41.1
15.5,823.3,767.0,750.2,780.1,38.3
16.0,796.5,748.3,737.6,760.8,31.4
16.5,760.4,722.4,711.3,731.4,25.7
17.0,715.8,720.6,685.4,707.3,19.1
17.5,665.6,696.9,667.1,676.6,17.7
18.0,613.9,661.9,632.3,636.0,24.2
18.5,585.2,609.1,600.5,598.3,12.1
19.0,536.6,583.3,550.3,556.7,24.0
19.5,505.3,534.8,521.3,520.5,14.8
20.0,475.9,499.6,482.8,486.1,12.2
20.5,438.4,475.9,442.8,452.4,20.5
21.0,394.6,434.4,410.0,413.0,20.1
21.5,372.3,404.4,375.0,383.9,17.8
22.0,347.9,377.5,352.1,359.2,16.0
22.5,327.2,351.9,329.7,336.3,13.6
23.0,305.0,328.5,321.3,318.3,12.0
23.5,281.4,307.8,296.5,295.3,13.2
24.0,263.6,285.1,271.6,273.4,10.9
24.5,248.8,266.5,262.3,259.2,9.2
25.0,229.8,249.9,247.0,242.2,10.8
25.5,217.1,237.1,231.7,228.6,10.4
26.0,200.4,220.6,218.3,213.1,11.1
26.5,193.9,209.0,210.7,204.5,9.2
27.0,180.7,198.0,199.0,192.6,10.3
27.5,170.7,188.2,190.9,183.3,11.0
28.0,159.2,180.2,186.5,175.3,14.3
28.5,150.7,172.4,176.2,166.5,13.7
29.0,142.2,160.2,169.8,157.4,14.0
29.5,137.3,154.3,165.5,152.4,14.2
30.0,130.2,147.1,158.8,145.4,14.4
30.5,124.8,140.8,152.4,139.3,13.9
31.0,117.7,134.7,149.5,133.9,15.9
31.5,113.3,129.9,147.0,130.0,16.8
32.0,111.4,124.6,140.6,125.5,14.6
32.5,106.1,119.4,133.9,119.8,13.9
33.0,104.2,114.6,130.8,116.5,13.4
33.5,99.4,110.3,126.9,112.2,13.8
34.0,96.3,107.5,121.8,108.5,12.8
34.5,93.6,105.0,118.3,105.6,12.4
35.0,93.8,101.5,115.9,103.7,11.2
35.5,89.2,99.8,113.2,100.7,12.0
36.0,88.5,97.4,110.2,98.7,10.9
36.5,87.7,95.4,108.3,97.1,10.4
37.0,86.0,91.8,106.0,94.6,10.3
37.5,83.9,91.2,103.7,92.9,10.0
38.0,81.8,90.6,101.5,91.3,9.8
38.5,80.2,88.5,100.0,89.6,9.9
39.0,78.6,85.4,99.5,87.8,10.7
39.5,77.6,84.9,97.5,86.7,10.1
40.0,76.7,83.1,95.2,85.0,9.4
40.5,77.0,82.5,93.2,84.2,8.2
41.0,75.4,79.7,90.7,81.9,7.9
41.5,73.5,79.5,88.3,80.4,7.4
42.0,72.8,78.9,88.2,79.9,7.8
42.5,71.3,77.7,84.9,78.0,6.8
43.0,71.9,76.9,84.3,77.7,6.2
43.5,69.1,76.8,81.5,75.8,6.3
44.0,68.5,73.8,80.4,74.2,5.9
44.5,67.0,73.8,80.6,73.8,6.8
45.0,66.3,74.3,80.1,73.6,6.9
45.5,65.2,72.9,78.2,72.1,6.5
46.0,64.7,71.8,76.9,71.1,6.1
46.5,63.9,70.1,76.0,70.0,6.0
47.0,64.1,69.9,75.5,69.8,5.7
47.5,64.4,68.1,73.7,68.7,4.7
48.0,63.5,68.5,74.2,68.7,5.3
48.5,63.7,67.3,73.1,68.0,4.7
49.0,63.2,66.3,72.8,67.4,4.9
49.5,62.5,65.3,71.7,66.5,4.7
50.0,61.4,64.4,70.2,65.3,4.4
50.5,61.1,63.9,69.5,64.8,4.3
51.0,59.9,62.5,68.8,63.7,4.6
51.5,59.8,61.7,68.0,63.2,4.3
52.0,58.2,61.0,67.6,62.3,4.8
52.5,58.0,60.3,66.5,61.6,4.4
53.0,57.4,59.9,66.8,61.4,4.9
53.5,57.5,59.6,65.5,60.9,4.1
54.0,56.0,58.6,65.4,60.0,4.9
54.5,56.0,57.8,64.5,59.5,4.5
55.0,55.4,57.5,64.1,59.0,4.5
55.5,55.5,56.8,63.9,58.7,4.6
56.0,55.4,56.1,62.5,58.0,3.9
56.5,54.3,55.8,61.4,57.1,3.7
57.0,53.9,54.9,61.4,56.7,4.1
57.5,52.9,54.8,60.1,55.9,3.7
58.0,52.3,54.7,60.8,55.9,4.4
58.5,51.5,53.6,60.7,55.2,4.8
59.0,50.6,51.9,59.7,54.1,4.9
59.5,50.6,52.0,60.3,54.3,5.2
60.0,50.6,52.2,60.6,54.4,5.4
60.5,49.4,51.9,60.0,53.7,5.5
61.0,50.0,52.0,58.8,53.6,4.6
61.5,49.4,51.4,58.9,53.2,5.0
62.0,49.2,51.0,59.2,53.1,5.3
62.5,48.4,50.7,59.3,52.8,5.7
63.0,48.8,50.4,58.8,52.6,5.4
63.5,47.7,50.1,59.2,52.3,6.1
64.0,47.8,50.4,58.0,52.1,5.3
64.5,48.1,50.1,57.9,52.1,5.2
65.0,47.0,49.7,59.0,51.9,6.3
65.5,47.3,49.8,57.2,51.4,5.2
66.0,46.8,49.8,57.0,51.2,5.2
66.5,47.3,49.6,56.6,51.1,4.8
67.0,47.1,49.4,57.0,51.2,5.2
67.5,45.6,48.7,57.1,50.5,5.9
68.0,44.7,49.5,56.7,50.3,6.0
68.5,45.7,48.6,56.6,50.3,5.6
69.0,45.3,48.0,56.2,49.8,5.7
69.5,44.0,47.8,54.8,48.9,5.5
70.0,44.0,47.5,55.4,49.0,5.8
70.5,43.1,46.3,54.9,48.1,6.1
71.0,43.4,46.2,55.4,48.3,6.3
71.5,42.8,46.8,54.6,48.1,6.0
72.0,42.1,46.7,54.7,47.9,6.4
72.5,42.5,46.1,54.7,47.8,6.3
73.0,41.2,45.7,54.6,47.2,6.8
73.5,41.3,45.9,54.1,47.1,6.5
74.0,40.5,44.9,53.4,46.3,6.5
74.5,40.0,45.1,52.9,46.0,6.5
75.0,39.1,44.6,52.4,45.4,6.7
75.5,39.1,44.5,52.0,45.2,6.5
76.0,38.7,44.7,52.6,45.3,7.0
76.5,37.6,44.7,50.9,44.4,6.7
77.0,38.3,44.5,51.2,44.7,6.5
77.5,37.3,43.5,50.8,43.8,6.8
78.0,37.3,43.1,50.7,43.7,6.7
78.5,37.1,43.7,50.0,43.6,6.5
79.0,37.0,43.1,49.7,43.3,6.4
79.5,36.7,42.2,49.3,42.7,6.3
80.0,36.5,43.0,49.4,43.0,6.4
80.5,36.3,42.1,49.8,42.7,6.8
81.0,35.7,43.0,49.0,42.6,6.7
81.5,35.5,41.9,48.7,42.1,6.6
82.0,35.4,42.1,48.0,41.9,6.3
82.5,35.0,42.0,48.5,41.8,6.7
83.0,34.7,42.1,48.1,41.6,6.7
83.5,34.5,41.7,47.7,41.3,6.6
84.0,33.8,41.5,47.7,41.0,7.0
84.5,33.3,42.1,47.0,40.8,6.9
85.0,32.9,41.1,47.6,40.5,7.4
85.5,32.8,40.7,47.0,40.2,7.1
86.0,32.7,41.4,46.4,40.2,6.9
86.5,32.6,40.7,45.9,39.7,6.7
87.0,32.4,40.2,44.9,39.2,6.3
87.5,31.9,,44.4,38.1,8.8
88.0,32.0,,44.3,38.1,8.7
88.5,31.5,,43.5,37.5,8.4
89.0,31.1,,43.6,37.3,8.8
89.5,31.0,,44.0,37.5,9.1
90.0,31.3,,43.3,37.3,8.5
90.5,30.8,,43.1,37.0,8.7
91.0,30.8,,42.7,36.7,8.5
91.5,30.8,,42.8,36.8,8.5
92.0,30.7,,42.9,36.8,8.6
92.5,30.7,,42.6,36.6,8.4
93.0,30.5,,41.9,36.2,8.1
93.5,30.3,,41.8,36.0,8.1
94.0,30.5,,41.8,36.1,8.0
94.25,30.3,,41.5,35.9,7.9