File: 01_Data/Roof_Felt/Cone/Roof_Felt_HRRPUA_75.csv
Time after Ignition,Roof_Felt_R1,Roof_Felt_R2,Roof_Felt_R3,Mean,Std. Dev.
0.0,46.8,44.9,45.3,45.6,1.0
0.5,67.8,60.8,61.2,63.2,3.9
1.0,96.9,107.0,109.2,104.4,6.6
1.5,126.7,142.3,150.7,139.9,12.2
2.0,148.5,214.0,195.4,186.0,33.8
2.5,198.7,224.7,242.2,221.8,21.9
3.0,258.9,303.4,299.4,287.2,24.7
3.5,294.9,358.6,370.0,341.1,40.5
4.0,347.4,401.0,417.0,388.4,36.5
4.5,404.3,455.8,496.8,452.3,46.4
5.0,432.6,498.6,583.1,504.8,75.4
5.5,504.1,563.7,653.2,573.6,75.0
6.0,570.5,601.8,687.6,620.0,60.6
6.5,595.5,659.4,780.6,678.5,94.0
7.0,684.4,685.8,887.0,752.4,116.6
7.5,671.9,749.6,857.1,759.5,93.0
8.0,788.3,825.5,931.7,848.5,74.4
8.5,796.3,844.7,984.5,875.2,97.7
9.0,838.2,946.3,1025.0,936.5,93.8
9.5,972.6,1005.7,1082.9,1020.4,56.6
10.0,952.7,1081.2,1092.1,1042.0,77.5
10.5,1032.5,1094.5,1099.1,1075.4,37.2
11.0,1056.1,1160.7,1027.3,1081.4,70.2
11.5,1117.5,1144.8,1016.1,1092.8,67.8
12.0,1126.2,1181.9,948.6,1085.6,121.8
12.5,1104.5,1195.0,901.7,1067.1,150.2
13.0,1101.1,1168.2,856.0,1041.8,164.4
13.5,1113.8,1155.5,795.0,1021.4,197.2
14.0,1099.5,1088.0,753.9,980.4,196.3
14.5,1042.2,1025.0,718.5,928.6,182.2
15.0,1014.6,996.8,667.1,892.8,195.7
15.5,941.1,914.7,616.8,824.2,180.1
16.0,876.2,835.9,578.2,763.4,161.7
16.5,809.3,774.6,537.8,707.2,147.8
17.0,734.3,712.4,502.4,649.7,128.0
17.5,670.6,652.0,464.2,595.6,114.2
18.0,612.7,590.5,432.0,545.1,98.5
18.5,560.6,545.8,406.1,504.2,85.3
19.0,514.8,500.3,382.3,465.8,72.7
19.5,468.2,461.4,354.5,428.0,63.8
20.0,429.3,421.7,339.6,396.9,49.7
20.5,400.5,392.9,317.9,370.4,45.7
21.0,363.0,360.1,305.2,342.8,32.6
21.5,339.8,335.8,296.5,324.0,23.9
22.0,314.6,301.6,282.9,299.7,16.0
22.5,293.3,280.1,273.7,282.4,10.0
23.0,267.8,259.5,263.6,263.6,4.2
23.5,248.7,238.3,255.8,247.6,8.8
24.0,232.5,222.1,246.1,233.6,12.0
24.5,213.2,207.5,235.7,218.8,14.9
25.0,203.4,192.2,227.9,207.8,18.2
25.5,189.2,178.6,218.4,195.4,20.6
26.0,176.8,171.6,209.0,185.8,20.3
26.5,172.4,160.7,199.1,177.4,19.7
27.0,162.3,152.1,192.0,168.8,20.8
27.5,156.8,144.7,181.1,160.9,18.5
28.0,148.4,139.8,173.9,154.0,17.7
28.5,143.0,132.7,169.9,148.5,19.2
29.0,139.6,126.7,161.9,142.7,17.8
29.5,140.1,121.1,155.1,138.8,17.0
30.0,135.0,118.0,151.2,134.7,16.6
30.5,132.9,114.8,143.0,130.2,14.3
31.0,128.9,114.8,137.7,127.1,11.5
31.5,125.6,107.5,134.5,122.5,13.7
32.0,118.5,106.5,129.2,118.1,11.4
32.5,117.6,104.4,123.8,115.3,9.9
33.0,112.5,100.9,121.1,111.5,10.2
33.5,108.9,100.7,114.3,107.9,6.9
34.0,106.3,96.8,110.4,104.5,7.0
34.5,103.7,93.5,107.3,101.5,7.2
35.0,101.7,92.6,106.8,100.4,7.2
35.5,97.5,90.3,103.4,97.1,6.5
36.0,95.9,88.4,100.2,94.8,6.0
36.5,93.7,87.3,98.0,93.0,5.4
37.0,91.6,85.7,96.4,91.2,5.4
37.5,90.1,84.5,94.7,89.8,5.1
38.0,87.1,82.0,92.5,87.2,5.2
38.5,85.8,80.9,90.3,85.6,4.7
39.0,86.5,78.9,88.7,84.7,5.1
39.5,85.1,78.0,87.5,83.5,5.0
40.0,83.0,77.1,83.9,81.3,3.7
40.5,81.3,76.5,83.9,80.6,3.7
41.0,80.6,74.8,80.5,78.6,3.3
41.5,79.6,74.1,79.6,77.8,3.2
42.0,78.4,73.4,78.7,76.9,3.0
42.5,78.1,72.7,77.5,76.1,2.9
43.0,77.4,72.1,77.5,75.7,3.1
43.5,78.2,70.5,75.9,74.9,3.9
44.0,76.7,70.4,75.0,74.0,3.3
44.5,74.4,70.6,73.6,72.9,2.0
45.0,74.7,70.1,74.5,73.1,2.6
45.5,73.8,68.7,73.2,71.9,2.8
46.0,73.3,68.1,71.9,71.1,2.7
46.5,72.6,67.2,71.3,70.4,2.8
47.0,71.7,66.7,69.3,69.2,2.5
47.5,72.2,66.8,69.3,69.4,2.7
48.0,71.0,66.1,68.2,68.4,2.5
48.5,69.7,66.1,67.6,67.8,1.8
49.0,70.3,65.2,65.9,67.1,2.7
49.5,68.8,64.6,66.3,66.5,2.1
50.0,67.7,64.1,66.5,66.1,1.8
50.5,68.6,63.9,64.5,65.7,2.6
51.0,68.1,63.2,64.1,65.1,2.6
51.5,66.4,61.8,63.5,63.9,2.3
52.0,66.2,62.0,63.7,64.0,2.1
52.5,66.0,62.9,62.2,63.7,2.0
53.0,65.4,62.1,63.6,63.7,1.6
53.5,65.7,62.0,62.8,63.5,1.9
54.0,64.7,62.3,62.4,63.1,1.4
54.5,64.1,61.8,61.8,62.5,1.3
55.0,64.7,62.1,61.1,62.6,1.8
55.5,63.7,61.9,60.5,62.0,1.6
56.0,64.3,61.7,61.4,62.4,1.6
56.5,64.2,60.9,59.7,61.6,2.3
57.0,63.5,61.2,60.2,61.6,1.7
57.5,63.3,61.6,59.3,61.4,2.0
58.0,62.5,61.0,58.7,60.8,1.9
58.5,62.6,60.3,58.7,60.5,2.0
59.0,62.3,60.7,58.6,60.5,1.9
59.5,62.3,60.8,58.3,60.4,2.0
60.0,62.7,60.5,58.3,60.5,2.2
60.5,62.5,60.5,57.5,60.2,2.5
61.0,61.4,60.3,57.2,59.6,2.2
61.5,61.4,59.6,56.9,59.3,2.3
62.0,61.3,59.3,55.9,58.8,2.8
62.5,60.0,59.1,56.9,58.7,1.6
63.0,59.3,59.4,56.4,58.4,1.7
63.5,58.8,58.7,55.8,57.8,1.7
64.0,58.9,58.8,55.9,57.9,1.7
64.5,57.4,58.7,55.7,57.3,1.5
65.0,58.3,58.2,55.3,57.2,1.7
65.5,57.2,57.7,55.2,56.7,1.3
66.0,57.5,58.2,55.1,56.9,1.6
66.5,56.6,58.7,55.0,56.7,1.9
67.0,57.8,57.4,54.5,56.6,1.8
67.5,56.7,57.5,54.4,56.2,1.6
68.0,56.7,57.7,54.7,56.4,1.6
68.5,57.3,57.9,53.4,56.2,2.4
69.0,55.8,57.5,53.8,55.7,1.9
69.5,55.5,57.1,53.5,55.4,1.8
70.0,55.2,57.4,53.7,55.5,1.9
70.5,55.1,56.2,52.6,54.6,1.8
71.0,55.1,56.9,52.9,55.0,2.0
71.5,55.0,56.2,53.0,54.7,1.6
72.0,54.0,56.9,53.4,54.8,1.9
72.5,54.4,56.3,52.0,54.2,2.1
73.0,53.3,56.0,52.1,53.8,2.0
73.5,53.0,55.3,52.2,53.5,1.6
74.0,53.0,55.8,52.1,53.6,1.9
74.5,53.4,55.3,51.9,53.6,1.7
75.0,53.2,55.4,52.0,53.5,1.7
75.5,53.1,55.5,51.0,53.2,2.2
76.0,50.9,55.8,51.2,52.6,2.8
76.5,51.4,55.5,51.9,52.9,2.3
77.0,52.2,55.8,51.2,53.1,2.4
77.5,50.6,56.2,50.2,52.3,3.4
78.0,51.2,55.7,50.7,52.5,2.7
78.5,50.7,56.4,50.5,52.5,3.3
79.0,49.5,56.4,50.1,52.0,3.8
79.5,49.6,56.9,49.0,51.8,4.4
80.0,49.0,57.6,49.1,51.9,4.9
80.5,49.2,57.9,48.5,51.9,5.2
81.0,48.2,58.5,48.4,51.7,5.9
81.5,47.5,57.5,48.7,51.2,5.4
82.0,47.5,58.2,48.2,51.3,6.0
82.5,47.5,58.2,47.6,51.1,6.2
83.0,47.1,58.3,48.3,51.2,6.2
83.5,47.3,59.2,47.3,51.3,6.9
84.0,47.3,58.9,46.7,51.0,6.9
84.5,46.7,59.3,46.5,50.9,7.3
85.0,46.3,57.8,46.5,50.2,6.6
85.5,46.9,58.4,46.0,50.5,6.9
86.0,46.3,56.5,45.7,49.5,6.1
86.5,46.0,56.1,46.0,49.3,5.8
87.0,44.9,55.6,45.4,48.7,6.0
87.5,45.1,54.9,44.9,48.3,5.7
88.0,45.8,54.3,45.2,48.4,5.1
88.5,45.0,53.3,45.3,47.9,4.7
89.0,45.6,53.5,44.3,47.8,5.0
89.5,44.6,52.8,45.0,47.5,4.6
90.0,44.3,51.7,43.7,46.6,4.5
90.5,44.9,50.3,43.8,46.3,3.4
91.0,44.0,50.4,43.7,46.0,3.8
91.5,43.7,49.8,44.1,45.9,3.4
92.0,44.4,48.9,43.1,45.5,3.1
92.5,44.1,48.3,43.3,45.3,2.7
93.0,44.3,47.6,42.1,44.7,2.8
93.5,42.9,47.4,42.1,44.1,2.8
94.0,42.7,46.6,42.0,43.8,2.5
94.5,42.2,46.3,41.3,43.3,2.7
95.0,42.4,45.1,41.1,42.8,2.0
95.5,42.5,45.5,40.8,42.9,2.4
96.0,42.0,44.7,40.7,42.5,2.0
96.5,41.8,43.4,40.4,41.9,1.5
97.0,41.5,43.7,39.8,41.7,2.0
97.5,41.2,43.1,39.8,41.4,1.7
98.0,41.6,42.4,39.0,41.0,1.8
98.5,40.6,41.9,38.8,40.4,1.6
99.0,40.0,42.0,38.3,40.1,1.9
99.5,39.5,41.0,37.6,39.4,1.7
100.0,39.2,40.4,38.3,39.3,1.0
100.5,39.1,41.1,37.5,39.2,1.8
101.0,39.0,39.5,37.1,38.5,1.3
101.5,38.2,39.5,36.4,38.0,1.6
102.0,38.3,38.8,36.1,37.7,1.4
102.5,37.5,38.7,35.8,37.3,1.5
103.0,36.8,38.9,35.7,37.1,1.6
103.5,36.3,38.3,35.4,36.7,1.5
104.0,36.2,38.6,34.1,36.3,2.3
104.5,35.4,38.1,34.6,36.0,1.8
105.0,35.6,38.2,34.4,36.0,1.9
105.5,35.4,37.9,33.5,35.6,2.2
106.0,34.9,37.5,34.0,35.5,1.8
106.5,34.4,36.7,33.3,34.8,1.7
107.0,33.9,36.0,33.3,34.4,1.4
107.5,33.8,35.3,32.7,33.9,1.3
108.0,33.9,35.1,32.6,33.9,1.2
108.5,32.8,35.1,32.2,33.4,1.5
109.0,32.7,34.4,31.9,33.0,1.3
109.5,32.5,34.1,31.4,32.7,1.4
110.0,32.0,33.7,31.0,32.3,1.4
110.5,31.9,33.2,30.3,31.8,1.4
111.0,31.5,32.4,30.5,31.4,0.9
111.5,31.5,32.0,30.4,31.3,0.8
112.0,31.2,31.5,29.9,30.9,0.9
112.5,30.7,30.2,29.5,30.2,0.6
113.0,30.8,30.5,29.8,30.4,0.5
113.5,30.7,30.0,29.7,30.1,0.5
114.0,30.7,29.7,29.6,30.0,0.6
114.5,30.5,28.5,29.7,29.6,1.0
115.0,30.1,28.5,29.4,29.3,0.8
115.5,29.7,28.4,28.6,28.9,0.7
116.0,29.7,28.7,28.7,29.0,0.6
116.5,28.9,28.2,,28.5,0.5
117.0,29.1,27.4,,28.3,1.2
117.5,28.5,27.7,,28.1,0.6
118.0,28.7,27.0,,27.9,1.2
118.5,27.7,27.0,,27.3,0.5
118.75,28.2,26.3,,27.2,1.3