File: 01_Data/Roof_Felt/Cone/Roof_Felt_HRRPUA_25.csv
Time after Ignition,Roof_Felt_R1,Roof_Felt_R2,Roof_Felt_R3,Mean,Std. Dev.
0.0,15.9,14.4,15.5,15.3,0.8
0.5,22.0,21.4,20.8,21.4,0.6
1.0,27.2,31.1,32.1,30.1,2.6
1.5,43.3,47.3,41.1,43.9,3.2
2.0,61.6,60.8,57.4,59.9,2.3
2.5,81.4,73.1,72.8,75.7,4.9
3.0,95.2,87.5,83.3,88.7,6.0
3.5,106.8,101.5,96.7,101.7,5.0
4.0,128.9,113.2,112.1,118.0,9.4
4.5,142.7,128.8,124.8,132.1,9.4
5.0,166.8,140.2,147.1,151.4,13.8
5.5,184.8,157.3,165.0,169.0,14.2
6.0,201.7,175.7,186.4,188.0,13.1
6.5,223.0,195.7,202.4,207.0,14.3
7.0,242.4,204.6,225.6,224.2,18.9
7.5,275.5,221.2,247.5,248.0,27.2
8.0,299.3,236.1,266.2,267.2,31.6
8.5,326.4,248.7,296.6,290.6,39.2
9.0,334.9,265.6,310.5,303.7,35.2
9.5,368.3,290.1,342.8,333.7,39.9
10.0,378.6,299.8,359.3,345.9,41.1
10.5,406.7,306.4,381.5,364.9,52.2
11.0,414.1,323.2,411.6,383.0,51.8
11.5,434.0,336.8,424.6,398.5,53.6
12.0,448.6,346.2,450.0,414.9,59.5
12.5,462.9,353.8,481.3,432.7,69.0
13.0,465.7,366.8,491.8,441.4,65.9
13.5,470.5,375.5,515.1,453.7,71.3
14.0,480.7,390.7,519.6,463.7,66.1
14.5,495.7,393.8,533.2,474.2,72.1
15.0,494.4,400.6,543.8,479.6,72.7
15.5,499.3,411.6,564.4,491.8,76.7
16.0,503.5,413.2,562.8,493.2,75.4
16.5,509.7,423.8,574.0,502.5,75.3
17.0,508.4,422.8,575.0,502.1,76.3
17.5,499.1,433.8,573.6,502.2,69.9
18.0,498.5,428.8,546.7,491.4,59.3
18.5,500.2,444.8,545.0,496.7,50.2
19.0,484.1,450.6,538.3,491.0,44.2
19.5,482.8,434.9,537.7,485.1,51.5
20.0,474.6,448.1,519.2,480.6,35.9
20.5,458.1,442.0,505.4,468.5,33.0
21.0,461.3,440.4,490.9,464.2,25.4
21.5,442.3,437.4,474.0,451.2,19.8
22.0,430.2,435.1,458.4,441.2,15.0
22.5,418.8,416.4,446.2,427.1,16.5
23.0,406.4,410.0,421.4,412.6,7.9
23.5,403.6,403.9,420.3,409.3,9.5
24.0,388.1,387.9,398.8,391.6,6.3
24.5,383.1,391.4,385.4,386.7,4.2
25.0,371.1,387.1,383.9,380.7,8.4
25.5,357.0,372.5,359.9,363.1,8.2
26.0,360.1,362.6,350.6,357.8,6.3
26.5,349.3,359.9,340.7,350.0,9.6
27.0,345.3,353.6,329.4,342.7,12.3
27.5,337.8,342.5,314.2,331.5,15.2
28.0,324.0,338.7,302.1,321.6,18.4
28.5,321.0,329.9,289.6,313.5,21.2
29.0,302.9,324.6,277.3,301.6,23.7
29.5,301.1,317.8,270.9,296.6,23.8
30.0,285.4,310.7,254.2,283.4,28.3
30.5,279.0,300.9,247.3,275.7,27.0
31.0,268.4,291.2,239.7,266.5,25.8
31.5,255.7,286.2,234.0,258.6,26.2
32.0,250.4,274.2,227.0,250.5,23.6
32.5,241.3,266.6,219.6,242.5,23.5
33.0,233.9,263.2,218.3,238.5,22.8
33.5,222.7,255.9,210.2,229.6,23.6
34.0,212.8,242.6,206.5,220.6,19.3
34.5,207.4,238.9,199.2,215.1,20.9
35.0,197.2,228.4,192.2,205.9,19.6
35.5,190.5,225.7,184.3,200.1,22.3
36.0,180.1,222.4,177.4,193.3,25.2
36.5,177.5,211.2,172.4,187.0,21.1
37.0,168.9,202.9,166.8,179.5,20.3
37.5,164.3,201.8,159.6,175.3,23.1
38.0,161.4,195.1,155.9,170.8,21.3
38.5,156.5,195.3,153.0,168.3,23.4
39.0,153.2,191.6,148.3,164.4,23.7
39.5,148.3,186.4,142.6,159.1,23.8
40.0,143.8,182.3,136.1,154.1,24.8
40.5,139.2,183.1,133.3,151.8,27.2
41.0,135.9,180.3,130.0,148.7,27.5
41.5,129.5,179.1,125.5,144.7,29.8
42.0,125.1,171.9,124.3,140.5,27.3
42.5,118.6,172.4,118.6,136.5,31.1
43.0,113.2,170.1,115.9,133.1,32.1
43.5,109.7,165.4,111.8,129.0,31.6
44.0,104.6,162.8,109.6,125.7,32.3
44.5,100.7,160.3,105.4,122.1,33.1
45.0,96.9,156.6,106.1,119.9,32.2
45.5,95.2,154.9,101.3,117.1,32.8
46.0,91.8,153.3,100.3,115.2,33.3
46.5,89.7,152.3,96.8,112.9,34.3
47.0,86.2,149.3,96.1,110.5,33.9
47.5,82.8,150.6,93.3,108.9,36.5
48.0,80.6,144.6,91.7,105.6,34.2
48.5,79.6,146.0,88.8,104.8,36.0
49.0,77.0,146.1,86.7,103.3,37.4
49.5,74.8,146.5,86.3,102.5,38.5
50.0,72.7,142.4,83.8,99.7,37.4
50.5,72.1,141.5,80.4,98.0,37.9
51.0,69.4,139.6,77.4,95.5,38.5
51.5,68.0,137.2,74.5,93.2,38.2
52.0,65.3,136.6,71.3,91.0,39.6
52.5,64.2,133.8,70.1,89.4,38.6
53.0,63.1,133.1,66.9,87.7,39.4
53.5,61.3,131.9,64.8,86.0,39.8
54.0,59.7,129.4,62.9,84.0,39.4
54.5,57.3,126.4,61.6,81.8,38.7
55.0,57.1,126.4,59.6,81.0,39.3
55.5,54.8,124.2,58.9,79.3,38.9
56.0,54.5,123.5,56.6,78.2,39.3
56.5,53.6,120.6,54.6,76.2,38.4
57.0,52.7,118.6,52.9,74.7,38.0
57.5,52.0,115.5,51.8,73.1,36.7
58.0,51.4,111.8,50.1,71.1,35.3
58.5,50.5,109.8,48.6,69.6,34.8
59.0,50.3,106.0,47.5,68.0,33.0
59.5,49.4,105.7,46.2,67.1,33.5
60.0,49.6,102.6,46.1,66.1,31.6
60.5,48.5,101.3,45.3,65.0,31.4
61.0,47.4,98.0,44.6,63.3,30.0
61.5,47.3,96.1,44.4,62.6,29.1
62.0,47.0,94.2,42.7,61.3,28.6
62.5,46.5,92.7,43.6,60.9,27.5
63.0,45.7,90.6,43.5,59.9,26.6
63.5,44.5,87.4,43.7,58.5,25.0
64.0,44.5,86.3,,65.4,29.5
64.5,42.5,82.9,,62.7,28.5
65.0,42.0,80.8,,61.4,27.4
65.5,40.5,79.3,,59.9,27.4
66.0,40.1,78.5,,59.3,27.1
66.5,39.7,74.7,,57.2,24.8
67.0,39.0,74.0,,56.5,24.7
67.5,38.0,72.3,,55.1,24.3
68.0,38.3,72.1,,55.2,23.9
68.5,37.6,69.6,,53.6,22.6
69.0,37.1,70.2,,53.6,23.4
69.5,36.5,68.7,,52.6,22.8
70.0,36.3,67.6,,52.0,22.2
70.5,35.3,67.2,,51.2,22.6
71.0,35.8,67.0,,51.4,22.0
71.5,34.6,65.9,,50.3,22.1
72.0,34.3,66.3,,50.3,22.6
72.5,33.9,64.8,,49.3,21.8
73.0,33.3,65.9,,49.6,23.0
73.5,33.1,63.4,,48.3,21.4
74.0,32.6,62.8,,47.7,21.4
74.5,32.9,61.6,,47.3,20.3
75.0,32.6,62.2,,47.4,20.9
75.5,32.3,60.2,,46.3,19.7
76.0,31.5,60.3,,45.9,20.3
76.5,31.5,61.0,,46.3,20.9
77.0,31.1,60.0,,45.6,20.4
77.5,31.5,59.9,,45.7,20.1
78.0,30.9,61.2,,46.1,21.4
78.5,30.8,61.0,,45.9,21.3
79.0,30.4,61.0,,45.7,21.6
79.5,30.6,60.8,,45.7,21.4
80.0,30.5,61.6,,46.0,21.9
80.5,30.9,61.9,,46.4,21.9
81.0,31.0,61.3,,46.1,21.4
81.5,30.4,62.4,,46.4,22.6
82.0,30.2,61.9,,46.0,22.4
82.25,30.1,62.5,,46.3,22.9