File: 01_Data/Particleboard/Cone/Particleboard_Cone_HF50Scan_230705_R3.csv
Names,Time,Stack TC,Smoke TC,Exh Press,Smoke Comp,Smoke Meas,CO Meter,CO2 Meter,O2 Meter,Sample Mass,Ext Coeff,Start Test,Flame Verif
Chan Gain,,500,500,1,1,1,1,1,1,1,1,1.0,1.0
Offset,,0,0,0.138104,0,0,0,0,0,0,0,0.0,0.0
Gain,,1,1,25.011,12.9522,294.665,1,1,1,1.00088,0.812795,1.0,1.0
Units,sec,C,C,Pa,%,%,%,%,%,g,/m,,
Baseline,,53.3247,56.1287,166.757,100.338,110.431,0.000221205,0.0427077,20.9286,-446.753,-0.682794,,
62,15.25,52.4404,55.4563,164.924,100.972,105.859,0.00076839,0.0469577,20.9267,205.991,-0.336972,0.0,0.0
124,30.75,53.217,56.4748,167.435,100.899,106.615,0.000329392,0.0446366,20.9294,205.52,-0.392887,0.0,0.0
186,46.25,59.1746,70.0296,150.492,100.763,121.524,0.00118954,0.127354,20.8938,203.959,-1.33571,0.0,0.0
248,61.75,71.7193,90.3594,141.348,100.55,115.994,0.00345514,0.49928,20.4223,201.036,-1.01872,0.0,0.0
310,77.25,81.2645,101.411,139.327,100.222,111.803,0.00600409,0.609963,20.2487,197.874,-0.779646,0.0,0.0
372,92.75,86.2769,103.738,143.969,99.8942,114.573,0.00644006,0.576942,20.2627,194.801,-0.977496,0.0,0.0
434,108.25,87.6791,102.616,155.251,99.5768,110.571,0.00658093,0.51764,20.3369,191.968,-0.746714,0.0,0.0
496,123.75,87.4249,98.6849,150.613,99.3286,114.681,0.00540624,0.436515,20.4305,189.436,-1.02469,0.0,0.0
558,139.25,86.4194,95.2192,150.289,99.1997,112.361,0.00423747,0.372797,20.5135,187.164,-0.888231,0.0,0.0
620,154.75,84.9373,92.5772,152.572,99.3001,115.814,0.00353788,0.332008,20.5752,185.192,-1.09683,0.0,0.0
682,170.25,83.0672,90.0497,151.432,99.6238,115.104,0.00282714,0.300336,20.609,183.351,-1.02976,0.0,0.0
744,185.75,81.3996,88.5432,148.968,100.042,118.584,0.00312294,0.286688,20.6335,181.719,-1.21223,0.0,0.0
806,201.25,80.9649,86.929,152.847,100.353,115.697,0.00280596,0.274239,20.6481,179.978,-1.01443,0.0,0.0
868,216.75,80.3748,86.4378,151.462,100.404,116.956,0.00247027,0.26354,20.6585,178.276,-1.08799,0.0,0.0
930,232.25,79.1749,85.0091,157.281,100.378,116.362,0.0023526,0.261504,20.662,176.685,-1.05355,0.0,0.0
992,247.75,78.7957,85.1903,152.8,100.205,115.94,0.00234474,0.251355,20.6775,175.234,-1.03988,0.0,0.0
1054,263.25,78.6961,84.2902,159.559,99.9894,118.62,0.0019966,0.248251,20.6811,173.642,-1.21817,0.0,0.0
1116,278.75,78.7075,84.069,154.939,99.7626,116.443,0.00225086,0.246732,20.6804,172.181,-1.10235,0.0,0.0
1178,294.25,78.4355,84.4194,150.988,99.7756,118.566,0.0019389,0.241322,20.6883,170.69,-1.23019,0.0,0.0
1240,309.75,78.0779,83.6403,152.871,100.078,118.781,0.0021447,0.235309,20.6967,169.198,-1.22156,0.0,0.0
1302,325.25,77.5165,83.2444,155.545,100.343,114.474,0.0019302,0.232835,20.6997,167.787,-0.939361,0.0,0.0
1364,340.75,77.3777,82.7435,152.744,100.395,116.65,0.00170086,0.229738,20.7036,166.326,-1.06998,0.0,0.0
1426,356.25,77.2396,82.9449,156.35,100.006,115.059,0.00136482,0.222411,20.7107,164.935,-0.999699,0.0,0.0
1488,371.75,77.2417,82.185,156.471,100.393,119.474,0.00137922,0.217148,20.7165,163.714,-1.24062,0.0,0.0
1550,387.25,76.6349,81.319,152.25,100.779,117.675,0.00150111,0.208268,20.7279,162.443,-1.1051,0.0,0.0
1612,402.75,76.0123,81.0052,155.546,100.935,114.771,0.00124972,0.201448,20.7357,161.211,-0.915872,0.0,0.0
1674,418.25,75.5927,80.1116,151.371,100.649,117.837,0.0017411,0.195841,20.7413,159.96,-1.12411,0.0,0.0
1736,433.75,75.5357,79.1734,154.059,99.9981,118.754,0.00133271,0.189684,20.7498,158.859,-1.22565,0.0,0.0
1798,449.25,75.0479,78.6955,153.308,99.5471,116.812,0.00142193,0.184526,20.7585,157.758,-1.1403,0.0,0.0
1860,464.75,74.7921,78.928,154.249,99.2918,116.713,0.00145884,0.180908,20.7606,156.667,-1.15258,0.0,0.0
1922,480.25,74.351,78.3538,155.019,99.1847,113.215,0.00125391,0.180533,20.7653,155.556,-0.943314,0.0,0.0
1984,495.75,73.6346,78.3858,157.671,99.3195,113.008,0.00159659,0.177594,20.7654,154.425,-0.920594,0.0,0.0
2046,511.25,73.4271,77.6764,159.314,99.8195,113.35,0.00115445,0.176227,20.7697,153.395,-0.906317,0.0,0.0
2108,526.75,73.5609,77.9281,158.462,100.276,116.147,0.00120646,0.177079,20.7683,152.394,-1.04756,0.0,0.0
2170,542.25,73.5985,77.5089,155.672,100.414,116.174,0.00150387,0.178538,20.7663,151.333,-1.03938,0.0,0.0
2232,557.75,73.3579,77.4773,155.075,100.36,117.711,0.00162685,0.180442,20.7641,150.372,-1.13698,0.0,0.0
2294,573.25,73.261,77.6455,158.802,100.197,114.654,0.00134371,0.180765,20.763,149.321,-0.960953,0.0,0.0
2356,588.75,73.6397,77.8917,155.976,100.027,116.012,0.00128185,0.184543,20.7619,148.26,-1.05697,0.0,0.0
2418,604.25,73.5695,77.876,161.287,99.9179,116.605,0.00166956,0.186691,20.7566,147.169,-1.10116,0.0,0.0
2480,619.75,73.9531,78.1933,153.71,99.7321,116.758,0.00134223,0.191101,20.7506,146.088,-1.12377,0.0,0.0
2542,635.25,74.1716,79.3404,156.093,99.6321,116.929,0.00137943,0.194997,20.7493,145.017,-1.14135,0.0,0.0
2604,650.75,74.1481,79.3155,151.645,99.8199,115.805,0.00149869,0.196713,20.7472,143.866,-1.05906,0.0,0.0
2666,666.25,74.4017,79.3394,152.066,99.9709,116.156,0.00130346,0.201394,20.7421,142.685,-1.06984,0.0,0.0
2728,681.75,74.9014,80.0472,154.667,100.205,118.701,0.0015949,0.208728,20.7358,141.554,-1.20766,0.0,0.0
2790,697.25,75.7265,80.7928,156.335,100.327,115.697,0.00133924,0.214001,20.7284,140.313,-1.01628,0.0,0.0
2852,712.75,76.249,81.7783,153.448,100.339,117.612,0.00121401,0.223979,20.7179,139.062,-1.13251,0.0,0.0
2914,728.25,76.4104,82.3918,151.819,100.225,116.371,0.00203333,0.232931,20.7057,137.781,-1.06497,0.0,0.0
2976,743.75,77.1498,83.8152,150.469,100.035,115.4,0.00166249,0.244974,20.6956,136.44,-1.01876,0.0,0.0
3038,759.25,78.2488,84.3785,157.608,100.484,115.032,0.00161106,0.253731,20.6841,135.048,-0.964038,0.0,0.0
3100,774.75,78.616,85.0182,156.488,100.892,116.075,0.00144083,0.259014,20.6751,133.607,-0.99946,0.0,0.0
3162,790.25,79.0806,85.1603,152.159,100.832,118.278,0.0020371,0.264657,20.6685,132.186,-1.13777,0.0,0.0
3224,805.75,79.6707,85.4895,151.361,100.59,119.015,0.00192137,0.268043,20.661,130.765,-1.19923,0.0,0.0
3286,821.25,79.8426,85.047,151.094,100.338,113.485,0.00166983,0.263384,20.6636,129.353,-0.877822,0.0,0.0
3348,836.75,79.7015,86.0677,150.243,99.9329,114.006,0.00205087,0.26389,20.6645,127.952,-0.93939,0.0,0.0
3410,852.25,80.2149,86.0748,150.637,99.5313,114.24,0.00193114,0.263505,20.6645,126.541,-0.982706,0.0,0.0
3472,867.75,79.8451,85.9284,151.093,99.2677,114.537,0.00173712,0.259403,20.6687,125.17,-1.02011,0.0,0.0
3534,883.25,79.8856,86.0157,152.437,99.2056,115.229,0.001936,0.260325,20.6702,123.819,-1.06755,0.0,0.0
3596,898.75,79.9393,85.8708,157.028,99.2787,114.294,0.00232182,0.258284,20.6745,122.507,-1.00419,0.0,0.0
3658,914.25,80.0704,85.6483,152.525,99.4566,114.483,0.00228183,0.257543,20.6712,121.146,-1.0032,0.0,0.0
3720,929.75,80.5419,85.8048,150.109,99.7191,117.064,0.00233888,0.259466,20.6703,119.745,-1.14335,0.0,0.0
3782,945.25,80.4666,86.4068,157.973,100.018,116.039,0.00209818,0.263166,20.6673,118.394,-1.05931,0.0,0.0
3844,960.75,80.5612,86.4525,150.447,100.244,115.967,0.00166625,0.269335,20.6581,117.013,-1.03876,0.0,0.0
3906,976.25,81.4412,87.3844,149.618,100.368,116.533,0.00215849,0.273822,20.6513,115.591,-1.06474,0.0,0.0
3968,991.75,81.4768,87.8537,148.94,100.41,115.751,0.00250453,0.279786,20.6448,114.16,-1.01374,0.0,0.0
4030,1007.25,81.8665,88.2408,151.74,100.355,116.237,0.00268712,0.27903,20.6407,112.739,-1.04749,0.0,0.0
4092,1022.75,81.806,88.0041,152.806,100.165,113.107,0.00249502,0.275886,20.6421,111.368,-0.866367,0.0,0.0
4154,1038.25,81.4811,87.1934,150.649,99.7361,113.917,0.00239354,0.270447,20.6467,110.007,-0.947822,0.0,0.0
4216,1053.75,80.9653,86.7614,147.774,99.9468,115.301,0.00209455,0.26098,20.66,108.715,-1.01893,0.0,0.0
4278,1069.25,80.6989,86.0721,152.621,100.302,118.611,0.00189237,0.250982,20.672,107.534,-1.19537,0.0,0.0
4340,1084.75,80.6532,85.5585,154.654,100.191,112.936,0.00169188,0.241063,20.6804,106.443,-0.85376,0.0,0.0
4402,1100.25,79.8461,84.347,152.24,99.9622,113.197,0.00183483,0.227463,20.6947,105.473,-0.886509,0.0,0.0
4464,1115.75,78.5769,82.6138,154.31,100.352,115.544,0.00163865,0.20528,20.716,104.742,-1.00506,0.0,0.0
4526,1131.25,76.84,79.3738,159.076,100.718,115.814,0.0018732,0.160394,20.7595,104.291,-0.995725,0.0,0.0
4588,1146.75,75.1481,76.8846,157.485,100.886,115.148,0.00371254,0.129311,20.8032,104.001,-0.942758,0.0,0.0
4650,1162.25,72.7041,74.3089,159.523,100.746,113.008,0.00480113,0.118019,20.8273,103.671,-0.818945,0.0,0.0
4712,1177.75,72.0559,72.9376,160.788,100.249,114.132,0.00536875,0.111321,20.838,103.471,-0.924762,0.0,0.0
4774,1193.25,70.5699,72.1878,159.354,99.5894,110.472,0.00635248,0.108934,20.8407,103.161,-0.739428,0.0,0.0
4836,1208.75,69.9187,71.4142,155.703,99.2246,109.025,0.00643284,0.105735,20.8446,102.88,-0.671538,0.0,0.0
4898,1224.25,68.5684,70.8105,159.442,99.4724,112.774,0.00638408,0.103203,20.8457,102.68,-0.894855,0.0,0.0
4960,1239.75,68.1714,70.0038,159.498,99.9381,110.445,0.00635514,0.10301,20.8516,102.43,-0.712771,0.0,0.0
5022,1255.25,67.912,69.8965,166.367,100.331,112.361,0.00696349,0.102069,20.8509,102.2,-0.807355,0.0,0.0
5084,1270.75,66.8248,69.1997,162.023,100.421,111.363,0.0069046,0.100196,20.8538,102.04,-0.73739,0.0,0.0
5146,1286.25,66.3974,68.6765,159.181,100.172,114.591,0.00717617,0.100573,20.8568,101.859,-0.958838,0.0,0.0
5208,1301.75,66.2737,68.4279,158.205,99.8511,112.46,0.00696309,0.100272,20.8543,101.719,-0.847839,0.0,0.0
5270,1317.25,66.0306,68.1287,161.303,99.6618,109.438,0.00769243,0.0979023,20.8582,101.519,-0.667195,0.0,0.0
5332,1332.75,65.7158,68.2227,158.607,100.025,113.611,0.00819527,0.0967239,20.8629,101.379,-0.908063,0.0,0.0
5394,1348.25,65.626,67.704,159.684,100.252,113.089,0.00843043,0.0956566,20.8632,101.179,-0.859103,0.0,0.0
5456,1363.75,64.5089,66.6905,162.193,100.263,113.809,0.00824253,0.0957072,20.8625,100.979,-0.90347,0.0,0.0
5518,1379.25,64.5562,66.9048,159.008,99.9689,111.246,0.00874597,0.0941363,20.8664,100.808,-0.76205,0.0,0.0
5580,1394.75,63.9016,65.9681,163.338,100.375,112.613,0.00846222,0.0936919,20.868,100.618,-0.820198,0.0,0.0
5642,1410.25,64.0969,66.5121,162.855,100.761,110.661,0.00834842,0.0938655,20.8686,100.368,-0.668247,0.0,0.0
5704,1425.75,63.763,66.4786,163.722,100.872,113.665,0.00816172,0.0944035,20.8663,100.248,-0.851323,0.0,0.0
5766,1441.25,63.6754,66.4868,158.922,100.56,112.685,0.00846847,0.09442,20.8669,100.038,-0.811651,0.0,0.0
5828,1456.75,63.6838,66.3936,163.287,99.9653,115.346,0.00842844,0.0933438,20.8661,99.8976,-1.02038,0.0,0.0
5890,1472.25,63.5037,66.1486,159.372,99.4487,108.791,0.00814461,0.0943395,20.8669,99.7375,-0.640146,0.0,0.0