File: 01_Data/Particleboard/Cone/Particleboard_Cone_HF50Scan_230705_R2.csv
Names,Time,Stack TC,Smoke TC,Exh Press,Smoke Comp,Smoke Meas,CO Meter,CO2 Meter,O2 Meter,Sample Mass,Ext Coeff,Start Test,Flame Verif
Chan Gain,,500,500,1,1,1,1,1,1,1,1,1.0,1.0
Offset,,0,0,0.138104,0,0,0,0,0,0,0,0.0,0.0
Gain,,1,1,25.011,13.0255,26.639,1,1,1,1.00088,0.812795,1.0,1.0
Units,sec,C,C,Pa,%,%,%,%,%,g,/m,,
Baseline,,56.238,59.1959,165.399,101.271,103.033,0.000352877,0.0433636,20.9303,-447.026,-0.122819,,
61,15,55.1336,58.0058,164.96,100.872,10.1815,0.000617894,0.0462499,20.9288,207.012,16.3506,0.0,0.0
122,30.25,55.7099,58.8723,165.668,100.966,9.93597,0.000482297,0.0457163,20.9313,206.531,16.5313,0.0,0.0
183,45.5,61.9386,73.4159,146.63,101.007,11.3416,0.00158236,0.14421,20.8745,204.83,15.5908,0.0,0.0
244,60.75,75.2554,94.8553,142.552,100.979,11.1237,0.00419167,0.528499,20.4067,201.797,15.7271,0.0,0.0
305,76,83.7517,103.686,140.47,100.982,10.718,0.00671051,0.61666,20.2266,198.604,15.9922,0.0,0.0
366,91.25,88.7679,106.615,143.109,100.816,10.6676,0.00676678,0.590937,20.252,195.572,16.0141,0.0,0.0
427,106.5,89.9457,104.304,144.738,100.65,10.9595,0.00654039,0.503783,20.3458,193.019,15.8099,0.0,0.0
488,121.75,89.1755,100.147,147.668,100.521,10.5953,0.00548758,0.424197,20.4422,190.597,16.0417,0.0,0.0
549,137,87.9679,97.4199,151.858,100.462,10.4912,0.00440213,0.367676,20.5225,188.555,16.1079,0.0,0.0
610,152.25,86.6554,94.6628,152.115,100.532,10.9822,0.00400033,0.335048,20.5735,186.644,15.7867,0.0,0.0
671,167.5,85.2398,92.7036,147.371,100.63,10.9351,0.00349703,0.31375,20.5965,184.702,15.8243,0.0,0.0
732,182.75,84.2534,91.0973,150.479,100.747,11.0253,0.00333882,0.296847,20.6153,182.961,15.774,0.0,0.0
793,198,83.4781,89.9745,153.129,100.935,10.9335,0.00272115,0.283178,20.6348,181.309,15.847,0.0,0.0
854,213.25,83.2854,89.2973,152.451,101.128,10.9123,0.00248475,0.272326,20.6507,179.648,15.8744,0.0,0.0
915,228.5,81.8998,88.4143,154.357,101.28,10.8253,0.00250339,0.267272,20.6592,178.016,15.9422,0.0,0.0
976,243.75,81.7839,87.6091,152.861,101.272,10.9969,0.00213655,0.260965,20.6675,176.535,15.8295,0.0,0.0
1037,259,81.3718,87.4718,151.464,101.062,10.6432,0.00221534,0.254818,20.6762,174.984,16.0478,0.0,0.0
1098,274.25,80.9408,86.642,154.103,100.708,11.0806,0.00220079,0.246832,20.6857,173.532,15.7356,0.0,0.0
1159,289.5,80.5222,86.703,150.417,100.25,11.1156,0.00185297,0.242068,20.689,172.101,15.6807,0.0,0.0
1220,304.75,80.5436,86.3799,154.885,99.9199,10.9018,0.00197899,0.23686,20.6945,170.63,15.7956,0.0,0.0
1281,320,80.1953,85.8119,151.892,99.7887,10.5847,0.0017309,0.22861,20.7066,169.279,15.9967,0.0,0.0
1342,335.25,79.6106,84.466,155.745,99.6611,10.6465,0.00178432,0.220692,20.7141,168.037,15.9461,0.0,0.0
1403,350.5,78.7812,83.6994,153.567,99.6106,10.3555,0.0019316,0.211324,20.7258,166.676,16.1401,0.0,0.0
1464,365.75,78.363,83.0349,158.027,99.6953,10.8538,0.00113387,0.205922,20.7321,165.465,15.811,0.0,0.0
1525,381,77.5599,82.6175,154.515,99.8352,10.7278,0.00157335,0.202003,20.7385,164.244,15.9043,0.0,0.0
1586,396.25,77.6163,81.7061,155.183,100.029,10.6546,0.00169461,0.194978,20.7462,163.063,15.9669,0.0,0.0
1647,411.5,77.4043,81.2673,153.4,100.138,10.5823,0.00165085,0.19175,20.7467,161.982,16.0233,0.0,0.0
1708,426.75,76.8076,81.4944,161.203,100.218,10.6839,0.00183915,0.188149,20.7563,160.871,15.9608,0.0,0.0
1769,442,76.0217,80.5958,155.169,100.253,10.8197,0.00167458,0.184362,20.7621,159.75,15.8732,0.0,0.0
1830,457.25,76.2304,80.033,156.944,100.319,10.5286,0.00160736,0.181788,20.7604,158.699,16.0724,0.0,0.0
1891,472.5,75.431,79.3805,156.423,100.487,10.6132,0.00177946,0.179038,20.7677,157.658,16.0273,0.0,0.0
1952,487.75,74.9821,79.2476,157.447,100.615,10.8156,0.00177574,0.176662,20.7712,156.557,15.9016,0.0,0.0
2013,503,75.1962,79.2453,152.186,100.721,10.9668,0.00176678,0.175225,20.7729,155.637,15.8102,0.0,0.0
2074,518.25,74.9579,79.16,152.133,100.79,10.5945,0.00204216,0.17532,20.7719,154.636,16.0613,0.0,0.0
2135,533.5,74.9148,79.1702,154.554,100.808,10.9343,0.00201277,0.176506,20.7705,153.615,15.8375,0.0,0.0
2196,548.75,74.6645,79.1897,156.036,100.839,10.6554,0.0013236,0.175512,20.7736,152.644,16.0239,0.0,0.0
2257,564,74.4567,79.0121,159.661,100.817,10.7896,0.00167754,0.176803,20.7703,151.673,15.9331,0.0,0.0
2318,579.25,74.0876,79.0507,154.733,100.75,10.705,0.00180284,0.176659,20.7725,150.622,15.9845,0.0,0.0
2379,594.5,74.1823,78.3394,154.287,100.63,10.505,0.00171197,0.177473,20.7703,149.731,16.1104,0.0,0.0
2440,609.75,74.3837,79.1995,153.69,100.713,10.6766,0.00177576,0.180914,20.7691,148.69,16.0008,0.0,0.0
2501,625,74.2348,79.4117,153.345,100.615,10.4766,0.00167569,0.182495,20.7675,147.66,16.1287,0.0,0.0
2562,640.25,74.6387,78.7693,158.257,100.467,10.7148,0.00205748,0.186527,20.7597,146.699,15.9579,0.0,0.0
2623,655.5,74.5652,79.6671,159.571,100.353,10.4254,0.0017343,0.187896,20.759,145.648,16.145,0.0,0.0
2684,670.75,74.5785,79.7971,155.589,100.204,10.4693,0.0015444,0.189816,20.7564,144.597,16.1045,0.0,0.0
2745,686,74.9239,80.3568,157.151,100.052,10.5847,0.00185368,0.196591,20.7495,143.646,16.0155,0.0,0.0
2806,701.25,75.236,80.6958,156.026,100.282,10.6985,0.00151727,0.197809,20.7488,142.465,15.9556,0.0,0.0
2867,716.5,75.9775,80.8339,151.691,100.464,10.679,0.00163099,0.200036,20.7469,141.394,15.9815,0.0,0.0
2928,731.75,76.0999,81.3972,152.239,100.701,10.6595,0.00144956,0.207027,20.7378,140.363,16.0114,0.0,0.0
2989,747,76.1692,81.4531,151.867,100.739,10.679,0.00144615,0.210168,20.7353,139.142,16.001,0.0,0.0
3050,762.25,77.0042,82.5315,153.262,100.697,10.7863,0.00138792,0.216667,20.7286,137.981,15.9267,0.0,0.0
3111,777.5,77.4961,83.3034,153.195,100.618,10.5652,0.00153755,0.223179,20.718,136.86,16.0689,0.0,0.0
3172,792.75,77.7238,83.7838,156.789,100.371,10.6717,0.00146211,0.229866,20.711,135.579,15.9798,0.0,0.0
3233,808,78.5228,83.7724,154.833,100.581,10.8579,0.00181404,0.23587,20.7002,134.408,15.8714,0.0,0.0
3294,823.25,78.5149,83.8825,152.403,100.791,10.8392,0.00169223,0.240207,20.6989,133.137,15.8986,0.0,0.0
3355,838.5,79.0688,84.8649,154.972,100.955,10.9839,0.0017425,0.244641,20.6936,131.776,15.8156,0.0,0.0
3416,853.75,79.2367,85.4858,154.01,101.05,11.0896,0.00143864,0.247709,20.688,130.505,15.754,0.0,0.0
3477,869,79.471,85.3791,153.589,101.05,10.6717,0.00199637,0.250482,20.6833,129.233,16.0279,0.0,0.0
3538,884.25,79.6208,86.1072,154.819,101.07,10.8806,0.00160215,0.254984,20.6806,127.802,15.8911,0.0,0.0
3599,899.5,80.1515,86.1765,155.804,101.187,10.5132,0.0019289,0.266594,20.6635,126.551,16.1443,0.0,0.0
3660,914.75,80.7303,86.7182,150.24,101.252,10.9148,0.00205647,0.265248,20.6666,125.11,15.8816,0.0,0.0
3721,930,80.6422,87.4883,155.376,101.285,10.8221,0.00168818,0.269113,20.659,123.769,15.9447,0.0,0.0
3782,945.25,80.9596,87.1376,149.767,101.322,10.7083,0.00213182,0.269186,20.664,122.387,16.0227,0.0,0.0
3843,960.5,80.9341,86.952,150.865,101.34,10.6766,0.00201462,0.268742,20.6625,120.976,16.0451,0.0,0.0
3904,975.75,80.7764,87.0449,151.509,101.277,10.8018,0.00188989,0.272954,20.663,119.525,15.9575,0.0,0.0
3965,991,81.0745,87.7938,152.859,101.194,10.5636,0.00182653,0.274587,20.6552,118.114,16.1107,0.0,0.0
4026,1006.25,81.1878,88.3391,151.178,101.077,10.7538,0.00231515,0.278973,20.6479,116.772,15.9752,0.0,0.0
4087,1021.5,81.9379,88.8308,150.949,100.936,10.8587,0.00222301,0.279462,20.6441,115.311,15.896,0.0,0.0
4148,1036.75,82.0749,88.2466,147.552,100.751,10.7571,0.00210502,0.274808,20.6487,113.97,15.95,0.0,0.0
4209,1052,81.9336,87.791,149.044,100.552,10.4741,0.00238494,0.270899,20.6522,112.679,16.1259,0.0,0.0
4270,1067.25,82.1207,87.9924,152.984,100.335,10.3652,0.00216916,0.268103,20.6557,111.268,16.185,0.0,0.0
4331,1082.5,81.4101,87.6753,152.957,100.113,10.8172,0.0021785,0.259955,20.6608,110.127,15.8649,0.0,0.0
4392,1097.75,81.1953,86.9608,156.909,99.9044,10.5701,0.00184212,0.253147,20.6699,108.986,16.0148,0.0,0.0
4453,1113,80.9563,86.2927,156.921,99.7462,10.5115,0.00189541,0.240188,20.6832,107.885,16.0431,0.0,0.0
4514,1128.25,80.086,84.7253,157.289,99.7489,10.5245,0.00172803,0.225295,20.7008,107.014,16.0345,0.0,0.0
4575,1143.5,78.5794,82.5062,159.259,99.8034,10.4465,0.00188273,0.190338,20.7279,106.393,16.0915,0.0,0.0
4636,1158.75,76.5883,78.9184,159.696,99.929,10.601,0.00217351,0.142394,20.7875,105.923,15.9958,0.0,0.0
4697,1174,74.7405,76.3882,162.624,100.004,10.3359,0.0047786,0.121945,20.8184,105.693,16.1816,0.0,0.0
4758,1189.25,73.3091,74.7554,161.938,100.075,10.3148,0.00556991,0.116277,20.8315,105.372,16.2013,0.0,0.0
4819,1204.5,71.7166,73.5151,158.269,100.24,10.301,0.0058355,0.111771,20.838,105.062,16.2226,0.0,0.0
4880,1219.75,69.9624,72.1141,160.251,100.434,10.1668,0.00617595,0.10963,20.8405,104.972,16.3298,0.0,0.0
4941,1235,69.6175,71.8219,159.962,100.615,10.4172,0.0067406,0.106667,20.8444,104.702,16.1692,0.0,0.0
5002,1250.25,69.1758,71.3276,160.055,100.779,10.3481,0.00693134,0.103593,20.8484,104.402,16.2283,0.0,0.0
5063,1265.5,68.3634,70.5255,160.981,100.901,10.2758,0.00719538,0.10166,20.8489,104.291,16.2869,0.0,0.0
5124,1280.75,68.0239,69.9679,161.735,100.967,10.3896,0.00782973,0.100388,20.8582,104.011,16.213,0.0,0.0
5185,1296,66.6811,69.0667,159.838,100.966,10.4619,0.00779575,0.101715,20.8566,103.821,16.1635,0.0,0.0
5246,1311.25,66.2998,68.8727,160.092,100.95,10.3928,0.00775466,0.103369,20.8552,103.691,16.2096,0.0,0.0
5307,1326.5,66.6941,68.8073,158.074,100.887,10.3603,0.00753473,0.0994824,20.8592,103.391,16.2275,0.0,0.0
5368,1341.75,66.3377,68.2653,163.931,100.795,10.4327,0.00783831,0.0995848,20.8599,103.251,16.1714,0.0,0.0
5429,1357,65.7365,68.6431,159.972,100.657,10.3335,0.00772378,0.100139,20.8556,103.11,16.2297,0.0,0.0
5490,1372.25,65.244,67.4721,161.884,100.469,10.2408,0.00777631,0.0996409,20.8586,102.86,16.2806,0.0,0.0
5551,1387.5,64.6913,66.9803,161.841,100.364,10.4815,0.00849335,0.0961693,20.8611,102.77,16.1076,0.0,0.0
5612,1402.75,65.031,67.3133,158.196,100.303,10.2628,0.00844183,0.0954979,20.8633,102.55,16.2536,0.0,0.0
5673,1418,64.3965,66.886,161.315,100.209,10.5806,0.00831204,0.094773,20.8629,102.34,16.0294,0.0,0.0
5734,1433.25,64.3294,66.9324,163.696,100.154,10.4498,0.00833789,0.0954036,20.8609,102.22,16.1142,0.0,0.0
5795,1448.5,64.3141,67.1558,162.612,100.195,10.2376,0.00836772,0.0957535,20.8612,102.08,16.2634,0.0,0.0
5856,1463.75,64.2878,67.3875,163.431,100.192,10.1612,0.00841775,0.095518,20.8634,101.779,16.3166,0.0,0.0
5917,1479,64.0334,66.74,159.365,100.202,10.127,0.00840031,0.0964988,20.8612,101.709,16.3413,0.0,0.0
5948,1486.75,63.8832,67.1735,162.254,100.216,10.3335,0.00814794,0.0955749,20.8648,101.639,16.1984,0.0,0.0