File: 01_Data/Particleboard/Cone/Particleboard_HRRPUA_75.csv
Time after Ignition,Particleboard_R1,Particleboard_R2,Particleboard_R3,Mean,Std. Dev.
0.0,-1.3,2.9,3.7,1.7,2.7
4.25,-1.4,1.4,1.6,0.5,1.7
8.5,-0.6,1.3,1.3,0.7,1.1
12.75,6.9,13.4,32.7,17.7,13.4
17.0,106.0,90.7,140.3,112.3,25.4
21.25,238.2,207.6,246.7,230.8,20.6
25.5,347.4,310.9,328.8,329.0,18.2
29.75,412.7,382.9,397.3,397.6,14.9
34.0,429.7,417.9,435.5,427.7,9.0
38.25,433.1,426.5,430.3,430.0,3.3
42.5,438.9,427.6,421.7,429.4,8.8
46.75,419.2,415.0,397.6,410.6,11.4
51.0,407.5,390.6,388.2,395.4,10.5
55.25,384.0,366.3,374.9,375.1,8.9
59.5,371.7,356.3,351.5,359.9,10.5
63.75,345.7,343.4,347.9,345.7,2.3
68.0,335.8,322.8,335.0,331.2,7.3
72.25,318.8,311.8,309.6,313.4,4.8
76.5,294.6,299.1,287.0,293.6,6.1
80.75,272.9,284.3,272.2,276.5,6.8
85.0,266.6,264.8,259.6,263.7,3.6
89.25,264.0,251.4,254.1,256.5,6.6
93.5,244.1,242.8,238.7,241.9,2.8
97.75,235.5,234.6,230.6,233.6,2.6
102.0,236.1,227.4,228.8,230.7,4.7
106.25,223.2,219.2,213.9,218.7,4.7
110.5,216.2,214.8,213.5,214.8,1.3
114.75,207.1,209.3,208.4,208.3,1.1
119.0,205.5,202.6,202.0,203.4,1.9
123.25,206.9,196.2,197.1,200.0,5.9
127.5,201.7,189.7,193.5,195.0,6.1
131.75,197.3,185.1,193.1,191.8,6.2
136.0,194.5,185.7,186.8,189.0,4.8
140.25,189.3,182.4,183.4,185.0,3.8
144.5,188.2,181.7,179.8,183.2,4.4
148.75,185.2,180.3,180.3,181.9,2.8
153.0,184.8,176.4,178.0,179.7,4.4
157.25,181.4,171.0,177.1,176.5,5.2
161.5,178.8,168.2,173.9,173.6,5.3
165.75,178.5,164.7,172.3,171.8,6.9
170.0,174.3,168.4,169.0,170.5,3.2
174.25,174.1,162.9,168.7,168.6,5.6
178.5,168.5,159.8,167.7,165.3,4.8
182.75,171.5,161.3,167.6,166.8,5.2
187.0,172.1,165.8,165.6,167.8,3.7
191.25,168.9,163.6,165.7,166.0,2.7
195.5,166.1,166.9,161.6,164.9,2.8
199.75,163.9,161.7,161.9,162.5,1.2
204.0,164.8,160.6,163.3,162.9,2.1
208.25,162.2,155.2,164.6,160.6,4.9
212.5,163.5,154.0,164.3,160.6,5.7
216.75,161.1,153.1,162.1,158.8,4.9
221.0,160.8,156.1,159.1,158.7,2.3
225.25,156.5,152.0,162.3,157.0,5.2
229.5,154.8,150.0,158.4,154.4,4.2
233.75,153.9,151.0,157.0,154.0,3.0
238.0,153.5,147.0,156.4,152.3,4.8
242.25,151.2,147.1,156.4,151.6,4.7
246.5,152.1,149.0,158.5,153.2,4.9
250.75,152.2,146.3,153.2,150.6,3.7
255.0,145.0,145.9,153.3,148.0,4.6
259.25,147.4,142.7,146.6,145.5,2.5
263.5,145.0,140.4,145.6,143.7,2.8
267.75,144.6,143.6,145.4,144.5,0.9
272.0,143.5,140.4,145.1,143.0,2.4
276.25,141.4,135.5,139.3,138.7,2.9
280.5,140.6,135.3,135.8,137.2,3.0
284.75,138.9,136.2,136.7,137.2,1.4
289.0,135.9,133.5,135.5,135.0,1.3
293.25,135.1,134.0,131.6,133.6,1.8
297.5,135.8,131.1,131.0,132.6,2.7
301.75,134.6,131.3,131.4,132.5,1.9
306.0,132.5,131.6,129.0,131.0,1.8
310.25,132.6,128.0,128.4,129.7,2.6
314.5,132.0,126.8,128.3,129.0,2.7
318.75,127.3,124.8,125.7,125.9,1.3
323.0,127.0,126.9,128.8,127.6,1.1
327.25,126.0,125.2,125.9,125.7,0.5
331.5,127.9,127.3,124.8,126.7,1.7
335.75,130.7,123.9,123.7,126.1,4.0
340.0,126.2,124.6,125.4,125.4,0.8
344.25,123.8,123.6,123.1,123.5,0.3
348.5,125.7,124.6,121.5,123.9,2.1
352.75,125.4,122.6,123.4,123.8,1.4
357.0,127.9,123.2,122.4,124.5,3.0
361.25,130.3,123.2,122.3,125.3,4.4
365.5,127.4,123.7,124.1,125.1,2.1
369.75,125.4,122.0,121.6,123.0,2.1
374.0,124.6,123.0,121.5,123.1,1.5
378.25,125.7,125.1,121.3,124.0,2.4
382.5,127.0,118.6,124.2,123.3,4.3
386.75,125.8,127.5,121.0,124.7,3.4
391.0,125.5,124.1,122.8,124.1,1.4
395.25,126.1,123.4,123.7,124.4,1.5
399.5,130.6,123.9,124.5,126.4,3.7
403.75,128.7,121.8,124.4,125.0,3.5
408.0,128.9,125.1,124.6,126.2,2.3
412.25,130.1,127.1,124.5,127.3,2.8
416.5,132.5,125.7,123.0,127.0,4.9
420.75,127.3,125.5,122.1,125.0,2.6
425.0,131.8,129.1,124.1,128.3,3.9
429.25,129.4,128.1,125.6,127.7,1.9
433.5,132.6,128.1,126.0,128.9,3.4
437.75,134.2,129.1,127.0,130.1,3.7
442.0,133.4,130.7,127.6,130.6,2.9
446.25,133.6,131.2,127.1,130.6,3.3
450.5,135.5,131.9,127.2,131.5,4.2
454.75,136.6,132.1,126.4,131.7,5.1
459.0,133.4,132.5,127.5,131.1,3.2
463.25,136.1,135.6,127.1,132.9,5.1
467.5,134.0,137.7,127.5,133.1,5.2
471.75,135.6,133.2,129.0,132.6,3.3
476.0,136.4,138.1,128.3,134.3,5.2
480.25,134.9,137.7,129.6,134.1,4.1
484.5,134.9,139.4,131.2,135.2,4.1
488.75,135.1,139.4,130.0,134.8,4.7
493.0,134.7,139.1,130.9,134.9,4.1
497.25,134.4,138.8,131.1,134.8,3.9
501.5,134.4,137.9,132.0,134.7,3.0
505.75,136.4,139.3,133.7,136.4,2.8
510.0,134.1,140.4,131.5,135.3,4.6
514.25,133.9,142.1,132.1,136.0,5.3
518.5,134.5,142.3,132.8,136.5,5.0
522.75,133.0,142.0,132.6,135.9,5.3
527.0,134.2,142.1,134.5,136.9,4.4
531.25,135.8,140.4,134.1,136.8,3.3
535.5,135.6,140.3,134.4,136.8,3.1
539.75,133.7,141.5,133.5,136.3,4.6
544.0,132.3,141.9,133.4,135.9,5.3
548.25,134.4,143.7,131.0,136.4,6.6
552.5,134.1,142.0,129.9,135.3,6.1
556.75,133.3,141.6,131.7,135.5,5.3
561.0,131.9,141.9,133.6,135.8,5.3
565.25,129.3,143.5,131.1,134.6,7.8
569.5,131.9,142.7,129.2,134.6,7.2
573.75,131.2,140.9,131.3,134.5,5.5
578.0,133.1,140.9,135.3,136.4,4.0
582.25,130.8,141.6,132.8,135.1,5.7
586.5,129.9,138.0,134.8,134.2,4.1
590.75,132.7,138.6,132.7,134.7,3.4
595.0,132.5,139.4,134.4,135.4,3.5
599.25,132.4,137.8,133.1,134.4,2.9
603.5,131.5,137.6,132.7,133.9,3.2
607.75,130.7,139.4,133.4,134.5,4.4
612.0,130.4,137.3,133.5,133.7,3.5
616.25,130.9,137.4,131.5,133.3,3.6
620.5,131.9,136.4,132.2,133.5,2.5
624.75,132.4,135.6,130.4,132.8,2.6
629.0,130.8,135.5,130.0,132.1,3.0
633.25,129.6,135.0,129.2,131.3,3.2
637.5,127.1,131.9,130.8,129.9,2.5
641.75,130.7,133.2,130.7,131.6,1.4
646.0,129.2,134.7,128.0,130.6,3.6
650.25,127.2,131.8,130.4,129.8,2.4
654.5,130.6,131.1,124.1,128.6,3.9
658.75,128.8,130.8,124.9,128.2,3.0
663.0,126.5,130.4,128.3,128.4,2.0
667.25,125.9,128.0,128.2,127.4,1.3
671.5,125.6,126.4,126.7,126.2,0.6
675.75,126.9,124.8,125.3,125.7,1.1
680.0,126.2,128.5,125.2,126.6,1.7
684.25,124.7,127.3,124.8,125.6,1.4
688.5,126.4,126.1,126.5,126.3,0.2
692.75,128.5,127.4,126.2,127.3,1.1
697.0,129.7,127.4,122.8,126.6,3.5
701.25,127.7,125.5,124.1,125.8,1.8
705.5,130.2,127.9,124.5,127.6,2.8
709.75,127.9,128.0,123.3,126.4,2.7
714.0,125.3,126.2,124.3,125.3,1.0
718.25,123.0,126.3,127.5,125.6,2.3
722.5,124.4,128.9,126.9,126.8,2.3
726.75,126.6,129.3,123.6,126.5,2.8
731.0,125.1,128.3,124.4,125.9,2.1
735.25,125.7,128.6,123.4,125.9,2.6
739.5,125.8,127.2,124.9,126.0,1.1
743.75,124.7,129.2,124.4,126.1,2.7
748.0,125.1,128.4,128.0,127.2,1.8
752.25,126.0,125.8,125.6,125.8,0.2
756.5,123.3,128.9,126.7,126.3,2.8
760.75,123.5,128.5,122.6,124.9,3.2
765.0,124.8,126.9,123.3,125.0,1.8
769.25,124.4,129.1,125.0,126.1,2.6
773.5,123.4,125.1,127.3,125.3,2.0
777.75,124.5,124.1,126.8,125.1,1.4
782.0,120.8,123.6,124.3,122.9,1.8
786.25,121.2,124.5,123.7,123.2,1.7
790.5,119.3,126.0,124.0,123.1,3.4
794.75,121.0,123.9,121.9,122.3,1.5
799.0,120.8,122.0,124.3,122.4,1.8
803.25,121.2,122.2,125.1,122.8,2.0
807.5,118.8,121.2,123.2,121.1,2.2
811.75,117.9,124.6,122.8,121.8,3.5
816.0,117.1,122.0,118.9,119.3,2.5
820.25,114.7,120.5,119.8,118.3,3.1
824.5,116.6,120.2,120.3,119.0,2.1
828.75,116.4,118.9,120.7,118.7,2.2
833.0,116.1,116.8,119.1,117.3,1.6
837.25,114.3,114.4,120.0,116.3,3.3
841.5,111.8,113.2,119.6,114.9,4.2
845.75,112.6,113.5,118.8,115.0,3.3
850.0,110.6,111.9,117.6,113.4,3.7
854.25,109.8,113.7,112.9,112.1,2.1
858.5,110.0,112.0,114.1,112.0,2.1
862.75,108.6,111.1,113.9,111.2,2.6
867.0,106.5,108.6,110.2,108.4,1.8
871.25,106.2,106.4,107.3,106.7,0.6
875.5,103.8,102.2,102.0,102.7,1.0
879.75,101.8,97.2,99.2,99.4,2.3
884.0,99.3,92.1,91.6,94.3,4.3
888.25,93.0,84.5,82.9,86.8,5.4
892.5,86.0,74.5,74.0,78.2,6.8
896.75,74.1,67.5,67.7,69.8,3.8
901.0,68.7,62.0,62.2,64.3,3.8
905.25,64.0,58.1,57.6,59.9,3.6
909.5,59.9,56.6,54.1,56.9,2.9
913.75,57.5,54.7,53.4,55.2,2.1
918.0,54.2,51.9,52.9,53.0,1.2
922.25,53.1,51.8,54.0,53.0,1.1
926.5,54.0,50.4,52.0,52.1,1.8
930.75,50.4,50.4,50.5,50.4,0.0
935.0,51.4,50.9,50.5,50.9,0.4
939.25,51.0,51.1,49.7,50.6,0.7
943.5,49.9,50.6,49.4,50.0,0.6
947.75,51.2,48.3,49.1,49.5,1.5
952.0,50.0,48.5,48.7,49.1,0.8
956.25,48.8,48.4,48.9,48.7,0.3
960.5,49.0,46.9,49.7,48.5,1.5
964.75,48.9,47.8,50.3,49.0,1.3
969.0,48.3,50.4,49.0,49.3,1.1
973.25,47.6,48.8,47.7,48.0,0.7
977.5,46.1,48.1,46.2,46.8,1.1
981.75,46.8,47.6,46.5,47.0,0.6
986.0,46.0,46.9,46.5,46.4,0.4
990.25,43.9,46.6,46.6,45.7,1.5
994.5,43.1,48.4,46.3,45.9,2.7
998.75,43.2,48.2,46.4,45.9,2.5
1003.0,44.0,46.4,45.2,45.2,1.2
1007.25,45.5,45.1,44.5,45.0,0.5
1011.5,46.8,43.3,43.8,44.6,1.9
1015.75,45.1,42.5,44.3,44.0,1.3
1020.0,43.7,42.7,43.8,43.4,0.7
1024.25,42.1,43.2,44.6,43.3,1.3
1028.5,43.3,44.6,44.7,44.2,0.8
1032.75,43.6,44.8,44.9,44.4,0.7
1037.0,43.7,45.2,45.5,44.8,1.0
1041.25,44.1,44.3,44.1,44.2,0.1
1045.5,43.7,43.5,43.4,43.5,0.2
1049.75,43.2,44.2,42.9,43.4,0.7
1054.0,43.8,44.7,44.1,44.2,0.4
1058.25,44.5,43.7,43.9,44.0,0.4
1062.5,44.2,42.9,43.2,43.4,0.7
1066.75,44.8,44.1,43.6,44.2,0.6
1071.0,43.8,42.7,44.0,43.5,0.7
1075.25,43.2,42.1,42.8,42.7,0.5
1079.5,43.5,42.4,42.8,42.9,0.6
1083.75,43.1,42.8,43.1,43.0,0.2
1088.0,42.2,42.7,43.3,42.8,0.6
1092.25,42.0,43.0,41.8,42.3,0.7
1096.5,41.3,41.3,41.5,41.4,0.1
1100.75,40.9,41.6,41.4,41.3,0.4
1105.0,40.6,41.1,40.8,40.8,0.3
1109.25,40.8,40.2,40.3,40.4,0.3
1113.5,40.8,40.6,39.9,40.4,0.5
1117.75,40.3,39.8,40.6,40.2,0.4
1122.0,40.0,39.7,40.6,40.1,0.5
1126.25,39.6,39.2,40.5,39.7,0.6
1130.5,39.3,39.4,40.2,39.7,0.5
1134.75,39.1,39.2,40.5,39.6,0.8
1139.0,39.6,39.3,39.8,39.5,0.3
1143.25,39.0,40.4,39.6,39.6,0.7
1147.5,39.5,41.8,38.6,40.0,1.7
1151.75,39.7,42.8,39.3,40.6,1.9
1156.0,37.9,42.5,40.6,40.4,2.3
1160.25,38.8,40.9,39.8,39.8,1.1
1164.5,38.1,39.3,39.1,38.8,0.7
1168.75,37.9,40.2,38.1,38.7,1.3
1173.0,36.7,40.8,39.1,38.8,2.0
1177.25,36.3,41.9,38.4,38.9,2.8
1181.5,36.6,40.7,38.2,38.5,2.1
1185.75,37.9,38.9,38.7,38.5,0.5
1190.0,37.1,38.5,38.1,37.9,0.7
1194.25,37.4,39.3,38.0,38.2,1.0
1198.5,38.3,38.7,37.5,38.1,0.6
1202.75,38.2,37.8,36.5,37.5,0.9
1207.0,37.0,38.0,37.1,37.3,0.6
1211.25,36.6,37.9,38.7,37.7,1.1
1215.5,36.1,38.5,37.7,37.4,1.2
1219.75,36.2,38.5,36.3,37.0,1.3
1224.0,36.8,38.0,37.0,37.3,0.7
1228.25,36.9,38.8,36.6,37.4,1.2
1232.5,36.9,38.8,37.1,37.6,1.0
1236.75,36.7,38.3,37.6,37.5,0.8
1241.0,36.5,38.0,37.5,37.3,0.8
1245.25,36.2,38.3,37.1,37.2,1.0
1249.5,36.0,37.0,37.3,36.7,0.7
1253.75,36.3,38.4,36.5,37.0,1.2
1258.0,37.3,37.9,36.6,37.3,0.7
1259.75,36.8,37.9,36.5,37.1,0.7