File: 01_Data/Particleboard/Cone/Particleboard_Cone_HF75Scan_230705_R2.csv
Names,Time,Stack TC,Smoke TC,Exh Press,Smoke Comp,Smoke Meas,CO Meter,CO2 Meter,O2 Meter,Sample Mass,Ext Coeff,Start Test,Flame Verif
Chan Gain,,500,500,1,1,1,1,1,1,1,1,1.0,1.0
Offset,,0,0,0.138104,0,0,0,0,0,0,0,0.0,0.0
Gain,,1,1,25.011,12.7954,17.7121,1,1,1,1.00088,0.812795,1.0,1.0
Units,sec,C,C,Pa,%,%,%,%,%,g,/m,,
Baseline,,68.6025,71.7374,158.888,99.2081,98.972,0.000171474,0.0430051,20.9295,-448.031,0.0169954,,
58,14.25,68.2779,71.3249,153.964,99.8243,96.8792,0.000218878,0.0472761,20.9233,207.392,0.213515,0.0,1.0
116,28.75,79.606,97.3224,129.553,99.8884,88.0281,0.001309,0.246158,20.8626,204.78,0.901189,0.0,0.0
174,43.25,96.9346,123.929,130.733,99.9782,82.2747,0.00673793,0.838198,20.0231,200.926,1.38952,0.0,0.0
232,57.75,105.752,131.288,130.282,100.07,82.9222,0.0100417,0.846547,19.8865,196.993,1.34019,0.0,0.0
290,72.25,110.075,131.301,136.562,100.146,85.1519,0.00992718,0.719923,20.0524,193.51,1.15643,0.0,0.0
348,86.75,110.749,128.057,136.427,100.213,87.6448,0.00806538,0.612513,20.1772,190.487,0.955421,0.0,0.0
406,101.25,109.399,124.04,133.848,100.217,90.2826,0.00680746,0.523035,20.3057,187.885,0.744312,0.0,0.0
464,115.75,108.213,120.956,138.535,100.169,90.1188,0.00561681,0.459296,20.3948,185.553,0.753812,0.0,0.0
522,130.25,107.283,118.024,142.138,99.9786,93.2312,0.00453135,0.420531,20.4441,183.131,0.498184,0.0,0.0
580,144.75,105.783,115.556,139.139,99.7287,92.5274,0.0046265,0.392948,20.493,181.029,0.534364,0.0,0.0
638,159.25,105.254,114.982,144.798,99.5901,92.4815,0.00401203,0.378399,20.5086,179.067,0.527988,0.0,0.0
696,173.75,103.924,112.867,141.849,99.4909,93.535,0.00399231,0.355535,20.5338,176.955,0.440125,0.0,0.0
754,188.25,103.327,112.201,140.365,99.4495,93.595,0.00339844,0.347874,20.5432,174.964,0.432586,0.0,0.0
812,202.75,102.726,111.908,142.805,99.501,93.8042,0.00327205,0.348607,20.5465,173.042,0.420363,0.0,0.0
870,217.25,102.641,111.153,144.814,99.5135,94.6133,0.00295426,0.336403,20.559,171.12,0.360019,0.0,0.0
928,231.75,101.921,110.56,142.844,99.4963,94.6106,0.00291919,0.328679,20.5707,169.289,0.358992,0.0,0.0
986,246.25,101.383,109.324,140.494,99.5217,95.4452,0.00259618,0.319133,20.5839,167.507,0.298192,0.0,0.0
1044,260.75,101.053,109.217,141.355,99.5042,94.8382,0.00212344,0.310463,20.5932,165.815,0.342423,0.0,0.0
1102,275.25,100.149,108.736,147.4,99.4311,96.5873,0.00193421,0.302054,20.6033,164.034,0.206888,0.0,0.0
1160,289.75,100.191,107.497,143.544,99.5557,96.3938,0.00170107,0.294453,20.614,162.473,0.230114,0.0,0.0
1218,304.25,99.2934,107.24,142.07,99.7381,96.8019,0.00196352,0.287631,20.6216,160.911,0.21304,0.0,0.0
1276,318.75,98.9956,106.418,142.467,99.7798,97.3976,0.00145947,0.28362,20.6293,159.33,0.172287,0.0,0.0
1334,333.25,98.7301,106.127,140.419,99.7662,97.5468,0.00176095,0.278201,20.64,157.698,0.160398,0.0,0.0
1392,347.75,98.2515,105.803,149.325,99.6986,97.2554,0.00169587,0.272279,20.6437,156.287,0.176895,0.0,0.0
1450,362.25,97.6721,105.243,143.846,99.6389,97.0479,0.0015409,0.270892,20.6468,154.766,0.187854,0.0,0.0
1508,376.75,97.5595,104.642,146,99.5764,95.9333,0.00155604,0.268946,20.6506,153.314,0.26574,0.0,0.0
1566,391.25,97.4803,104.406,142.454,99.6092,96.2944,0.00138008,0.266532,20.6505,151.763,0.241304,0.0,0.0
1624,405.75,97.3607,104.511,145.449,99.6283,95.3133,0.00145891,0.274644,20.6432,150.252,0.315685,0.0,0.0
1682,420.25,97.3631,104.785,143.926,99.7299,97.1792,0.00152586,0.276712,20.647,148.871,0.184719,0.0,0.0
1740,434.75,97.319,104.937,147.628,99.7939,96.5214,0.00150277,0.280388,20.6432,147.409,0.237722,0.0,0.0
1798,449.25,97.425,104.844,145.051,99.8306,96.7846,0.00191757,0.28339,20.6355,145.808,0.220926,0.0,0.0
1856,463.75,97.5548,105.378,142.754,99.8447,96.3236,0.00175462,0.288876,20.6301,144.287,0.255976,0.0,0.0
1914,478.25,98.3093,105.82,144.306,99.7197,95.8084,0.00204367,0.295795,20.6224,142.785,0.285279,0.0,0.0
1972,492.75,98.263,105.938,148.855,99.5202,96.5657,0.00184815,0.29839,20.6148,141.194,0.214866,0.0,0.0
2030,507.25,98.2617,105.805,148.619,99.5807,95.7112,0.0017803,0.299629,20.6123,139.703,0.282578,0.0,0.0
2088,521.75,98.0313,106.038,142.397,99.5897,95.0279,0.00191164,0.302082,20.6089,138.111,0.334299,0.0,0.0
2146,536.25,98.6779,106.581,141.016,99.5709,94.8631,0.00219702,0.307385,20.6038,136.56,0.345337,0.0,0.0
2204,550.75,99.0462,106.382,146.154,99.6053,95.6371,0.00236259,0.305124,20.6019,134.948,0.289857,0.0,0.0
2262,565.25,98.5018,106.361,145.187,99.7025,94.1177,0.00211769,0.307109,20.6013,133.387,0.410997,0.0,0.0
2320,579.75,98.8067,106.183,147.8,99.8899,95.496,0.00216019,0.305805,20.6047,131.866,0.32073,0.0,0.0
2378,594.25,98.7432,105.988,143.243,100.051,95.102,0.00210068,0.304354,20.6086,130.354,0.361712,0.0,0.0
2436,608.75,98.5455,105.582,146.674,100.092,95.8403,0.00207361,0.300476,20.6126,128.903,0.309464,0.0,0.0
2494,623.25,98.4076,105.469,145.58,100.163,96.3079,0.00178446,0.29685,20.6134,127.472,0.279798,0.0,0.0
2552,637.75,98.22,104.949,148.657,100.253,95.4095,0.0019416,0.292545,20.6183,126.021,0.353035,0.0,0.0
2610,652.25,97.96,104.994,142.742,100.417,96.1717,0.0021542,0.287961,20.6262,124.599,0.307989,0.0,0.0
2668,666.75,97.675,105.092,146.443,100.483,96.5198,0.00160078,0.281579,20.6285,123.288,0.286941,0.0,0.0
2726,681.25,97.7452,104.134,147.471,100.5,96.3349,0.00189399,0.277983,20.6377,121.937,0.301773,0.0,0.0
2784,695.75,97.3599,104.704,143.663,100.469,96.5782,0.00145475,0.27871,20.6361,120.566,0.281632,0.0,0.0
2842,710.25,97.2158,105.261,145.324,100.329,96.209,0.0015298,0.275773,20.6389,119.275,0.298957,0.0,0.0
2900,724.75,97.6763,104.812,145.986,100.073,94.9187,0.00178381,0.276845,20.6418,118.024,0.377049,0.0,0.0
2958,739.25,97.6162,104.759,146.118,99.7474,94.8852,0.00170898,0.276428,20.639,116.732,0.356298,0.0,0.0
3016,753.75,97.6008,104.31,143.1,99.4221,95.0955,0.00181833,0.275583,20.6373,115.371,0.317228,0.0,0.0
3074,768.25,97.6163,104.552,145.364,99.2054,95.1312,0.00174411,0.272019,20.6414,114.21,0.298995,0.0,0.0
3132,782.75,97.2583,103.926,148.19,99.1008,96.0755,0.00190703,0.272575,20.6391,112.899,0.221047,0.0,0.0
3190,797.25,96.4674,103.704,143.137,99.1316,94.8852,0.00181342,0.267181,20.6504,111.768,0.312146,0.0,0.0
3248,811.75,96.7136,103.318,147.631,99.2894,93.8717,0.00149507,0.263337,20.6503,110.637,0.400048,0.0,0.0
3306,826.25,96.4739,103.446,150.166,99.3792,94.8166,0.00163924,0.260939,20.6509,109.506,0.335089,0.0,0.0
3364,840.75,96.0673,102.267,144.14,99.4542,94.7425,0.0019273,0.25176,20.6605,108.435,0.346036,0.0,0.0
3422,855.25,95.7267,102.141,146.355,99.6041,95.5641,0.00160491,0.242883,20.6708,107.384,0.295216,0.0,0.0
3480,869.75,95.5399,101.661,144.292,99.7935,95.9095,0.00180733,0.23872,20.6755,106.393,0.283036,0.0,0.0
3538,884.25,94.5651,99.9683,147.894,100.009,96.7241,0.00142901,0.221164,20.6912,105.613,0.238093,0.0,0.0
3596,898.75,92.7363,96.6333,148.906,100.19,98.5322,0.00174491,0.178414,20.7248,105.102,0.11895,0.0,0.0
3654,913.25,90.4558,93.9679,153.505,100.298,99.683,0.00175006,0.134433,20.7879,104.862,0.043855,0.0,0.0
3712,927.75,88.3146,91.0078,154.643,100.372,99.5441,0.00239928,0.122525,20.8101,104.592,0.05907,0.0,0.0
3770,942.25,87.0806,90.293,147.632,100.376,99.3862,0.0023072,0.11852,20.8188,104.382,0.0706617,0.0,0.0
3828,956.75,85.8857,89.0852,151.318,100.336,99.3559,0.00273239,0.116655,20.8196,104.151,0.0700036,0.0,0.0
3886,971.25,85.0051,88.3399,157.876,100.273,97.8252,0.00313429,0.112207,20.8239,103.881,0.176183,0.0,0.0
3944,985.75,83.9757,87.5286,152.896,100.132,99.2451,0.00339789,0.113953,20.8227,103.661,0.0634047,0.0,0.0
4002,1000.25,84.4584,87.5144,153.28,99.9739,99.0149,0.003608,0.111537,20.8279,103.501,0.068725,0.0,0.0
4060,1014.75,83.4288,86.8208,151.176,99.7869,98.8949,0.00422963,0.112686,20.8259,103.341,0.0640196,0.0,0.0
4118,1029.25,82.1468,86.2882,152.085,99.6436,98.4608,0.00381984,0.107581,20.8369,103.12,0.0851335,0.0,0.0
4176,1043.75,82.1833,86.055,154.299,99.5846,98.9603,0.00532431,0.108873,20.8327,103.02,0.0448382,0.0,0.0
4234,1058.25,82.1695,85.6316,150.931,99.6174,98.8046,0.00560073,0.107635,20.834,102.83,0.0584116,0.0,0.0
4292,1072.75,81.5549,85.4605,155.733,99.6244,99.0646,0.00553328,0.106408,20.8358,102.72,0.0401778,0.0,0.0
4350,1087.25,81.717,85.0179,152.04,99.6853,98.6035,0.00624187,0.105316,20.8391,102.44,0.0777962,0.0,0.0
4408,1101.75,81.257,85.0955,151.769,99.7482,98.8046,0.00699485,0.107179,20.8376,102.23,0.0677679,0.0,0.0
4466,1116.25,80.7082,84.2899,154.01,99.8579,99.2587,0.00815454,0.106412,20.8396,102.16,0.0429173,0.0,0.0
4524,1130.75,80.5338,84.1572,157.687,99.9036,99.1597,0.00861912,0.103087,20.8438,101.929,0.0532869,0.0,0.0
4582,1145.25,80.1283,83.8058,156.22,99.9388,99.183,0.00923019,0.101388,20.8446,101.789,0.0541237,0.0,0.0
4640,1159.75,79.9526,83.5079,156.551,99.9212,98.9349,0.00983932,0.106311,20.8409,101.619,0.0707273,0.0,0.0
4698,1174.25,79.766,83.3439,155.482,99.8193,98.5641,0.011341,0.10173,20.8413,101.549,0.0902237,0.0,0.0
4756,1188.75,79.2326,83.1011,155.811,99.6572,98.7495,0.0115811,0.104,20.8426,101.469,0.06524,0.0,0.0
4814,1203.25,78.5289,83.0074,155.586,99.7548,98.6943,0.0122007,0.103663,20.8465,101.269,0.0762037,0.0,0.0
4872,1217.75,78.8684,82.5533,158.127,99.8685,99.0722,0.0126825,0.101288,20.8486,101.079,0.057077,0.0,0.0
4930,1232.25,78.4779,82.6834,152.388,99.9473,99.3976,0.0133654,0.100009,20.8472,100.848,0.0393275,0.0,0.0
4988,1246.75,78.6247,82.1949,151.427,100.012,99.0187,0.0135103,0.0994511,20.8464,100.748,0.0711809,0.0,0.0
5046,1261.25,78.0053,82.3303,154.766,100.117,99.1824,0.0140219,0.0982798,20.8485,100.488,0.0668821,0.0,0.0
5104,1275.75,78.5173,82.0598,153.094,100.228,99.3214,0.0145425,0.0989391,20.8471,100.328,0.0647692,0.0,0.0
5162,1290.25,76.4963,80.8829,153.653,100.318,99.2597,0.0145263,0.0987843,20.847,100.308,0.0755789,0.0,0.0
5220,1304.75,77.1709,81.2897,156.381,100.38,100.314,0.0148437,0.0990174,20.8451,100.148,0.00466802,0.0,0.0
5278,1319.25,77.3477,81.4985,150.899,100.479,98.9549,0.0156854,0.0986789,20.8481,99.9177,0.108991,0.0,0.0
5336,1333.75,77.3518,81.1615,151.286,100.555,99.7673,0.0157094,0.0982641,20.8505,99.7875,0.0560407,0.0,0.0
5394,1348.25,77.0833,80.7991,155.414,100.585,99.57,0.0156278,0.0981388,20.8508,99.6274,0.0723126,0.0,0.0
5452,1362.75,77.2987,81.0731,154.334,100.614,99.4268,0.0162086,0.0968099,20.8513,99.4873,0.0846246,0.0,0.0
5510,1377.25,76.7317,80.586,157.33,100.571,100.08,0.016787,0.0967911,20.8526,99.3472,0.0348725,0.0,0.0
5568,1391.75,76.0638,80.5392,152.72,100.471,99.7413,0.0171808,0.0977121,20.8505,99.2371,0.0519673,0.0,0.0
5596,1398.75,76.4683,80.4872,155.354,100.415,99.5251,0.0165647,0.0967306,20.8504,99.0869,0.0634485,0.0,0.0