File: 01_Data/Particleboard/Cone/Particleboard_Cone_HF50Scan_230705_R1.csv
Names,Time,Stack TC,Smoke TC,Exh Press,Smoke Comp,Smoke Meas,CO Meter,CO2 Meter,O2 Meter,Sample Mass,Ext Coeff,Start Test,Flame Verif
Chan Gain,,500,500,1,1,1,1,1,1,1,1,1.0,1.0
Offset,,0,0,0.138104,0,0,0,0,0,0,0,0.0,0.0
Gain,,1,1,25.011,13.0138,27.5369,1,1,1,1.00088,0.812795,1.0,1.0
Units,sec,C,C,Pa,%,%,%,%,%,g,/m,,
Baseline,,56.6824,59.6129,165.209,101.066,101.86,0.000538974,0.0439837,20.9298,-446.096,-0.0556387,,
59,14.5,55.2928,57.8096,165.077,100.293,100.465,0.000549219,0.0488325,20.9273,207.752,-0.0121972,0.0,0.0
118,29.25,55.9301,58.6753,162.266,99.7943,96.6404,0.000659875,0.0452304,20.9307,207.342,0.22897,0.0,0.0
177,44,59.4902,68.8875,150.605,99.5798,100.7,0.000829419,0.0578551,20.931,206.031,-0.0797648,0.0,0.0
236,58.75,72.1569,90.9479,136.234,99.4444,99.5841,0.00357085,0.456894,20.4849,203.288,-0.0100116,0.0,0.0
295,73.5,82.1386,103.18,138.585,99.4281,94.8285,0.00599542,0.622119,20.2386,200.156,0.337698,0.0,0.0
354,88.25,88.0316,107.827,137.356,99.548,95.4134,0.00671366,0.604838,20.232,197.183,0.302453,0.0,0.0
413,103,90.0941,105.971,146.746,99.8376,97.2353,0.0067303,0.532853,20.3144,194.421,0.1883,0.0,0.0
472,117.75,89.7382,102.562,147.958,100.22,98.332,0.00616919,0.460409,20.4094,192.008,0.135598,0.0,0.0
531,132.5,89.4493,100.321,141.374,100.504,98.911,0.00562892,0.406916,20.4758,189.766,0.113912,0.0,0.0
590,147.25,88.462,97.416,149.037,100.682,101.609,0.00477335,0.363034,20.5367,187.725,-0.0654072,0.0,0.0
649,162,87.4642,94.9153,148.247,100.572,101.788,0.00405573,0.335549,20.5704,185.793,-0.0856944,0.0,0.0
708,176.75,85.9741,93.1674,150.679,100.175,99.9043,0.00330652,0.317408,20.5975,183.961,0.0193031,0.0,0.0
767,191.5,85.2396,92.235,150.18,100.008,102.473,0.00293146,0.300969,20.6171,182.29,-0.173656,0.0,0.0
826,206.25,83.9736,91.1383,151.133,100.603,102.144,0.00269565,0.28713,20.6318,180.598,-0.108354,0.0,0.0
885,221,83.5317,89.8663,150.309,100.783,102.824,0.00227507,0.275989,20.6441,179.027,-0.142913,0.0,0.0
944,235.75,82.7476,88.661,152.158,100.397,102.294,0.00236597,0.269576,20.6555,177.496,-0.133469,0.0,0.0
1003,250.5,82.2899,88.6352,152.633,100.554,101.513,0.00244213,0.265208,20.6614,175.984,-0.0676562,0.0,0.0
1062,265.25,82.07,87.6766,148.668,100.889,102.174,0.00233747,0.25863,20.6695,174.463,-0.0902571,0.0,0.0
1121,280,81.5321,87.5389,151.404,101.195,105.573,0.00234468,0.255753,20.6701,173.002,-0.302021,0.0,0.0
1180,294.75,81.0893,86.7147,153.165,101.282,102.353,0.0020304,0.247365,20.6812,171.48,-0.0749769,0.0,0.0
1239,309.5,80.9159,86.3829,153.858,101.095,104.167,0.00206004,0.242831,20.686,170.129,-0.213376,0.0,0.0
1298,324.25,79.9464,85.865,153.01,100.688,103.418,0.00192593,0.235082,20.6976,168.738,-0.190737,0.0,0.0
1357,339,79.7862,85.6406,156.498,100.152,103.63,0.00151248,0.229572,20.7044,167.467,-0.243447,0.0,0.0
1416,353.75,79.2096,84.9069,154.002,99.718,103.256,0.00131189,0.223671,20.7127,166.246,-0.248555,0.0,0.0
1475,368.5,78.8207,84.1629,156.06,99.5262,102.844,0.00151126,0.218817,20.7183,164.925,-0.233794,0.0,0.0
1534,383.25,78.7176,83.44,153.293,99.7268,103.32,0.00133142,0.212324,20.7254,163.754,-0.252339,0.0,0.0
1593,398,78.1369,82.7591,157.707,100.168,103.75,0.00168231,0.206035,20.7352,162.573,-0.250493,0.0,0.0
1652,412.75,77.5866,82.3828,150.902,100.597,103.782,0.00159618,0.201193,20.7404,161.442,-0.222251,0.0,0.0
1711,427.5,77.6728,82.034,155.288,100.76,103.519,0.00159895,0.198113,20.7438,160.221,-0.19257,0.0,0.0
1770,442.25,77.4203,81.8839,154.321,100.685,104.029,0.00144154,0.197201,20.7509,159.13,-0.23293,0.0,0.0
1829,457,77.3003,81.5592,153.117,100.404,105.099,0.00160843,0.19656,20.7506,158.029,-0.325842,0.0,0.0
1888,471.75,76.5934,81.3219,151.204,100.088,103.17,0.0014804,0.197655,20.7472,156.918,-0.216246,0.0,0.0
1947,486.5,76.5431,81.1066,155.11,100.321,103.796,0.00177069,0.19562,20.7481,155.827,-0.242794,0.0,0.0
2006,501.25,76.3268,81.3586,154.526,100.754,103.885,0.0018039,0.196682,20.7502,154.766,-0.218182,0.0,0.0
2065,516,76.3838,80.8872,154.759,100.793,103.866,0.00171927,0.196506,20.7478,153.735,-0.214102,0.0,0.0
2124,530.75,76.4311,81.082,155.248,100.402,103.542,0.00172214,0.199687,20.7462,152.644,-0.219612,0.0,0.0
2183,545.5,76.5034,80.9992,157.312,100.751,103.357,0.00170708,0.199845,20.7452,151.553,-0.182066,0.0,0.0
2242,560.25,77.0926,81.5498,152.052,101.15,104.893,0.00191612,0.203834,20.7401,150.432,-0.259064,0.0,0.0
2301,575,76.2878,81.7022,153.204,101.343,104.652,0.0018445,0.202965,20.7394,149.271,-0.229089,0.0,0.0
2360,589.75,76.7392,81.5662,160.041,101.205,104.196,0.00172211,0.207574,20.7355,148.2,-0.207691,0.0,0.0
2419,604.5,76.6515,82.1734,156.381,100.862,104.858,0.00154053,0.213455,20.7319,146.999,-0.277019,0.0,0.0
2478,619.25,76.7281,82.6686,160.114,100.316,104.099,0.00155289,0.215277,20.7276,145.898,-0.263941,0.0,0.0
2537,634,76.9446,82.9122,153.521,99.8284,101.593,0.00143682,0.218708,20.724,144.717,-0.124955,0.0,0.0
2596,648.75,77.4808,83.0045,151.224,99.6473,103.348,0.00181576,0.222467,20.719,143.656,-0.259991,0.0,0.0
2655,663.5,77.7619,83.0327,154.948,99.6763,104.08,0.0016537,0.224365,20.7166,142.455,-0.308236,0.0,0.0
2714,678.25,78.1083,83.3634,148.566,99.7637,103.508,0.00172476,0.228521,20.7116,141.254,-0.262677,0.0,0.0
2773,693,77.7893,83.4226,152.736,99.9531,102.855,0.00170705,0.231649,20.7103,140.043,-0.204032,0.0,0.0
2832,707.75,78.5272,84.0329,154.893,100.231,104.05,0.00167182,0.23401,20.7065,138.812,-0.266587,0.0,0.0
2891,722.5,78.6202,84.5115,151.259,100.485,103.796,0.00144266,0.239402,20.7006,137.501,-0.231118,0.0,0.0
2950,737.25,79.1715,85.0801,151.588,100.652,103.762,0.00182194,0.242195,20.6954,136.26,-0.216983,0.0,0.0
3009,752,79.2417,85.1545,150.753,100.829,103.988,0.00247077,0.245475,20.6929,135.008,-0.219905,0.0,0.0
3068,766.75,79.1064,85.738,153.509,100.874,103.401,0.00186647,0.250301,20.6876,133.737,-0.176401,0.0,0.0
3127,781.5,79.6199,85.726,151.559,100.789,103.938,0.00148267,0.248753,20.6883,132.536,-0.219342,0.0,0.0
3186,796.25,79.6784,86.0197,150.466,100.585,104.74,0.00184644,0.248403,20.6849,131.295,-0.288551,0.0,0.0
3245,811,80.1269,85.5102,154.945,100.331,102.872,0.00186875,0.251343,20.6843,130.004,-0.178337,0.0,0.0
3304,825.75,79.9046,85.4401,150.44,100.123,103.82,0.0019885,0.248971,20.6841,128.763,-0.258537,0.0,0.0
3363,840.5,79.7679,85.5644,153.413,100.474,103.291,0.00166233,0.251499,20.681,127.462,-0.197158,0.0,0.0
3422,855.25,80.2645,85.6709,150.745,100.829,103.505,0.00173187,0.254016,20.6833,126.231,-0.186784,0.0,0.0
3481,870,80.2723,86.4426,153.118,100.856,103.762,0.00203434,0.256943,20.6816,124.91,-0.202538,0.0,0.0
3540,884.75,80.5314,86.2035,149.757,100.728,104.128,0.00179615,0.255709,20.6768,123.608,-0.236658,0.0,0.0
3599,899.5,80.3325,86.3923,152.12,100.506,102.616,0.00197577,0.256467,20.6773,122.387,-0.148143,0.0,0.0
3658,914.25,80.6212,86.4035,155.463,100.784,102.996,0.00218925,0.258371,20.6746,121.166,-0.15482,0.0,0.0
3717,929,80.7449,86.7534,149.932,101.076,103.458,0.00179009,0.259456,20.6721,119.915,-0.166095,0.0,0.0
3776,943.75,80.5923,87.2662,148.402,101.289,103.917,0.00167917,0.255743,20.676,118.674,-0.182618,0.0,0.0
3835,958.5,80.4074,86.7819,147.71,101.427,103.606,0.00187224,0.257242,20.674,117.413,-0.15153,0.0,0.0
3894,973.25,81.0264,86.7002,152.807,101.378,104.73,0.00181655,0.26002,20.6678,116.182,-0.231953,0.0,0.0
3953,988,81.0204,87.1003,147.967,101.162,103.464,0.0019117,0.260721,20.6708,115.011,-0.160451,0.0,0.0
4012,1002.75,81.3233,87.4493,158.182,101.031,103.781,0.00200316,0.259299,20.6688,113.73,-0.191465,0.0,0.0
4071,1017.5,81.1763,87.1512,149.288,100.899,103.081,0.00210891,0.258093,20.671,112.499,-0.15255,0.0,0.0
4130,1032.25,80.793,86.9765,150.415,100.82,102.992,0.00197245,0.254858,20.6732,111.358,-0.151973,0.0,0.0
4189,1047,80.9345,86.7145,150.856,100.628,102.969,0.00206685,0.24991,20.678,110.217,-0.163981,0.0,0.0
4248,1061.75,80.693,86.2074,150.386,100.458,103.696,0.00206653,0.247095,20.6793,109.146,-0.226162,0.0,0.0
4307,1076.5,80.5007,85.5109,152.058,100.16,102.955,0.00190425,0.24147,20.6836,108.105,-0.196245,0.0,0.0
4366,1091.25,80.314,85.7574,152.903,99.9635,102.658,0.00232665,0.235434,20.6882,107.184,-0.189651,0.0,0.0
4425,1106,79.7502,84.406,153.565,99.8503,100.625,0.00186672,0.222923,20.7028,106.263,-0.0551291,0.0,0.0
4484,1120.75,78.4429,82.7264,160.531,99.7502,103.206,0.00196338,0.201866,20.7219,105.623,-0.242831,0.0,0.0
4543,1135.5,77.0714,79.5147,155.151,99.8133,104.52,0.00266323,0.161125,20.7663,105.212,-0.328543,0.0,0.0
4602,1150.25,75.0142,77.727,156.505,99.9742,104.143,0.00345542,0.136369,20.7974,104.872,-0.291277,0.0,0.0
4661,1165,73.9613,75.4268,161.518,100.158,104.51,0.0046291,0.123423,20.8201,104.532,-0.303301,0.0,0.0
4720,1179.75,72.578,74.3401,159.282,100.382,104.012,0.00557056,0.117927,20.8271,104.271,-0.25324,0.0,0.0
4779,1194.5,70.8808,73.2981,161.436,100.61,104.913,0.00606139,0.11183,20.8362,103.971,-0.298553,0.0,0.0
4838,1209.25,69.6977,71.7931,154.502,100.781,105.406,0.00660727,0.110502,20.8436,103.771,-0.319934,0.0,0.0
4897,1224,68.8413,70.9174,157.611,100.926,105.043,0.00664366,0.113713,20.8431,103.601,-0.28506,0.0,0.0
4956,1238.75,68.2278,70.1891,162.415,101.003,104.136,0.00741464,0.113014,20.8364,103.441,-0.217807,0.0,0.0
5015,1253.5,67.965,69.906,160.289,100.979,103.385,0.00760341,0.105499,20.8496,103.241,-0.167866,0.0,0.0
5074,1268.25,67.1937,69.4367,163.065,100.894,104.349,0.00810493,0.10376,20.8506,103.05,-0.240034,0.0,0.0
5133,1283,66.6354,68.8451,155.728,100.79,104.604,0.00802988,0.101561,20.8547,102.85,-0.264767,0.0,0.0
5192,1297.75,65.8052,67.6637,160.12,100.598,104.138,0.00858162,0.101308,20.8571,102.66,-0.246575,0.0,0.0
5251,1312.5,65.6009,67.7697,162.802,100.395,104.603,0.00884863,0.100442,20.8586,102.4,-0.292747,0.0,0.0
5310,1327.25,64.9949,67.1469,159.958,100.244,102.878,0.00862934,0.0988246,20.8634,102.18,-0.184956,0.0,0.0
5369,1342,63.9871,66.7836,164.392,100.303,104.469,0.00849093,0.0983502,20.8627,101.989,-0.290152,0.0,0.0
5428,1356.75,64.6134,66.8139,163.545,100.464,103.499,0.00842161,0.0988401,20.8623,101.879,-0.212234,0.0,0.0
5487,1371.5,64.151,67.0127,160.216,100.592,105.105,0.00856325,0.0986478,20.8646,101.659,-0.312942,0.0,0.0
5546,1386.25,64.1724,66.6764,161.488,100.658,105.119,0.00853687,0.0981678,20.8643,101.629,-0.309155,0.0,0.0
5605,1401,63.874,66.6099,161.733,100.647,105.043,0.00853697,0.0977043,20.8644,101.469,-0.304811,0.0,0.0
5612,1402.75,64.0416,66.847,161.972,100.649,105.635,0.00847831,0.0978913,20.8646,101.359,-0.344713,0.0,0.0