File: 01_Data/Particleboard/Cone/Particleboard_Cone_HF75Scan_230705_R3.csv
Names,Time,Stack TC,Smoke TC,Exh Press,Smoke Comp,Smoke Meas,CO Meter,CO2 Meter,O2 Meter,Sample Mass,Ext Coeff,Start Test,Flame Verif
Chan Gain,,500,500,1,1,1,1,1,1,1,1,1.0,1.0
Offset,,0,0,0.18266,0,0,0,0,0,0,0,0.0,0.0
Gain,,1,1,25.011,12.9763,53.2187,1,1,1,1.00092,0.871134,1.0,1.0
Units,sec,C,C,Pa,%,%,%,%,%,g,/m,,
Baseline,,62.2781,66.016,170.21,98.7179,102.66,0.000581308,0.0468603,20.9434,-446.18,-0.298976,,
59,14.5,60.8557,64.7642,166.782,98.6985,97.2353,0.000836622,0.0531289,20.9363,207.922,0.114135,0.0,0.0
118,29.25,72.7145,89.8452,142.956,98.7389,99.4879,0.00177539,0.23261,20.8379,205.179,-0.0577481,0.0,0.0
177,44,90.5273,116.967,135.801,98.7294,93.7386,0.0068952,0.835227,20.0687,201.095,0.396389,0.0,0.0
236,58.75,99.58,125.411,134.9,98.7112,91.9894,0.00952121,0.837956,19.9579,197.051,0.538916,0.0,0.0
295,73.5,104.195,125.8,147.002,98.7144,94.7277,0.00955644,0.743728,20.0719,193.478,0.315017,0.0,0.0
354,88.25,104.567,122.04,145.543,98.7698,96.5126,0.00862909,0.6181,20.2199,190.475,0.176662,0.0,0.0
413,103,103.807,117.873,152.925,99.0549,97.4643,0.00758678,0.519259,20.3515,187.663,0.123705,0.0,0.0
472,117.75,102.018,114.256,154.345,99.5107,99.4619,0.00622891,0.456342,20.4278,185.151,0.0037476,0.0,0.0
531,132.5,100.437,110.844,149.506,99.9515,101.19,0.00536895,0.421013,20.4792,182.738,-0.0941052,0.0,0.0
590,147.25,98.6094,108.68,148.37,100.013,100.641,0.00504896,0.394902,20.5146,180.426,-0.0478161,0.0,0.0
649,162,98.3312,106.611,154.954,99.6945,100.464,0.00411019,0.377817,20.5341,178.244,-0.0587583,0.0,0.0
708,176.75,97.3307,105.335,157.83,99.9214,101.388,0.00364183,0.362477,20.5524,176.072,-0.111355,0.0,0.0
767,191.5,96.6948,105.388,155.544,100.292,101.198,0.00400634,0.357811,20.5645,173.99,-0.0687561,0.0,0.0
826,206.25,95.8616,104.674,149.692,100.068,100.987,0.00324815,0.349441,20.5733,171.958,-0.0698633,0.0,0.0
885,221,95.8487,104.488,153.508,100.671,102.98,0.00309019,0.346494,20.5741,169.917,-0.173297,0.0,0.0
944,235.75,95.8337,104.536,151.33,100.537,102.444,0.00305506,0.340838,20.582,168.005,-0.143591,0.0,0.0
1003,250.5,95.7688,104.468,152.906,99.4561,102.687,0.00269325,0.335431,20.5879,166.083,-0.244326,0.0,0.0
1062,265.25,95.592,104.036,151.192,98.7983,103.881,0.00252085,0.326768,20.5986,164.231,-0.383351,0.0,0.0
1121,280,95.3569,103.392,151.982,99.3278,103.282,0.00198586,0.31364,20.6167,162.52,-0.298297,0.0,0.0
1180,294.75,94.3561,102.069,158.972,99.9368,103.751,0.0019282,0.300281,20.6343,160.738,-0.286233,0.0,0.0
1239,309.5,93.6207,100.73,155.372,100.007,104.029,0.00200576,0.287957,20.6477,159.157,-0.301302,0.0,0.0
1298,324.25,92.5444,99.674,154.314,99.7012,103.974,0.00182843,0.281442,20.6577,157.555,-0.320641,0.0,0.0
1357,339,93.1672,99.7933,155.195,99.4596,103.836,0.00176691,0.279479,20.6614,156.044,-0.329025,0.0,0.0
1416,353.75,92.7933,99.5092,155.176,99.7875,104.277,0.00167608,0.275632,20.6676,154.462,-0.336315,0.0,0.0
1475,368.5,92.5428,99.4247,157.15,100.19,104.386,0.0018923,0.273471,20.6725,152.911,-0.313537,0.0,0.0
1534,383.25,91.8077,98.2005,151.21,100.268,104.378,0.0016505,0.27301,20.6716,151.419,-0.306965,0.0,0.0
1593,398,92.0602,97.875,151.508,99.8002,104.331,0.00200422,0.268366,20.6741,149.908,-0.339272,0.0,0.0
1652,412.75,91.1029,97.8075,157.446,100.319,106.766,0.00149896,0.275311,20.6691,148.447,-0.475949,0.0,0.0
1711,427.5,91.36,98.1142,149.405,100.692,104.76,0.00171784,0.275242,20.6666,146.915,-0.302661,0.0,0.0
1770,442.25,91.2873,98.4859,153.589,100.615,105.054,0.00187504,0.278509,20.6666,145.354,-0.329906,0.0,0.0
1829,457,91.1117,98.1259,155.721,100.234,105.322,0.00179442,0.278139,20.6622,143.873,-0.378332,0.0,0.0
1888,471.75,91.6451,98.3696,152.351,99.6937,103.694,0.00186095,0.283054,20.6591,142.321,-0.300659,0.0,0.0
1947,486.5,91.801,98.889,150.215,99.207,101.408,0.0019721,0.285376,20.6583,140.85,-0.167653,0.0,0.0
2006,501.25,91.3794,99.0413,154.81,98.9017,102.244,0.00193101,0.288569,20.6538,139.248,-0.253976,0.0,0.0
2065,516,91.8173,99.4803,153.026,98.7967,102.59,0.00196409,0.290635,20.6498,137.697,-0.287899,0.0,0.0
2124,530.75,92.4826,99.2958,152.677,98.9535,101.577,0.00204291,0.293383,20.6501,136.266,-0.199917,0.0,0.0
2183,545.5,92.3053,98.8796,154.777,99.207,102.824,0.00191532,0.292274,20.65,134.784,-0.273634,0.0,0.0
2242,560.25,91.9178,98.9751,148.876,99.5048,103.006,0.00203415,0.290662,20.651,133.273,-0.264236,0.0,0.0
2301,575,92.6192,99.7373,151.71,99.7226,101.006,0.00208405,0.290842,20.6511,131.771,-0.0977526,0.0,0.0
2360,589.75,92.6299,99.723,151.73,99.94,103.992,0.00201514,0.293077,20.6505,130.25,-0.303674,0.0,0.0
2419,604.5,92.661,99.5635,152.54,100.066,103.728,0.00235179,0.29516,20.6475,128.799,-0.274723,0.0,0.0
2478,619.25,92.2841,99.061,152.862,100.065,103.136,0.00210968,0.292938,20.6481,127.337,-0.230957,0.0,0.0
2537,634,92.0951,98.9146,156.211,99.9432,104.633,0.00188688,0.291207,20.6513,125.876,-0.350427,0.0,0.0
2596,648.75,92.026,98.8118,154.545,99.7705,102.666,0.00193929,0.28737,20.6566,124.485,-0.218634,0.0,0.0
2655,663.5,91.3593,98.2472,152.991,99.6418,103.777,0.00196966,0.283195,20.6595,123.033,-0.310739,0.0,0.0
2714,678.25,91.8429,98.1158,156.625,99.5634,103.071,0.00193688,0.281521,20.6622,121.722,-0.264554,0.0,0.0
2773,693,91.2338,97.7538,153.461,99.4877,103.983,0.00187557,0.277349,20.6653,120.411,-0.337734,0.0,0.0
2832,707.75,91.6701,97.9651,153.641,99.4672,101.905,0.0017262,0.278895,20.6649,119.06,-0.184997,0.0,0.0
2891,722.5,90.9991,97.5076,155.964,99.4315,101.533,0.00204184,0.274194,20.6702,117.758,-0.159795,0.0,0.0
2950,737.25,90.843,97.4955,154.3,99.3959,102.713,0.00232275,0.27836,20.663,116.467,-0.250886,0.0,0.0
3009,752,91.042,97.6972,155.792,99.4438,104.295,0.00222005,0.276398,20.6695,115.096,-0.363992,0.0,0.0
3068,766.75,90.8553,97.0576,158.769,99.4668,104.17,0.00219421,0.276073,20.6665,113.885,-0.35306,0.0,0.0
3127,781.5,90.9639,97.0531,151.811,99.624,102.549,0.00186255,0.27652,20.6696,112.664,-0.221156,0.0,0.0
3186,796.25,89.991,96.4322,159.027,99.917,103.475,0.00202459,0.272007,20.6691,111.423,-0.267384,0.0,0.0
3245,811,89.8053,96.2818,155.09,100.246,100.722,0.00192315,0.268575,20.6754,110.232,-0.0361793,0.0,0.0
3304,825.75,89.7643,95.864,153.511,100.115,102.52,0.00170673,0.265084,20.6725,109.04,-0.181405,0.0,0.0
3363,840.5,89.7815,95.8445,154.314,99.9218,103.956,0.00163091,0.262073,20.6797,107.929,-0.302441,0.0,0.0
3422,855.25,89.132,94.5826,159.284,100.363,101.771,0.00175354,0.257977,20.6817,106.808,-0.106526,0.0,0.0
3481,870,88.7819,93.7546,153.296,100.694,103.969,0.0018508,0.245479,20.6938,105.827,-0.244598,0.0,0.0
3540,884.75,87.8844,92.5369,158.47,100.613,104.284,0.0020379,0.2278,20.7057,104.987,-0.273824,0.0,0.0
3599,899.5,86.1193,89.8668,162.52,100.052,102.962,0.00184098,0.188462,20.7448,104.486,-0.219069,0.0,0.0
3658,914.25,83.956,87.1114,161.231,99.3313,103.028,0.00268254,0.142654,20.8049,104.166,-0.279255,0.0,0.0
3717,929,82.312,85.1475,161.46,98.8945,103.777,0.00331116,0.12921,20.8302,103.936,-0.368262,0.0,0.0
3776,943.75,81.0065,83.3062,161.821,99.0656,104.792,0.00343071,0.123882,20.8336,103.686,-0.429435,0.0,0.0
3835,958.5,79.6874,82.4177,161.927,99.6881,103.936,0.00385855,0.120451,20.8392,103.395,-0.318897,0.0,0.0
3894,973.25,79.517,82.3138,161.15,100.137,105.658,0.00412823,0.12212,20.8384,103.155,-0.410115,0.0,0.0
3953,988,78.8222,82.0271,163.25,99.9032,103.217,0.00464662,0.118487,20.842,102.905,-0.24935,0.0,0.0
4012,1002.75,78.557,81.0296,166.11,99.5064,103.23,0.00511293,0.117699,20.845,102.745,-0.280723,0.0,0.0
4071,1017.5,77.6464,81.0157,162.443,100.311,103.787,0.00531366,0.114683,20.8468,102.544,-0.260303,0.0,0.0
4130,1032.25,77.4184,80.4961,166.101,99.8869,103.483,0.00573478,0.113746,20.85,102.384,-0.270286,0.0,0.0
4189,1047,77.4918,80.2774,160.71,100.434,105.291,0.00703346,0.114906,20.8489,102.194,-0.360862,0.0,0.0
4248,1061.75,76.5666,79.8218,161.164,100.774,106.572,0.00724304,0.112657,20.8527,101.964,-0.427462,0.0,0.0
4307,1076.5,76.8202,80.6032,164.302,100.459,104.867,0.00784517,0.113141,20.8514,101.804,-0.328168,0.0,0.0
4366,1091.25,76.5391,79.4754,162.763,99.7495,103.571,0.00847771,0.111917,20.8529,101.654,-0.28728,0.0,0.0
4425,1106,75.971,79.3545,166.706,99.1515,103.889,0.00878152,0.109632,20.8535,101.463,-0.356676,0.0,0.0
4484,1120.75,75.823,78.9689,163.303,98.9211,102.567,0.0098042,0.108694,20.8579,101.283,-0.276594,0.0,0.0
4543,1135.5,75.2164,78.5838,165.827,99.0418,103.253,0.0102909,0.108589,20.8589,101.103,-0.318162,0.0,0.0
4602,1150.25,75.2434,78.4305,167.9,99.3095,103.748,0.0106268,0.106872,20.8599,100.973,-0.334108,0.0,0.0
4661,1165,74.6538,77.9791,162.585,99.4747,102.936,0.0115429,0.107233,20.8616,100.823,-0.261366,0.0,0.0
4720,1179.75,74.4685,77.9256,163.836,99.5986,104.216,0.0122703,0.105752,20.8621,100.673,-0.34627,0.0,0.0
4779,1194.5,74.2369,77.0413,163.77,99.6469,105.33,0.0124904,0.104274,20.8636,100.433,-0.423824,0.0,0.0
4838,1209.25,73.7874,76.7702,164.966,99.6465,104.071,0.0131966,0.104354,20.8645,100.282,-0.331989,0.0,0.0
4897,1224,73.6359,76.8055,161.367,99.6026,104.234,0.0135057,0.103267,20.8656,100.082,-0.347277,0.0,0.0
4956,1238.75,73.0611,76.6506,161.065,99.5614,103.141,0.0140755,0.102498,20.8672,99.9421,-0.269882,0.0,0.0
5015,1253.5,73.1901,76.4331,165.005,99.5052,103.576,0.0141475,0.102594,20.8655,99.7319,-0.306379,0.0,0.0
5074,1268.25,72.6842,76.0469,161.874,99.4442,102.77,0.0145807,0.101828,20.8672,99.6618,-0.2514,0.0,0.0
5133,1283,72.8437,76.1069,163.754,99.3012,102.704,0.0146198,0.10295,20.8659,99.5417,-0.257441,0.0,0.0
5192,1297.75,72.1609,75.7883,164.201,99.0668,103.719,0.0144345,0.101274,20.8689,99.3115,-0.350656,0.0,0.0
5251,1312.5,71.5434,75.424,160.946,98.908,102.444,0.014331,0.100312,20.8698,99.0913,-0.268402,0.0,0.0
5310,1327.25,71.6538,75.9882,164.244,98.9385,101.901,0.0152972,0.10343,20.8668,98.9111,-0.225476,0.0,0.0
5369,1342,71.5298,75.0893,162.764,99.1408,105.221,0.0150099,0.102606,20.8688,98.761,-0.454835,0.0,0.0
5428,1356.75,71.5962,75.4294,163.486,99.5091,104.144,0.0149401,0.102412,20.8669,98.6609,-0.347899,0.0,0.0
5487,1371.5,71.5472,75.5374,171.136,99.9491,105.292,0.0150132,0.102111,20.8672,98.5208,-0.397978,0.0,0.0
5546,1386.25,71.1344,75.1284,164.293,100.323,105.234,0.0148938,0.102978,20.8666,98.3606,-0.365237,0.0,0.0
5605,1401,71.2092,75.0703,165.885,100.589,105.273,0.0149225,0.102029,20.8683,98.2005,-0.347763,0.0,0.0
5619,1404.5,71.2922,74.6761,163.357,100.604,106.402,0.0150745,0.102646,20.8681,98.1204,-0.428147,0.0,0.0