File: 01_Data/Particleboard/Cone/Particleboard_Cone_HF25Scan_230705_R4.csv
Names,Time,Stack TC,Smoke TC,Exh Press,Smoke Comp,Smoke Meas,CO Meter,CO2 Meter,O2 Meter,Sample Mass,Ext Coeff,Start Test,Flame Verif
Chan Gain,,500,500,1,1,1,1,1,1,1,1,1.0,1.0
Offset,,0,0,0.138104,0,0,0,0,0,0,0,0.0,0.0
Gain,,1,1,25.011,12.9573,16.6386,1,1,1,1.00088,0.812795,1.0,1.0
Units,sec,C,C,Pa,%,%,%,%,%,g,/m,,
Baseline,,41.7558,43.4373,173.372,99.4901,57.5533,0.000650799,0.0446361,20.9342,-444.32,3.90254,,
74,18.25,41.2282,43.0866,175.693,100.108,58.0437,0.000684107,0.0453439,20.9367,208.373,3.88609,0.0,0.0
148,36.75,41.5055,42.9179,173.332,99.7562,57.642,0.000312418,0.0444476,20.9363,208.093,3.91052,0.0,0.0
222,55.25,41.7766,43.2433,173.51,99.7925,57.022,0.000551359,0.0451576,20.9356,207.932,3.99022,0.0,0.0
296,73.75,41.8745,43.7943,174.284,100.032,57.542,0.000461575,0.0469703,20.9346,207.792,3.9426,0.0,0.0
370,92.25,42.285,43.885,173.235,100.193,57.4572,0.000504438,0.0475087,20.9359,207.542,3.96455,0.0,0.0
444,110.75,42.3589,44.4041,171.005,100.286,57.2663,0.00100528,0.0490207,20.9345,207.312,3.99495,0.0,0.0
518,129.25,42.8695,44.4931,171.329,100.381,56.4681,0.000808018,0.0510618,20.9356,206.851,4.10177,0.0,0.0
592,147.75,44.528,49.6993,159.995,100.454,60.6744,0.00197039,0.0598275,20.9309,205.971,3.59471,0.0,1.0
666,166.25,53.4405,65.1193,154.44,100.54,58.8195,0.00288184,0.342602,20.6264,203.418,3.82214,0.0,0.0
740,184.75,59.6439,71.8807,156.432,100.513,57.1464,0.00398033,0.395027,20.5346,200.676,4.02595,0.0,0.0
814,203.25,63.077,73.6008,155.29,100.359,57.1693,0.00485085,0.37128,20.5453,197.924,4.01218,0.0,0.0
888,221.75,64.448,72.193,163.647,100.117,60.0458,0.00434199,0.322723,20.6077,195.542,3.64498,0.0,0.0
962,240.25,64.3587,72.0513,163.657,99.876,58.8718,0.00319578,0.308215,20.6247,193.23,3.76856,0.0,0.0
1036,258.75,64.641,70.842,161.708,99.5778,59.603,0.002944,0.286424,20.6423,191.218,3.65924,0.0,0.0
1110,277.25,63.801,68.7572,160.484,99.2318,59.3304,0.00254023,0.253932,20.678,189.386,3.66711,0.0,0.0
1184,295.75,62.7483,66.9847,162.742,98.8925,59.1994,0.00234746,0.227438,20.7121,187.755,3.65846,0.0,0.0
1258,314.25,61.5934,65.6328,161.759,98.6316,59.0567,0.00251919,0.214662,20.7293,186.223,3.65682,0.0,0.0
1332,332.75,60.6045,64.2794,164.063,98.598,59.9102,0.00235682,0.202878,20.7422,184.762,3.55208,0.0,0.0
1406,351.25,60.2082,63.3548,161.839,99.0104,58.3945,0.00222869,0.192792,20.7577,183.441,3.76454,0.0,0.0
1480,369.75,59.3604,62.3377,160.981,99.441,58.9246,0.00249697,0.185589,20.7664,182.11,3.73105,0.0,0.0
1554,388.25,58.7402,62.048,162.858,99.717,59.4583,0.00268641,0.179375,20.7746,180.809,3.68653,0.0,0.0
1628,406.75,57.9411,61.1288,161.401,99.8514,59.4842,0.00316111,0.173731,20.782,179.588,3.69303,0.0,0.0
1702,425.25,57.7732,60.5888,164.142,99.7656,59.0155,0.00347309,0.167406,20.7892,178.366,3.7433,0.0,0.0
1776,443.75,57.4127,60.3114,168.664,99.5264,58.8063,0.0035245,0.165249,20.7918,177.205,3.7515,0.0,0.0
1850,462.25,57.0547,59.3825,166.291,99.2927,58.2503,0.0039361,0.159135,20.798,176.054,3.80247,0.0,0.0
1924,480.75,57.0009,58.5464,167.278,99.9266,58.8617,0.00396315,0.157093,20.8034,174.913,3.7734,0.0,0.0
1998,499.25,56.3192,58.8509,162.873,100.158,59.4324,0.00441056,0.156302,20.804,173.732,3.72112,0.0,0.0
2072,517.75,55.5349,58.6414,167.942,99.9594,58.9917,0.00463911,0.152941,20.808,172.641,3.76002,0.0,0.0
2146,536.25,55.9739,58.607,165.327,99.7332,58.9186,0.00447348,0.150402,20.8063,171.621,3.75271,0.0,0.0
2220,554.75,54.9916,57.2475,165.537,99.8906,57.9289,0.00544813,0.143775,20.8149,170.52,3.88473,0.0,0.0
2294,573.25,54.7338,57.2288,163.216,100.142,58.324,0.00593166,0.147842,20.8115,169.419,3.85417,0.0,0.0
2368,591.75,53.9829,56.4903,169.543,100.46,58.8114,0.00657274,0.136392,20.8282,168.428,3.81745,0.0,0.0
2442,610.25,53.3929,55.0099,169.868,100.551,58.1731,0.00750857,0.127091,20.8391,167.427,3.90171,0.0,0.0
2516,628.75,52.6231,53.7292,165.172,100.354,57.9985,0.00880389,0.115439,20.8549,166.466,3.90914,0.0,0.0
2590,647.25,51.9079,53.4474,168.297,100.042,58.7038,0.00917207,0.110927,20.8585,165.515,3.80079,0.0,0.0
2664,665.75,51.5456,52.5443,167.753,99.6881,58.1808,0.00858778,0.111181,20.8605,164.584,3.83933,0.0,0.0
2738,684.25,50.7268,52.8244,175.724,99.388,57.5486,0.00872139,0.111272,20.8626,163.674,3.89573,0.0,0.0
2812,702.75,51.1196,52.5186,169.295,99.0895,57.1673,0.00862569,0.111435,20.8606,162.773,3.92168,0.0,0.0
2886,721.25,50.2385,52.3522,168.208,98.7427,57.1962,0.00848934,0.111436,20.8575,161.872,3.89307,0.0,0.0
2960,739.75,50.7585,52.0839,167.968,98.6019,56.5457,0.00868658,0.112737,20.8608,160.941,3.96445,0.0,0.0
3034,758.25,50.5917,52.017,168.919,98.7838,57.9848,0.00889192,0.111821,20.8606,160.09,3.79841,0.0,0.0
3108,776.75,50.3505,52.4098,163.283,99.0456,56.9636,0.00897183,0.112279,20.8581,159.2,3.94396,0.0,0.0
3182,795.25,50.2189,52.3326,164.99,99.2737,59.0282,0.00847996,0.111664,20.8595,158.329,3.70653,0.0,0.0
3256,813.75,49.9106,51.9466,163.244,99.4782,57.4922,0.00890751,0.11251,20.8578,157.458,3.90918,0.0,0.0
3330,832.25,50.2642,52.028,167.578,99.6336,57.8588,0.0087717,0.11269,20.8585,156.587,3.87499,0.0,0.0
3404,850.75,50.6208,51.9842,170.243,99.7273,58.0944,0.0087084,0.115117,20.856,155.737,3.85272,0.0,0.0
3478,869.25,50.4434,52.3501,171.365,99.8254,57.4562,0.00892686,0.114515,20.8575,154.876,3.93849,0.0,0.0
3552,887.75,50.1449,52.5438,167.675,99.8894,57.903,0.00868729,0.113227,20.8574,154.005,3.88783,0.0,0.0
3626,906.25,50.2902,52.5442,167.87,99.7036,58.9186,0.00881058,0.115725,20.8568,153.184,3.75059,0.0,0.0
3700,924.75,50.4705,52.3289,164.188,99.3864,57.7446,0.00885861,0.116454,20.8552,152.304,3.87137,0.0,0.0
3774,943.25,50.4223,52.4181,170.608,99.7902,58.2478,0.00854379,0.117942,20.8535,151.413,3.83841,0.0,0.0
3848,961.75,50.9177,53.1612,169.099,100.16,58.3691,0.00893381,0.116987,20.8557,150.542,3.84994,0.0,0.0
3922,980.25,50.612,53.2182,169.583,99.9922,58.5646,0.00847659,0.120106,20.8492,149.691,3.81416,0.0,0.0
3996,998.75,50.8602,53.3074,170.755,99.7308,58.133,0.00847379,0.121328,20.8503,148.801,3.84823,0.0,0.0
4070,1017.25,50.9175,53.2563,168.636,99.9867,58.2818,0.00838454,0.123241,20.8484,147.96,3.84828,0.0,0.0
4144,1035.75,51.6282,53.7229,169.915,100.228,57.9137,0.00883494,0.124491,20.8484,147.039,3.91063,0.0,0.0
4218,1054.25,51.2834,53.5219,171.373,100.364,58.1726,0.00879186,0.125079,20.8465,146.138,3.88847,0.0,0.0
4292,1072.75,51.6987,54.3656,163.822,100.403,58.2549,0.00843118,0.12951,20.8414,145.197,3.8812,0.0,0.0
4366,1091.25,51.6677,54.2776,163.248,100.5,58.522,0.00882069,0.132247,20.8397,144.247,3.85546,0.0,0.0
4440,1109.75,52.0373,54.4384,164.535,100.563,59.1303,0.00827163,0.134851,20.8347,143.316,3.78619,0.0,0.0
4514,1128.25,52.1941,55.3112,168.045,100.558,58.8536,0.00835203,0.139218,20.8297,142.325,3.81928,0.0,0.0
4588,1146.75,52.6991,55.2673,165.614,100.56,59.6888,0.00826753,0.142575,20.8267,141.314,3.71899,0.0,0.0
4662,1165.25,53.7753,58.5164,164.549,100.567,60.2758,0.00592637,0.169358,20.8025,140.263,3.64967,0.0,0.0
4736,1183.75,55.1409,59.3662,164.043,100.572,59.2618,0.00369013,0.180636,20.7785,139.142,3.77103,0.0,0.0
4810,1202.25,56.5177,61.1434,166.449,100.577,60.1621,0.00389858,0.190713,20.7715,137.961,3.66389,0.0,0.0
4884,1220.75,57.0806,62.0567,160.404,100.54,60.124,0.0030814,0.20013,20.7564,136.7,3.66574,0.0,0.0
4958,1239.25,58.4634,63.2556,162.002,100.47,59.3862,0.00288839,0.210656,20.7464,135.349,3.74881,0.0,0.0
5032,1257.75,58.8768,63.9239,163.477,100.37,60.1413,0.00205278,0.219343,20.7365,133.958,3.65163,0.0,0.0
5106,1276.25,60.3483,65.493,158.554,100.23,60.4226,0.00212297,0.229199,20.7227,132.436,3.60841,0.0,0.0
5180,1294.75,61.2363,66.7432,159.033,100.012,59.5863,0.00194007,0.240947,20.7105,130.895,3.69224,0.0,0.0
5254,1313.25,62.177,67.7787,162.804,99.8518,59.6406,0.00214768,0.252787,20.6968,129.253,3.67434,0.0,0.0
5328,1331.75,62.9268,68.2117,159.997,99.6419,59.9737,0.002005,0.255096,20.6924,127.622,3.61962,0.0,0.0
5402,1350.25,63.1275,68.4662,163.133,99.2915,59.6833,0.00210766,0.250781,20.6916,126.011,3.62912,0.0,0.0
5476,1368.75,64.0081,68.4454,161.275,98.8688,59.0998,0.00213209,0.254038,20.6934,124.379,3.66874,0.0,0.0
5550,1387.25,64.2363,69.2153,159.881,98.7039,59.0018,0.00217401,0.259991,20.687,122.708,3.66867,0.0,0.0
5624,1405.75,64.8643,70.292,164.582,98.7265,58.0122,0.00218643,0.270354,20.6744,120.966,3.7909,0.0,0.0
5698,1424.25,65.4625,71.1204,162.739,98.9958,58.6352,0.0023745,0.2783,20.6639,119.155,3.73416,0.0,0.0
5772,1442.75,66.3699,71.5537,163.176,99.3556,58.4595,0.00227875,0.277972,20.6602,117.473,3.78142,0.0,0.0
5846,1461.25,66.4478,71.6519,162.723,99.6846,58.6631,0.0025388,0.275246,20.6649,115.772,3.7802,0.0,0.0
5920,1479.75,66.6883,72.0825,161.67,99.8894,58.3102,0.00222306,0.281521,20.6591,114.02,3.83786,0.0,0.0
5994,1498.25,66.9561,72.7034,161.449,99.963,58.5184,0.00225864,0.288491,20.6439,112.279,3.8177,0.0,0.0
6068,1516.75,67.0813,72.701,161.274,99.8768,58.3534,0.00268433,0.282568,20.6423,110.667,3.83168,0.0,0.0
6142,1535.25,66.4971,70.6212,161.454,99.6245,58.492,0.00257826,0.252129,20.6676,109.356,3.79673,0.0,0.0
6216,1553.75,64.1004,66.3814,163.298,99.4291,58.2874,0.00231412,0.190553,20.7288,108.605,3.80773,0.0,0.0
6290,1572.25,61.3335,61.9662,162.66,99.4102,59.111,0.00370767,0.139082,20.7959,108.095,3.70633,0.0,0.0
6364,1590.75,58.7962,58.8592,164.307,99.9234,58.2006,0.00559145,0.113557,20.8361,107.725,3.85371,0.0,0.0
6438,1609.25,56.6596,56.1711,166.299,100.158,58.4159,0.00594261,0.104138,20.8529,107.364,3.84413,0.0,0.0
6512,1627.75,54.5843,54.5226,170.372,100.096,59.1034,0.00592513,0.0985798,20.8656,107.104,3.75628,0.0,0.0
6586,1646.25,53.3974,53.3281,170.66,99.751,57.9964,0.00625626,0.0957709,20.8659,106.824,3.86645,0.0,0.0
6660,1664.75,52.7073,52.6968,168.747,99.9135,58.5768,0.0057905,0.0930387,20.8735,106.503,3.80706,0.0,0.0
6734,1683.25,51.8718,52.0876,167.116,100.168,58.6535,0.00590101,0.0921454,20.8753,106.283,3.81588,0.0,0.0
6808,1701.75,50.3229,51.3482,172.074,100.483,59.0998,0.00590161,0.0899127,20.8807,106.053,3.7842,0.0,0.0
6882,1720.25,49.706,50.8875,167.444,100.635,58.8856,0.00579149,0.0896579,20.8783,105.813,3.82089,0.0,0.0
6956,1738.75,49.4974,50.6791,169.88,100.532,58.9592,0.00568117,0.0899924,20.8811,105.603,3.8047,0.0,0.0
7030,1757.25,49.5784,50.5063,168.314,100.454,58.7175,0.00544753,0.0892534,20.8803,105.392,3.82843,0.0,0.0
7104,1775.75,49.4379,50.1771,170.535,100.447,58.5702,0.00591567,0.0902406,20.8807,105.122,3.8458,0.0,0.0
7178,1794.25,48.9962,49.9337,173.774,100.448,58.5824,0.00549079,0.0901055,20.8816,104.912,3.84443,0.0,0.0
7217,1804,49.033,49.9478,171.2,100.421,58.1478,0.0053371,0.0908486,20.8831,104.812,3.89562,0.0,0.0