File: 01_Data/Particleboard/Cone/Particleboard_Cone_HF75Scan_230705_R1.csv
Names,Time,Stack TC,Smoke TC,Exh Press,Smoke Comp,Smoke Meas,CO Meter,CO2 Meter,O2 Meter,Sample Mass,Ext Coeff,Start Test,Flame Verif
Chan Gain,,500,500,1,1,1,1,1,1,1,1,1.0,1.0
Offset,,0,0,0.138104,0,0,0,0,0,0,0,0.0,0.0
Gain,,1,1,25.011,12.8256,13.255,1,1,1,1.00088,0.812795,1.0,1.0
Units,sec,C,C,Pa,%,%,%,%,%,g,/m,,
Baseline,,66.765,70.4966,159.503,99.4436,74.9845,0.000199808,0.0438192,20.929,-447.574,2.01284,,
57,14,64.3776,68.0397,160.907,99.6474,72.8498,0.000168302,0.0427916,20.9313,205.851,2.23333,0.0,0.0
114,28.25,75.4521,93.0887,130.018,99.7191,68.638,0.00143247,0.200058,20.913,203.298,2.66305,0.0,0.0
171,42.5,93.4886,121.614,128.959,99.8189,64.3304,0.00712896,0.836628,20.035,199.175,3.13229,0.0,0.0
228,56.75,104.421,132.562,121.144,99.914,62.3827,0.010294,0.893094,19.8454,195.321,3.35828,0.0,0.0
285,71,109.256,132.628,131.326,99.9551,66.2283,0.0099122,0.775638,19.9769,191.918,2.93471,0.0,0.0
342,85.25,109.495,128.273,135.202,99.9582,67.8795,0.00907711,0.642466,20.1376,188.826,2.75935,0.0,0.0
399,99.5,108.721,124.168,139.129,99.9872,68.5704,0.00735072,0.543587,20.2793,186.133,2.68921,0.0,0.0
456,113.75,107.842,120.96,139.078,100.039,69.4762,0.0066092,0.478515,20.3706,183.571,2.59937,0.0,0.0
513,128,106.267,117.764,139.052,100.082,70.108,0.00551052,0.429281,20.4286,181.289,2.53789,0.0,0.0
570,142.25,105.271,115.538,142.367,100.08,70.7965,0.00543914,0.410003,20.4562,179.097,2.46805,0.0,0.0
627,156.5,103.606,113.689,142.045,99.9895,71.1755,0.00482472,0.387677,20.4886,176.845,2.42353,0.0,0.0
684,170.75,103.457,113.336,144.076,99.7731,71.4065,0.00373034,0.37924,20.5007,174.743,2.38498,0.0,0.0
741,185,102.262,111.185,141.325,99.5116,71.3256,0.00403485,0.363466,20.5242,172.691,2.37436,0.0,0.0
798,199.25,101.252,110.586,143.613,99.2603,71.5084,0.00379809,0.356434,20.5331,170.69,2.33808,0.0,0.0
855,213.5,100.762,109.822,143.461,99.5093,72.2661,0.0033563,0.350437,20.5449,168.768,2.28079,0.0,0.0
912,227.75,100.817,109.906,144.607,99.7629,72.9816,0.00328881,0.340232,20.5537,166.876,2.22869,0.0,0.0
969,242,100.386,108.683,147.028,99.748,73.037,0.00295562,0.330787,20.5665,165.055,2.22221,0.0,0.0
1026,256.25,99.7639,109.078,145.716,99.6173,72.7931,0.00247218,0.321559,20.5775,163.353,2.23671,0.0,0.0
1083,270.5,99.4343,107.343,143.738,99.9621,73.6062,0.00244409,0.308167,20.5959,161.612,2.18216,0.0,0.0
1140,284.75,98.8667,106.777,147.921,100.163,74.1664,0.001948,0.30514,20.5978,160,2.14243,0.0,0.0
1197,299,98.2571,106.333,144.391,100.419,74.3958,0.00192785,0.295897,20.6132,158.289,2.13861,0.0,0.0
1254,313.25,98.2343,105.495,147.825,100.419,74.7287,0.0020026,0.289379,20.619,156.798,2.10678,0.0,0.0
1311,327.5,97.5501,104.747,144.303,100.319,74.634,0.00199096,0.282846,20.6281,155.266,2.1087,0.0,0.0
1368,341.75,96.9184,104.872,143.816,100.031,74.1159,0.00181111,0.278301,20.6388,153.735,2.13784,0.0,0.0
1425,356,96.4701,103.648,146.816,99.7198,74.2821,0.00142698,0.274185,20.6426,152.163,2.09968,0.0,0.0
1482,370.25,96.3639,103.771,144.337,99.4513,74.0904,0.00110047,0.277674,20.6451,150.732,2.09888,0.0,0.0
1539,384.5,96.2425,103.475,145.526,99.2682,74.1183,0.00160913,0.274754,20.6413,149.251,2.08305,0.0,0.0
1596,398.75,95.5561,102.917,147.941,99.0243,73.1499,0.00144539,0.275596,20.6443,147.79,2.15929,0.0,0.0
1653,413,96.0453,103.588,142.006,98.9554,73.6191,0.00180436,0.27983,20.6398,146.248,2.10874,0.0,0.0
1710,427.25,95.6628,103.207,147.657,99.1253,73.124,0.00194918,0.285919,20.6323,144.737,2.16908,0.0,0.0
1767,441.5,96.4017,104.084,144.925,99.4733,73.5965,0.00178054,0.287862,20.6323,143.206,2.14814,0.0,0.0
1824,455.75,96.6409,104.189,147.777,99.7273,72.9841,0.0020468,0.288817,20.625,141.684,2.22591,0.0,0.0
1881,470,96.5071,104.281,147.958,99.9923,74.0524,0.0016921,0.293657,20.6224,140.123,2.14122,0.0,0.0
1938,484.25,96.4987,104.184,141.846,100.159,73.5593,0.00181011,0.294598,20.6216,138.672,2.20076,0.0,0.0
1995,498.5,96.7316,104.399,141.782,100.177,73.467,0.00184162,0.295077,20.619,137.13,2.21096,0.0,0.0
2052,512.75,96.8886,104.374,143.345,100.125,73.844,0.00197924,0.294311,20.6211,135.649,2.17076,0.0,0.0
2109,527,96.7336,104.214,141.714,100.01,73.0993,0.00190562,0.294835,20.6212,134.178,2.23483,0.0,0.0
2166,541.25,96.8666,104.565,143.596,99.6318,72.8765,0.00196871,0.293943,20.6197,132.666,2.22959,0.0,0.0
2223,555.5,96.7681,104.835,142.312,99.456,73.0552,0.00216544,0.293321,20.6209,131.205,2.19954,0.0,0.0
2280,569.75,97.1151,104.155,139.378,99.7539,73.1742,0.0019606,0.291978,20.6237,129.724,2.20926,0.0,0.0
2337,584,96.7723,103.947,148.392,99.8764,73.8461,0.0017968,0.290673,20.6279,128.313,2.15284,0.0,0.0
2394,598.25,96.1926,103.851,147.019,99.8854,73.2676,0.00184683,0.288136,20.6308,126.881,2.20955,0.0,0.0
2451,612.5,96.413,103.685,149.031,99.602,73.4052,0.00187872,0.286891,20.6305,125.54,2.17593,0.0,0.0
2508,626.75,96.296,103.813,146.013,99.9195,73.698,0.00221878,0.286521,20.6335,124.119,2.17022,0.0,0.0
2565,641,96.1864,102.646,146.708,100.426,73.9472,0.00192725,0.286217,20.632,122.848,2.18218,0.0,0.0
2622,655.25,96.0033,103.277,141.688,100.536,73.7178,0.00175177,0.286164,20.6344,121.427,2.21213,0.0,0.0
2679,669.5,95.7744,102.895,147.44,100.271,73.7037,0.00189153,0.280573,20.6362,120.135,2.19474,0.0,0.0
2736,683.75,95.5466,103.098,144.169,99.7097,73.3801,0.0015698,0.276146,20.6461,118.854,2.18606,0.0,0.0
2793,698,95.8354,102.651,140.306,99.2725,73.0743,0.00184219,0.273515,20.6419,117.573,2.18451,0.0,0.0
2850,712.25,95.8482,102.59,145.38,99.128,73.1281,0.00212285,0.277149,20.6389,116.292,2.16888,0.0,0.0
2907,726.5,95.6328,102.488,147.838,99.1386,72.7891,0.00176277,0.274762,20.6428,115.031,2.20277,0.0,0.0
2964,740.75,94.8722,102.492,145.52,99.3695,73.2927,0.00201182,0.27147,20.6465,113.75,2.1702,0.0,0.0
3021,755,94.9366,102.35,146.516,99.7519,73.3566,0.0016293,0.271127,20.6446,112.559,2.19137,0.0,0.0
3078,769.25,95.3223,102.415,147.506,99.9962,73.9488,0.0019553,0.267572,20.644,111.348,2.15147,0.0,0.0
3135,783.5,94.7113,101.405,148.074,100.179,73.7352,0.00185152,0.2657,20.6461,110.147,2.18509,0.0,0.0
3192,797.75,94.7754,101.417,147.974,100.331,73.8194,0.00183034,0.261891,20.6546,108.986,2.18779,0.0,0.0
3249,812,94.3206,101.183,144.431,100.323,74.2295,0.00181749,0.261964,20.6544,107.825,2.14775,0.0,0.0
3306,826.25,94.5281,101.235,144.707,100.245,73.876,0.00188404,0.254687,20.6628,106.754,2.1762,0.0,0.0
3363,840.5,94.5133,101.232,146.1,100.134,73.7688,0.00184771,0.249584,20.6663,105.743,2.17867,0.0,0.0
3420,854.75,93.5847,99.9303,149.134,99.9445,73.3805,0.00163578,0.239127,20.6751,104.722,2.2028,0.0,0.0
3477,869,93.5491,99.38,149.532,99.7762,73.2239,0.00196181,0.236687,20.6769,103.801,2.20601,0.0,0.0
3534,883.25,93.3831,98.7462,150.537,99.557,73.7846,0.00187441,0.228598,20.6873,102.91,2.13595,0.0,0.0
3591,897.5,92.0408,97.0153,152.124,99.6932,74.4261,0.00174669,0.207281,20.7025,102.31,2.08397,0.0,0.0
3648,911.75,89.8422,93.5748,153.822,99.8604,75.513,0.00169946,0.151575,20.7603,101.989,1.99254,0.0,0.0
3705,926,88.0919,91.2582,152.786,99.9249,75.3072,0.00245617,0.128033,20.801,101.639,2.01662,0.0,0.0
3762,940.25,86.2807,89.3714,156.844,99.9277,75.7675,0.00280497,0.123232,20.8102,101.449,1.97336,0.0,0.0
3819,954.5,85.3098,88.6212,147.312,100.035,75.189,0.00322385,0.117444,20.8182,101.169,2.03565,0.0,0.0
3876,968.75,84.4699,87.5295,154.006,99.9664,75.8164,0.0034254,0.113478,20.8216,100.939,1.97152,0.0,0.0
3933,983,83.7023,86.744,156.351,99.7492,75.5713,0.00363255,0.113409,20.8244,100.728,1.9791,0.0,0.0
3990,997.25,82.9439,86.389,153.24,99.8161,75.7816,0.00402803,0.113033,20.8275,100.608,1.96407,0.0,0.0
4047,1011.5,82.2277,86.2898,152.499,99.914,75.674,0.00410665,0.110868,20.8351,100.318,1.98118,0.0,0.0
4104,1025.75,81.8633,85.6847,152.343,100.148,75.7922,0.00479183,0.11316,20.8287,100.208,1.98672,0.0,0.0
4161,1040,81.8335,85.4295,152.765,100.359,76.2072,0.00496952,0.109127,20.8364,99.9977,1.96284,0.0,0.0
4218,1054.25,80.9291,84.5104,153.213,100.379,75.9289,0.00527497,0.111306,20.8341,99.7976,1.99032,0.0,0.0
4275,1068.5,81.0263,84.4441,154.513,100.416,75.9212,0.00583021,0.110279,20.8353,99.7475,1.99368,0.0,0.0
4332,1082.75,80.8708,84.6384,153.429,100.426,75.7731,0.00654492,0.109082,20.8324,99.4573,2.00826,0.0,0.0
4389,1097,79.5519,84.43,159.716,100.501,76.4175,0.00702907,0.107474,20.8354,99.2971,1.95322,0.0,0.0
4446,1111.25,80.2081,83.3473,154.738,100.595,76.2448,0.00678562,0.105085,20.8399,99.147,1.97607,0.0,0.0
4503,1125.5,79.6443,83.3749,155.338,100.629,76.0676,0.00761837,0.105333,20.8421,98.9768,1.99502,0.0,0.0
4560,1139.75,79.5595,83.4172,151.076,100.655,76.098,0.00862346,0.103407,20.8427,98.8167,1.99406,0.0,0.0
4617,1154,79.1201,83.8124,154.754,100.633,76.3953,0.00883997,0.104052,20.8435,98.6065,1.96468,0.0,0.0
4674,1168.25,79.2026,83.5672,150.682,100.58,76.39,0.00950201,0.101912,20.8448,98.4564,1.96142,0.0,0.0
4731,1182.5,78.8695,82.8218,150.469,100.566,76.5005,0.010741,0.101206,20.8472,98.3663,1.95012,0.0,0.0
4788,1196.75,79.2209,82.9053,152.95,100.595,76.1562,0.0109637,0.100927,20.8505,98.1561,1.98436,0.0,0.0
4845,1211,78.6006,82.1315,152.026,100.648,76.276,0.012138,0.100069,20.8484,97.986,1.97688,0.0,0.0
4902,1225.25,78.4211,82.0735,158.363,100.659,76.3605,0.0132228,0.0987802,20.8497,97.8458,1.96978,0.0,0.0
4959,1239.5,78.3773,82.3014,153.688,100.643,76.4123,0.0137111,0.0987134,20.85,97.7057,1.96381,0.0,0.0
5016,1253.75,77.802,81.8901,155.264,100.624,76.5061,0.0136174,0.0977355,20.8507,97.5556,1.95373,0.0,0.0
5073,1268,77.6453,81.2183,154.182,100.596,76.3625,0.0141277,0.0976387,20.8512,97.4755,1.9651,0.0,0.0
5130,1282.25,76.8375,80.767,152.445,100.553,76.5534,0.0149672,0.0975846,20.851,97.2753,1.94427,0.0,0.0
5187,1296.5,76.6836,80.5736,154.397,100.532,76.4098,0.0152379,0.09651,20.8521,97.0451,1.95616,0.0,0.0
5244,1310.75,76.6639,80.3162,156.669,100.5,75.956,0.0151198,0.0970252,20.8528,96.915,1.99633,0.0,0.0
5301,1325,76.5063,80.3377,153.015,100.395,76.3811,0.0150494,0.096207,20.8526,96.8049,1.94915,0.0,0.0
5358,1339.25,76.8713,80.7476,155.303,100.342,76.4592,0.0150623,0.0952076,20.8532,96.6648,1.93808,0.0,0.0
5415,1353.5,76.2284,80.4285,154.44,100.301,76.2116,0.0155707,0.0955749,20.8559,96.5347,1.95831,0.0,0.0
5472,1367.75,76.1666,80.6315,150.876,100.333,76.0421,0.0157953,0.0971567,20.8529,96.3145,1.97641,0.0,0.0
5529,1382,76.0245,80.2741,156.3,100.487,76.3354,0.0157662,0.0968997,20.8524,96.3745,1.95991,0.0,0.0
5581,1395,76.1329,80.5519,153.761,100.509,76.3423,0.0157917,0.102665,20.8498,96.0943,1.96086,0.0,0.0