File: 01_Data/Particleboard/Cone/Particleboard_HRRPUA_25.csv
Time after Ignition,Particleboard_R1,Particleboard_R2,Particleboard_R3,Particleboard_R4,Mean,Std. Dev.
0.0,3.1,1.5,2.0,0.4,1.8,1.1
5.75,4.3,2.7,2.6,1.1,2.7,1.3
11.5,19.5,10.0,10.6,10.3,12.6,4.6
17.25,122.9,74.0,73.1,71.3,85.4,25.1
23.0,190.7,129.6,141.1,130.8,148.1,28.9
28.75,227.2,160.3,171.5,161.4,180.1,31.8
34.5,240.3,175.8,184.0,179.6,195.0,30.4
40.25,232.4,183.7,191.7,187.1,198.7,22.7
46.0,226.9,189.0,189.3,191.6,199.2,18.5
51.75,215.4,188.0,186.6,193.4,195.9,13.4
57.5,204.7,180.8,182.9,194.3,190.7,11.1
63.25,196.6,175.2,179.8,187.4,184.8,9.4
69.0,186.0,172.9,174.9,176.9,177.7,5.8
74.75,177.1,171.7,176.5,169.1,173.6,3.8
80.5,170.9,171.5,171.7,160.1,168.5,5.6
86.25,161.7,173.0,165.2,154.7,163.6,7.6
92.0,156.8,165.7,159.7,153.1,158.8,5.3
97.75,150.5,162.8,155.6,147.7,154.2,6.6
103.5,143.3,158.0,155.3,148.3,151.2,6.7
109.25,140.8,156.1,148.7,150.4,149.0,6.3
115.0,137.9,153.1,143.7,143.3,144.5,6.3
120.75,134.3,143.1,139.6,139.1,139.0,3.6
126.5,131.1,140.1,137.6,134.7,135.9,3.8
132.25,125.7,135.7,133.7,130.6,131.4,4.4
138.0,123.1,126.6,131.2,120.5,125.4,4.6
143.75,115.2,122.0,127.7,118.5,120.8,5.3
149.5,109.1,120.3,121.9,111.8,115.8,6.3
155.25,104.6,113.3,117.7,108.6,111.1,5.7
161.0,102.8,111.1,114.3,104.2,108.1,5.5
166.75,101.3,104.8,110.8,102.2,104.8,4.3
172.5,99.0,102.8,108.6,100.5,102.7,4.2
178.25,97.8,98.7,107.1,99.3,100.7,4.3
184.0,96.0,96.7,102.0,96.1,97.7,2.9
189.75,94.0,93.5,101.4,96.0,96.2,3.6
195.5,91.8,92.0,100.9,93.9,94.7,4.3
201.25,93.5,89.7,98.8,93.6,93.9,3.7
207.0,91.5,89.2,96.4,88.5,91.4,3.6
212.75,91.2,87.3,95.4,86.4,90.1,4.1
218.5,88.8,86.5,93.2,85.9,88.6,3.3
224.25,84.3,84.5,90.3,84.3,85.9,3.0
230.0,85.4,83.6,88.3,82.0,84.8,2.7
235.75,83.7,81.2,86.6,80.5,83.0,2.8
241.5,83.3,79.3,83.7,79.3,81.4,2.4
247.25,84.3,77.1,82.6,77.4,80.3,3.7
253.0,83.6,78.1,82.1,78.2,80.5,2.8
258.75,80.3,77.2,81.9,77.5,79.2,2.3
264.5,79.2,77.6,81.2,75.9,78.5,2.3
270.25,78.8,77.2,78.9,74.4,77.3,2.1
276.0,77.6,76.1,76.7,73.6,76.0,1.7
281.75,75.5,75.0,76.1,72.9,74.9,1.4
287.5,76.0,73.8,77.5,70.4,74.4,3.1
293.25,76.4,73.4,76.6,70.2,74.2,3.0
299.0,76.0,72.1,75.1,71.9,73.8,2.1
304.75,77.1,71.5,75.5,70.0,73.6,3.3
310.5,74.7,71.9,74.5,70.2,72.8,2.1
316.25,74.8,72.8,73.7,69.4,72.7,2.3
322.0,72.0,70.8,74.6,67.2,71.2,3.1
327.75,71.1,70.7,73.2,65.5,70.1,3.3
333.5,70.4,71.4,73.3,64.7,70.0,3.7
339.25,70.1,68.8,71.6,64.2,68.7,3.2
345.0,66.9,68.2,69.7,64.1,67.2,2.4
350.75,67.7,68.2,69.9,63.6,67.4,2.7
356.5,67.2,68.6,68.4,64.9,67.3,1.7
362.25,67.0,67.7,67.4,65.1,66.8,1.2
368.0,65.1,67.1,66.6,64.6,65.9,1.2
373.75,64.9,67.9,66.1,62.5,65.4,2.3
379.5,64.9,66.3,64.2,63.1,64.6,1.3
385.25,63.9,66.3,63.1,63.1,64.1,1.5
391.0,63.7,65.8,62.4,63.7,63.9,1.4
396.75,64.4,62.9,59.5,63.3,62.5,2.1
402.5,61.7,63.3,58.2,63.4,61.7,2.4
408.25,60.6,62.7,55.2,61.5,60.0,3.3
414.0,62.2,61.5,54.2,59.3,59.3,3.6
419.75,60.5,61.3,47.7,57.3,56.7,6.3
425.5,60.0,59.3,37.0,58.6,53.7,11.2
431.25,54.7,57.3,32.4,61.0,51.3,12.9
437.0,51.1,56.6,31.3,59.8,49.7,12.8
442.75,49.5,56.3,30.3,55.5,47.9,12.1
448.5,50.6,52.2,28.4,53.6,46.2,11.9
454.25,50.7,49.7,27.0,52.7,45.0,12.1
460.0,50.1,48.7,26.4,49.8,43.7,11.6
465.75,48.4,47.1,25.9,46.6,42.0,10.8
471.5,47.2,45.6,26.1,47.8,41.6,10.4
477.25,45.6,43.4,26.3,43.3,39.6,8.9
483.0,46.3,42.3,25.0,40.7,38.6,9.3
488.75,44.0,41.4,24.7,40.2,37.6,8.8
494.5,42.0,40.8,23.8,39.7,36.6,8.6
500.25,43.4,40.5,25.0,38.2,36.8,8.2
506.0,43.0,40.0,25.3,38.8,36.8,7.8
511.75,45.7,40.8,26.6,37.0,37.5,8.1
517.5,49.4,39.7,26.2,38.2,38.4,9.5
523.25,48.4,40.4,26.4,38.2,38.4,9.1
529.0,49.3,40.5,26.3,36.5,38.1,9.5
534.75,47.6,40.6,27.3,36.8,38.1,8.5
540.5,43.1,41.4,26.4,36.7,36.9,7.5
546.25,41.0,41.5,26.9,36.2,36.4,6.8
552.0,38.1,40.2,26.5,37.5,35.6,6.2
557.75,38.0,38.6,26.4,38.1,35.3,5.9
563.5,39.9,38.9,26.4,37.2,35.6,6.2
569.25,40.1,37.9,26.0,38.4,35.6,6.4
575.0,39.6,36.9,25.7,38.5,35.2,6.4
580.75,39.0,34.3,25.7,38.9,34.5,6.3
586.5,39.5,31.7,25.6,38.3,33.8,6.4
592.25,40.7,32.6,26.8,38.7,34.7,6.3
598.0,38.2,33.9,26.6,37.8,34.1,5.4
603.75,36.8,32.7,26.4,37.6,33.4,5.1
609.5,39.0,33.4,26.2,37.7,34.1,5.8
615.25,38.9,33.7,26.8,37.2,34.1,5.3
621.0,40.3,32.6,26.7,38.1,34.4,6.1
626.75,40.6,34.1,25.2,38.0,34.5,6.7
632.5,40.3,33.8,25.0,38.1,34.3,6.7
638.25,39.5,32.3,26.3,37.9,34.0,6.0
644.0,41.0,32.9,26.5,37.2,34.4,6.2
649.75,41.2,32.9,26.8,38.4,34.8,6.4
655.5,41.1,31.7,26.3,38.5,34.4,6.7
661.25,41.0,33.9,26.7,37.9,34.9,6.2
667.0,40.2,33.8,26.3,38.7,34.7,6.3
672.75,40.5,33.4,25.9,39.4,34.8,6.7
678.5,41.1,33.6,25.6,38.5,34.7,6.8
684.25,40.5,33.8,26.5,37.8,34.7,6.1
690.0,39.5,32.3,27.1,38.1,34.2,5.7
695.75,39.0,31.8,26.7,37.9,33.8,5.7
701.5,38.7,32.8,26.2,38.1,34.0,5.8
707.25,38.5,34.4,27.7,39.2,35.0,5.3
713.0,38.9,34.7,27.9,40.5,35.5,5.6
718.75,38.7,33.9,26.6,39.9,34.8,6.0
724.5,42.0,33.2,25.6,39.3,35.0,7.3
730.25,43.8,35.1,27.6,38.6,36.3,6.8
736.0,45.3,33.6,29.1,38.6,36.7,7.0
741.75,46.2,34.6,29.4,39.3,37.4,7.1
747.5,45.6,34.8,28.3,38.7,36.8,7.2
753.25,46.4,34.7,26.7,39.0,36.7,8.2
759.0,50.3,35.5,27.5,39.0,38.1,9.5
764.75,52.1,35.0,28.9,38.9,38.7,9.8
770.5,52.3,35.2,30.7,39.9,39.5,9.3
776.25,52.3,35.1,29.8,39.4,39.2,9.6
782.0,50.4,35.6,28.1,39.4,38.4,9.3
787.75,50.4,36.1,27.0,40.1,38.4,9.7
793.5,50.3,39.3,27.5,40.2,39.3,9.3
799.25,49.5,38.7,28.4,41.0,39.4,8.7
805.0,47.9,36.9,29.0,40.7,38.6,7.9
810.75,47.6,37.5,29.2,39.4,38.4,7.6
816.5,49.8,36.8,30.0,40.7,39.3,8.3
822.25,49.0,37.3,28.8,40.0,38.8,8.3
828.0,49.1,38.1,27.2,42.4,39.2,9.2
833.75,54.4,37.5,26.7,41.9,40.1,11.4
839.5,56.7,36.8,27.4,43.3,41.1,12.3
845.25,54.0,37.0,29.8,44.2,41.3,10.4
851.0,51.9,36.6,30.2,43.0,40.4,9.2
856.75,53.6,36.3,32.5,42.2,41.1,9.2
862.5,56.6,36.4,33.5,43.4,42.5,10.3
868.25,56.3,37.2,32.4,43.3,42.3,10.3
874.0,57.4,38.3,32.4,43.7,42.9,10.7
879.75,59.2,38.6,32.4,43.3,43.4,11.4
885.5,60.0,39.3,32.7,43.3,43.8,11.6
891.25,62.1,37.3,33.7,43.2,44.1,12.6
897.0,63.4,37.4,33.9,43.8,44.6,13.2
902.75,64.2,38.2,32.9,44.0,44.8,13.7
908.5,62.8,38.9,36.2,44.6,45.6,12.0
914.25,62.9,39.5,38.6,44.5,46.4,11.3
920.0,67.8,40.3,39.2,45.0,48.1,13.4
925.75,68.7,40.8,40.0,46.3,48.9,13.4
931.5,65.1,40.5,40.0,46.1,47.9,11.8
937.25,63.3,40.2,41.0,47.8,48.1,10.7
943.0,63.0,42.0,40.5,47.8,48.3,10.3
948.75,61.2,41.3,41.5,48.2,48.0,9.3
954.5,59.8,40.8,42.5,48.0,47.8,8.6
960.25,58.9,40.8,41.8,48.8,47.6,8.4
966.0,60.2,40.3,42.5,50.1,48.2,9.0
971.75,61.0,40.6,43.8,50.5,49.0,9.0
977.5,60.8,41.2,44.4,50.9,49.3,8.7
983.25,61.5,41.8,49.8,51.2,51.1,8.1
989.0,62.4,42.9,53.3,52.9,52.9,7.9
994.75,63.8,41.5,54.7,51.9,52.9,9.2
1000.5,62.1,45.4,56.0,51.7,53.8,7.0
1006.25,63.2,50.7,56.6,53.9,56.1,5.3
1012.0,64.3,53.0,58.7,53.8,57.4,5.2
1017.75,63.8,53.3,61.9,56.4,58.8,4.9
1023.5,67.0,53.5,65.2,64.9,62.6,6.2
1029.25,67.5,62.2,67.4,70.9,67.0,3.6
1035.0,67.8,67.0,69.0,74.7,69.6,3.4
1040.75,68.1,74.1,69.4,76.3,72.0,3.9
1046.5,67.9,75.4,69.5,77.6,72.6,4.7
1052.25,68.5,78.8,70.4,79.2,74.2,5.6
1058.0,70.0,79.7,72.9,78.4,75.3,4.6
1063.75,72.0,82.6,72.5,82.5,77.4,6.0
1069.5,72.2,86.0,74.3,86.8,79.8,7.6
1075.25,72.8,87.2,75.9,87.4,80.8,7.6
1081.0,73.6,89.1,77.2,88.2,82.0,7.8
1086.75,74.1,91.1,77.9,87.9,82.8,8.1
1092.5,75.6,95.4,79.0,90.3,85.1,9.3
1098.25,77.8,94.2,80.1,93.0,86.3,8.5
1104.0,77.1,94.2,79.2,92.8,85.8,8.9
1109.75,80.7,96.2,80.4,94.4,87.9,8.5
1115.5,80.7,97.4,80.2,97.0,88.8,9.7
1121.25,81.2,99.1,82.1,97.3,90.0,9.6
1127.0,82.8,102.2,83.7,99.1,92.0,10.1
1132.75,83.3,103.0,84.2,102.6,93.3,11.0
1138.5,85.0,103.4,82.6,103.0,93.5,11.3
1144.25,86.5,102.6,83.9,103.9,94.2,10.5
1150.0,86.6,106.8,85.4,106.9,96.4,12.0
1155.75,88.1,106.0,85.4,109.2,97.2,12.1
1161.5,91.1,108.9,86.0,112.8,99.7,13.2
1167.25,92.7,108.1,87.4,116.0,101.1,13.3
1173.0,94.0,107.8,89.7,115.7,101.8,12.1
1178.75,95.0,108.0,88.6,117.4,102.2,12.9
1184.5,99.7,107.3,90.5,120.3,104.4,12.6
1190.25,101.1,109.8,90.5,117.8,104.8,11.7
1196.0,101.3,113.3,89.3,120.2,106.0,13.6
1201.75,103.2,109.7,90.7,118.9,105.6,11.9
1207.5,104.8,111.8,91.1,118.0,106.4,11.6
1213.25,111.2,112.7,91.4,116.5,107.9,11.3
1219.0,110.7,111.1,95.9,118.2,109.0,9.4
1224.75,111.0,110.0,95.8,116.5,108.3,8.8
1230.5,112.5,112.8,96.1,117.7,109.8,9.4
1236.25,115.6,113.6,97.4,118.1,111.2,9.4
1242.0,116.8,112.2,99.1,117.7,111.4,8.5
1247.75,117.0,115.6,100.1,119.7,113.1,8.8
1253.5,122.1,118.7,103.7,120.2,116.2,8.5
1259.25,127.0,117.5,105.8,123.3,118.4,9.3
1265.0,130.0,119.2,106.5,125.4,120.3,10.2
1270.75,132.4,121.7,108.5,125.3,121.9,10.0
1276.5,135.7,126.2,110.6,127.4,125.0,10.5
1282.25,139.1,129.5,113.5,128.7,127.7,10.6
1288.0,142.6,130.7,116.3,132.7,130.6,10.9
1293.75,145.5,134.9,120.3,133.3,133.5,10.3
1299.5,147.6,134.7,120.0,130.8,133.3,11.4
1305.25,153.4,139.1,123.0,133.1,137.2,12.7
1311.0,153.4,142.8,127.7,129.4,138.3,12.1
1316.75,158.0,147.7,131.3,130.7,141.9,13.3
1322.5,160.0,146.3,130.5,132.0,142.2,13.8
1328.25,166.6,149.7,134.1,127.8,144.6,17.3
1334.0,168.8,151.6,137.6,131.7,147.4,16.5
1339.75,174.7,155.1,140.7,129.9,150.1,19.4
1345.5,177.7,155.0,141.1,133.8,151.9,19.3
1351.25,185.1,157.7,149.1,136.7,157.2,20.5
1357.0,196.6,158.9,154.5,140.6,162.7,23.9
1362.75,197.1,158.0,160.9,140.0,164.0,23.9
1368.5,205.2,159.0,168.2,140.6,168.2,27.2
1374.25,205.3,158.4,175.2,138.8,169.4,28.1
1380.0,198.9,158.2,184.1,138.5,169.9,26.8
1385.75,189.9,163.1,195.7,134.6,170.8,28.0
1391.5,166.5,158.9,195.3,131.9,163.2,26.1
1397.25,137.0,153.9,200.8,126.3,154.5,32.9
1403.0,115.9,150.6,209.5,116.8,148.2,44.0
1408.75,108.7,143.0,210.4,110.4,143.1,47.6
1414.5,99.4,145.1,216.2,97.3,139.5,55.7
1420.25,90.5,126.0,215.3,86.7,129.6,59.8
1426.0,79.9,112.9,204.7,74.4,118.0,60.2
1431.75,74.5,96.7,190.6,67.8,107.4,56.8
1437.5,70.4,85.1,172.7,60.3,97.1,51.4
1443.25,67.6,75.1,147.8,55.1,86.4,41.7
1449.0,64.1,67.2,123.7,50.0,76.3,32.5
1454.75,62.5,61.8,109.0,45.3,69.7,27.4
1460.5,60.9,58.1,98.1,44.6,65.4,22.9
1466.25,59.3,54.5,89.4,42.8,61.5,19.9
1472.0,58.5,53.1,81.8,38.8,58.0,17.9
1477.75,57.0,48.6,75.0,37.1,54.4,15.9
1483.5,54.7,45.1,69.5,35.5,51.2,14.5
1489.25,53.8,43.1,66.5,34.3,49.4,13.9
1495.0,52.9,42.3,62.1,35.2,48.1,11.8
1500.75,54.8,41.1,59.2,35.8,47.7,11.1
1506.5,52.4,40.7,57.9,33.9,46.2,10.9
1512.25,51.1,38.5,56.1,32.6,44.6,10.9
1518.0,48.1,36.8,53.9,31.0,42.5,10.4
1518.5,48.1,37.0,54.2,31.7,42.8,10.3