File: 01_Data/Particleboard/Cone/Particleboard_Cone_HF25Scan_230705_R2.csv
Names,Time,Stack TC,Smoke TC,Exh Press,Smoke Comp,Smoke Meas,CO Meter,CO2 Meter,O2 Meter,Sample Mass,Ext Coeff,Start Test,Flame Verif
Chan Gain,,500,500,1,1,1,1,1,1,1,1,1.0,1.0
Offset,,0,0,0.236064,0,0,0,0,0,0,0,0.0,0.0
Gain,,1,1,25.011,12.9459,33.7291,1,1,1,1.00086,0.833623,1.0,1.0
Units,sec,C,C,Pa,%,%,%,%,%,g,/m,,
Baseline,,46.3357,47.4613,180.677,100.232,100.79,0.000982158,0.0437829,20.9641,-444.869,-0.0404673,,
76,18.75,45.2838,46.643,179.924,100.424,101.161,0.000831755,0.0450976,20.9633,212.363,-0.0534462,0.0,0.0
152,37.75,45.3603,46.7073,183.712,100.427,101.027,0.000962949,0.0431781,20.965,212.163,-0.0435373,0.0,0.0
228,56.75,45.7343,46.9897,181.942,100.45,101.128,0.000713443,0.0430737,20.967,211.863,-0.0491381,0.0,0.0
304,75.75,46.0883,47.3692,183.335,100.493,100.635,0.00115969,0.0436384,20.965,211.763,-0.010293,0.0,0.0
380,94.75,45.7821,47.4992,180.612,100.449,100.382,0.000854736,0.044601,20.9677,211.533,0.00486343,0.0,0.0
456,113.75,46.3083,48.0717,180.626,100.52,99.3088,0.00102958,0.0459929,20.9674,211.293,0.0886087,0.0,0.0
532,132.75,46.6796,47.9447,181.541,100.642,98.719,0.00105299,0.0484775,20.9644,210.902,0.141044,0.0,0.0
608,151.75,46.801,48.2754,178.237,100.576,102.895,0.002071,0.0527073,20.9612,210.332,-0.166691,0.0,1.0
684,170.75,54.3566,59.8207,164.12,100.352,100.973,0.00277587,0.278309,20.7527,208.01,-0.0451585,0.0,0.0
760,189.75,61.9068,69.4848,167.867,100.288,100.54,0.00445063,0.36667,20.598,205.197,-0.0183735,0.0,0.0
836,208.75,65.5989,72.7358,164.517,100.526,101.141,0.00561314,0.350723,20.6014,202.325,-0.0446142,0.0,0.0
912,227.75,67.9025,74.6809,163.386,100.835,100.311,0.00485426,0.338802,20.6207,199.682,0.0380558,0.0,0.0
988,246.75,68.8565,75.058,165.851,101.006,102.511,0.00426651,0.321127,20.6345,197.23,-0.108169,0.0,0.0
1064,265.75,68.2656,74.3693,162.991,101.142,104.272,0.00352089,0.288774,20.6637,194.998,-0.222872,0.0,0.0
1140,284.75,68.0809,72.5775,165.031,101.16,104.902,0.00324392,0.2589,20.7005,193.107,-0.265631,0.0,0.0
1216,303.75,66.9829,70.928,164.286,101.139,103.272,0.0029234,0.231042,20.7379,191.315,-0.152569,0.0,0.0
1292,322.75,65.6344,69.3176,168.929,101.005,104.029,0.00320079,0.209155,20.7661,189.694,-0.215763,0.0,0.0
1368,341.75,64.4544,67.3442,165.767,100.614,103.644,0.00373445,0.196638,20.7824,188.283,-0.217024,0.0,0.0
1444,360.75,63.5422,66.5254,170.257,100.147,104.97,0.0030282,0.18783,20.7939,186.861,-0.34393,0.0,0.0
1520,379.75,62.5237,65.0228,170.646,99.8704,101.958,0.00329954,0.179652,20.8034,185.47,-0.1513,0.0,0.0
1596,398.75,61.7921,64.1538,172.896,99.588,103.461,0.00360264,0.173026,20.8132,184.179,-0.279009,0.0,0.0
1672,417.75,61.4867,64.1526,171.784,99.4516,102.445,0.00354037,0.168545,20.8135,182.898,-0.216864,0.0,0.0
1748,436.75,60.7907,63.1995,167.319,99.4757,102.817,0.00323134,0.162667,20.8229,181.637,-0.241568,0.0,0.0
1824,455.75,60.794,63.0442,176.089,99.695,101.553,0.00427501,0.161564,20.8251,180.396,-0.135011,0.0,0.0
1900,474.75,60.0128,62.383,175.95,100.074,103.932,0.00380074,0.158185,20.8283,179.075,-0.276615,0.0,0.0
1976,493.75,60.0429,62.2437,167.904,100.409,104.461,0.00429379,0.155916,20.8326,178.024,-0.289277,0.0,0.0
2052,512.75,59.5629,62.0883,169.964,100.593,104.549,0.004291,0.154323,20.8328,176.893,-0.282076,0.0,0.0
2128,531.75,59.1125,61.1639,170.928,100.689,103.463,0.00441775,0.150191,20.8364,175.632,-0.198749,0.0,0.0
2204,550.75,58.7654,60.5025,174.133,100.663,105.107,0.00509509,0.145391,20.8433,174.691,-0.315912,0.0,0.0
2280,569.75,58.3533,60.4047,173.3,100.463,103.691,0.00580106,0.13883,20.8481,173.57,-0.231268,0.0,0.0
2356,588.75,57.7272,59.7948,173.551,100.158,103.975,0.00600698,0.134748,20.8573,172.619,-0.273452,0.0,0.0
2432,607.75,56.5398,58.0009,179.144,99.9273,103.067,0.00807406,0.120727,20.8721,171.588,-0.226215,0.0,0.0
2508,626.75,55.4196,56.9454,177.567,100.286,103.118,0.00846864,0.114777,20.8809,170.617,-0.203633,0.0,0.0
2584,645.75,55.0378,56.4438,172.257,100.587,103.823,0.00879897,0.111506,20.8861,169.727,-0.231545,0.0,0.0
2660,664.75,54.5387,55.971,173.072,100.691,103.285,0.00935346,0.109436,20.8875,168.786,-0.18598,0.0,0.0
2736,683.75,54.4681,55.6911,181.169,100.621,101.918,0.0086487,0.11048,20.8893,167.915,-0.0936643,0.0,0.0
2812,702.75,53.6799,55.5447,172.614,100.354,103.053,0.00855804,0.109816,20.8889,166.944,-0.194064,0.0,0.0
2888,721.75,53.5673,54.8004,182.113,100.503,102.743,0.00934368,0.106167,20.8937,166.013,-0.161172,0.0,0.0
2964,740.75,53.1021,54.2543,175.154,100.838,102.151,0.00997299,0.099632,20.9039,165.263,-0.0945614,0.0,0.0
3040,759.75,52.5288,53.6786,176.464,101.096,103.605,0.00948749,0.0985797,20.9012,164.452,-0.17926,0.0,0.0
3116,778.75,52.324,53.3864,178.176,101.168,102.675,0.0092731,0.101459,20.9009,163.641,-0.108116,0.0,0.0
3192,797.75,51.6633,53.284,182.69,101.201,102.342,0.009652,0.0998423,20.9021,162.761,-0.0819718,0.0,0.0
3268,816.75,52.4,53.8777,175.448,101.224,101.697,0.00953281,0.100893,20.9001,161.92,-0.0341138,0.0,0.0
3344,835.75,52.415,53.7718,180.423,101.218,102.12,0.00927822,0.100899,20.9021,161.099,-0.0648982,0.0,0.0
3420,854.75,52.0803,53.3681,174.803,101.22,103.782,0.00928712,0.101943,20.9016,160.268,-0.182834,0.0,0.0
3496,873.75,51.6128,53.877,177.907,101.201,102.187,0.00896168,0.101735,20.9012,159.428,-0.0708583,0.0,0.0
3572,892.75,52.0871,53.1407,179.758,101.187,102.332,0.00921855,0.102412,20.8992,158.507,-0.0822927,0.0,0.0
3648,911.75,52.358,53.2346,176.547,101.195,102.449,0.00919704,0.102576,20.8983,157.766,-0.0900742,0.0,0.0
3724,930.75,52.0173,53.5574,174.171,101.215,101.786,0.00982292,0.104748,20.8995,156.866,-0.0411494,0.0,0.0
3800,949.75,52.0607,53.7306,178.9,101.235,103.015,0.00924687,0.107609,20.8918,156.075,-0.127517,0.0,0.0
3876,968.75,52.1428,53.1646,174.352,101.219,103.661,0.00916948,0.106116,20.896,155.214,-0.174328,0.0,0.0
3952,987.75,52.1175,54.0697,179.352,101.152,102.745,0.00973394,0.105808,20.8947,154.343,-0.114213,0.0,0.0
4028,1006.75,52.246,54.1572,177.485,101.092,101.998,0.00961905,0.107569,20.8964,153.583,-0.0652778,0.0,0.0
4104,1025.75,51.5496,54.057,175.63,101.057,103.501,0.0101723,0.108666,20.8917,152.662,-0.174747,0.0,0.0
4180,1044.75,52.5578,53.9779,174.523,101.075,101.422,0.00967736,0.110936,20.894,151.871,-0.0250362,0.0,0.0
4256,1063.75,52.4683,54.3022,179.843,101.022,102.152,0.00993347,0.113064,20.8904,150.97,-0.0812966,0.0,0.0
4332,1082.75,52.8875,54.5487,173.269,100.798,101.364,0.00986277,0.113432,20.8889,150.13,-0.0410004,0.0,0.0
4408,1101.75,52.901,54.6225,173.676,100.497,101.112,0.0102306,0.114465,20.888,149.219,-0.0445993,0.0,0.0
4484,1120.75,52.8737,54.8819,179.773,100.414,101.019,0.0100215,0.115903,20.8879,148.298,-0.0438907,0.0,0.0
4560,1139.75,53.1319,54.9647,174.052,100.503,103.521,0.0103594,0.117684,20.8836,147.337,-0.216348,0.0,0.0
4636,1158.75,53.4419,55.4295,173.143,100.523,102.365,0.00919703,0.131776,20.867,146.356,-0.132798,0.0,0.0
4712,1177.75,54.6186,58.151,171.943,100.527,103.911,0.00787854,0.150688,20.852,145.306,-0.242129,0.0,0.0
4788,1196.75,56.3437,59.6932,169.049,100.514,103.15,0.00582561,0.170618,20.8198,144.235,-0.189293,0.0,0.0
4864,1215.75,57.8633,61.292,167.796,100.261,103.798,0.00407233,0.181147,20.805,143.024,-0.253523,0.0,0.0
4940,1234.75,59.0303,62.972,176.075,99.8748,103.479,0.00357425,0.192141,20.7888,141.752,-0.259215,0.0,0.0
5016,1253.75,59.8642,63.7759,170.015,99.6085,103.418,0.00293732,0.200643,20.7809,140.291,-0.274445,0.0,0.0
5092,1272.75,61.2051,64.9131,166.71,99.5338,101.646,0.0025465,0.210964,20.769,138.99,-0.153586,0.0,0.0
5168,1291.75,62.136,65.808,165.169,99.5259,102.237,0.00213571,0.21789,20.7628,137.389,-0.196548,0.0,0.0
5244,1310.75,62.9264,67.0986,169.879,99.552,104.01,0.00245924,0.224868,20.7495,135.937,-0.320324,0.0,0.0
5320,1329.75,63.3864,67.5926,166.826,99.5658,104.218,0.00237743,0.226315,20.7509,134.346,-0.333912,0.0,0.0
5396,1348.75,64.2124,68.2696,172.351,99.6271,102.491,0.00229853,0.230638,20.7461,132.855,-0.207209,0.0,0.0
5472,1367.75,64.4903,67.9697,171.362,99.6832,102.025,0.0020757,0.232055,20.7461,131.163,-0.169822,0.0,0.0
5548,1386.75,64.6311,68.3099,168.223,99.7744,102.71,0.00231338,0.235281,20.7404,129.622,-0.212027,0.0,0.0
5624,1405.75,65.4724,69.1947,171.444,99.9095,102.039,0.00219185,0.245896,20.7302,127.85,-0.154193,0.0,0.0
5700,1424.75,66.1852,70.6994,167.291,100.1,103.29,0.00252384,0.258916,20.718,126.129,-0.229451,0.0,0.0
5776,1443.75,67.1671,71.3373,166.931,100.192,103.334,0.00263691,0.274554,20.6987,124.037,-0.225761,0.0,0.0
5852,1462.75,68.0551,72.8666,164.895,100.281,102.228,0.00283458,0.289585,20.6764,122.236,-0.140652,0.0,0.0
5928,1481.75,69.2145,74.6337,167.178,100.364,103.044,0.00365241,0.29696,20.665,120.104,-0.192703,0.0,0.0
6004,1500.75,70.3176,75.3633,163.36,100.555,101.231,0.00398191,0.306999,20.6515,118.092,-0.0489881,0.0,0.0
6080,1519.75,70.8345,76.0884,162.359,100.671,100.05,0.00437424,0.309694,20.6441,116.03,0.0452395,0.0,0.0
6156,1538.75,70.9076,75.6355,164.96,100.763,100.325,0.00422594,0.300751,20.644,114.189,0.0318632,0.0,0.0
6232,1557.75,70.1033,74.1433,171.892,100.753,102.02,0.00334821,0.273301,20.6733,112.547,-0.0913879,0.0,0.0
6308,1576.75,67.455,70.2353,172.732,100.702,102.441,0.00336904,0.196191,20.7471,111.847,-0.125202,0.0,0.0
6384,1595.75,64.0952,65.5792,172.13,100.596,103.973,0.00462873,0.140812,20.8221,111.206,-0.241446,0.0,0.0
6460,1614.75,61.6873,62.739,174.986,100.513,103.288,0.00577975,0.119981,20.8564,110.916,-0.199179,0.0,0.0
6536,1633.75,59.7112,59.6421,172.727,100.345,101.979,0.00584364,0.107078,20.8781,110.515,-0.118117,0.0,0.0
6612,1652.75,57.6392,57.8603,174.123,100.215,103.719,0.00611466,0.101593,20.8861,110.185,-0.25131,0.0,0.0
6688,1671.75,55.9423,56.5284,177.181,100.095,102.792,0.00611123,0.100736,20.8934,109.865,-0.194443,0.0,0.0
6764,1690.75,54.668,54.8625,176.66,100.012,101.426,0.00663224,0.0902371,20.9022,109.585,-0.102656,0.0,0.0
6840,1709.75,54.0503,53.7801,176.319,99.9976,102.242,0.00657497,0.0865726,20.9103,109.324,-0.162339,0.0,0.0
6916,1728.75,52.5133,53.293,175.157,100.269,102.178,0.00680813,0.0876103,20.9113,109.124,-0.137908,0.0,0.0
6992,1747.75,52.6432,53.2853,177.728,100.462,104.677,0.00659867,0.0876893,20.9096,108.874,-0.30051,0.0,0.0
7068,1766.75,52.1316,53.052,177.29,100.611,102.557,0.00636551,0.0868602,20.9086,108.714,-0.140102,0.0,0.0
7144,1785.75,52.0776,52.7306,177.506,100.574,103.582,0.00645194,0.0871686,20.9103,108.444,-0.215493,0.0,0.0
7220,1804.75,51.9415,52.1971,174.593,100.51,102.083,0.00628673,0.0879504,20.909,108.203,-0.113572,0.0,0.0
7235,1808.5,51.7595,52.2177,173.808,100.48,102.764,0.00611471,0.0872616,20.9089,108.223,-0.164407,0.0,0.0