File: 01_Data/Feather_Pillow_Feathers/Cone/Feather_Pillow_Feathers_Cone_HF50Scan_230710_R3.csv
Names,Time,Stack TC,Smoke TC,Exh Press,Smoke Comp,Smoke Meas,CO Meter,CO2 Meter,O2 Meter,Sample Mass,Ext Coeff,Start Test,Flame Verif
Chan Gain,,500,500,1,1,1,1,1,1,1,1,1.0,1.0
Offset,,0,0,0.18266,0,0,0,0,0,0,0,0.0,0.0
Gain,,1,1,25.011,12.977,51.8855,1,1,1,1.00092,0.871134,1.0,1.0
Units,sec,C,C,Pa,%,%,%,%,%,g,/m,,
Baseline,,54.6524,57.2604,173.87,100.032,100.694,-4.56684e-05,0.0443258,20.9553,-446.635,-0.050157,,
7,1.5,53.3541,54.9502,173.401,100.027,100.444,0.000167964,0.0439995,20.9555,49.6157,-0.0318193,0.0,0.0
14,3.25,53.6061,55.4159,170.723,100.036,90.4924,0.000148585,0.0440325,20.9559,49.4856,0.766196,0.0,0.0
21,5,53.7279,55.6083,169.828,100.008,85.5616,0.000183486,0.0440573,20.9564,49.2854,1.19216,0.0,0.0
28,6.75,54.228,56.5441,170.572,100.019,84.8063,0.000339772,0.0442434,20.957,49.0852,1.2608,0.0,0.0
35,8.5,54.4024,57.1064,155.668,100.01,102.077,0.000483192,0.0443457,20.9572,48.7349,-0.156288,0.0,1.0
42,10.25,55.3544,60.2287,152.859,100.009,103.011,0.000506172,0.0446032,20.9565,48.4346,-0.225967,0.0,1.0
49,12,57.4103,64.7412,153.254,100.001,101.011,0.000581839,0.0462673,20.9559,48.2144,-0.0767906,0.0,1.0
56,13.75,58.3234,66.5499,146.649,99.9848,98.6581,0.0010187,0.0495667,20.956,47.9942,0.102078,0.0,1.0
63,15.5,59.5839,69.9303,148.099,99.9729,93.6212,0.00165758,0.0537894,20.9545,47.6739,0.501608,0.0,1.0
70,17.25,61.3048,72.8254,138.472,99.9927,87.4522,0.00263302,0.0992708,20.9528,47.4837,1.024,0.0,0.0
77,19,62.9431,75.255,148.191,99.9721,81.9039,0.00341101,0.19702,20.9254,47.1935,1.5233,0.0,0.0
84,20.75,64.3171,76.9897,151.078,99.9844,85.028,0.00368992,0.281223,20.8071,47.0333,1.23818,0.0,0.0
91,22.5,65.62,78.6281,157.689,99.9586,92.6331,0.00352262,0.341812,20.6839,46.9332,0.581594,0.0,0.0
98,24.25,66.1862,78.7147,158.982,99.9389,98.0437,0.0032811,0.396589,20.6003,46.9633,0.1463,0.0,0.0
105,26,66.515,77.9384,167.794,99.927,102.384,0.00401636,0.455897,20.5192,46.9332,-0.185607,0.0,0.0
112,27.75,65.9778,76.6489,168.7,99.9218,101.774,0.00556183,0.494739,20.4258,47.0033,-0.140366,0.0,0.0
119,29.5,65.0312,75.3573,167.939,99.9175,102.203,0.00719829,0.501781,20.3454,47.0133,-0.17285,0.0,0.0
126,31.25,64.8801,73.2258,172.865,99.8937,101.803,0.00839387,0.46931,20.3063,46.9933,-0.144656,0.0,0.0
133,33,64.2711,72.9071,169.151,99.8961,102.998,0.00840087,0.391817,20.3076,46.9733,-0.233687,0.0,0.0
140,34.75,63.9303,71.3656,169.715,99.8874,101.176,0.0073903,0.302324,20.3795,46.9633,-0.0979284,0.0,0.0
147,36.5,63.9189,70.7058,167.62,99.8668,101.852,0.00619319,0.21171,20.4752,46.9633,-0.150399,0.0,0.0
154,38.25,63.0835,70.0995,171.814,99.8513,100.761,0.00502478,0.150566,20.6014,46.9332,-0.0692887,0.0,0.0
161,40,63.2472,69.4582,173.977,99.8216,100.002,0.0043888,0.113783,20.7177,46.9232,-0.0138242,0.0,0.0
168,41.75,63.3012,68.1411,168.058,99.8097,101.885,0.00411765,0.0945917,20.797,46.9032,-0.157259,0.0,0.0
175,43.5,62.8461,68.1597,165.614,99.8121,101.158,0.00406586,0.0849172,20.8434,46.9332,-0.102371,0.0,0.0
182,45.25,63.3078,68.1356,171.95,99.7836,102.009,0.00408936,0.0793831,20.8763,46.9633,-0.168518,0.0,0.0
189,47,62.0603,67.0261,171.277,99.765,102.479,0.0040663,0.0772636,20.8907,46.9332,-0.205091,0.0,0.0
196,48.75,62.22,66.5952,170.341,99.7301,101.993,0.00392101,0.0761882,20.9024,46.9332,-0.171427,0.0,0.0
203,50.5,62.3177,66.3186,171.778,99.7321,102.1,0.00369175,0.0761365,20.9082,46.8632,-0.179338,0.0,0.0
210,52.25,62.0303,65.8607,172.092,99.7088,101.641,0.00340655,0.0757745,20.9116,46.8532,-0.146684,0.0,0.0
217,54,61.8526,65.8178,171.62,99.6684,100.856,0.0031404,0.0760288,20.9144,46.8532,-0.0905052,0.0,0.0
224,55.75,61.4503,65.6601,172.84,99.6505,102.482,0.00296944,0.0755131,20.9159,46.8832,-0.214098,0.0,0.0
231,57.5,61.4906,65.6212,168.546,99.6216,101.332,0.00283266,0.0742197,20.9166,46.8231,-0.130115,0.0,0.0
238,59.25,61.3999,65.2936,168.214,99.5832,101.465,0.00270251,0.0730801,20.9178,46.8231,-0.143086,0.0,0.0
245,61,61.2316,64.8887,169.344,99.5927,100.021,0.00254244,0.0720966,20.9187,46.8231,-0.0328192,0.0,0.0
252,62.75,61.2405,64.853,174.191,99.5666,101.097,0.00238948,0.0718024,20.9205,46.7831,-0.116527,0.0,0.0
259,64.5,60.9426,64.8529,170.531,99.5309,100.446,0.0023335,0.0716778,20.9215,46.7931,-0.0699125,0.0,0.0
266,66.25,61.3489,64.34,169.124,99.5179,101.13,0.00222983,0.0711771,20.9222,46.8131,-0.122778,0.0,0.0
273,68,60.77,63.8837,166.42,99.5155,101.019,0.0020849,0.0703295,20.9225,46.8031,-0.114581,0.0,0.0
280,69.75,61.0392,64.0536,174.437,99.5099,101.423,0.00193796,0.0696066,20.9227,46.8131,-0.145489,0.0,0.0
287,71.5,60.6438,63.9729,171.26,99.4981,101.298,0.00174286,0.0690598,20.9226,46.8031,-0.136971,0.0,0.0
294,73.25,60.9777,64.1013,170.979,99.4644,102.406,0.0015447,0.0685137,20.9238,46.8231,-0.222716,0.0,0.0
301,75,60.5352,63.4704,168.081,99.4557,101.621,0.00143565,0.068101,20.9253,46.7531,-0.164555,0.0,0.0
308,76.75,60.6436,63.6817,169.028,99.4074,101.746,0.0013961,0.0678648,20.9263,46.7831,-0.177668,0.0,0.0
315,78.5,60.3513,63.6381,170.825,99.4339,102.468,0.00136714,0.0670703,20.9268,46.7831,-0.229666,0.0,0.0
322,80.25,60.1798,63.3416,167.484,99.3864,99.8298,0.001258,0.0660064,20.9279,46.8031,-0.034015,0.0,0.0
329,82,60.2194,63.8472,175.451,99.3527,100.33,0.00117941,0.0651446,20.9294,46.7731,-0.0748089,0.0,0.0
336,83.75,60.5784,63.3059,172.959,99.3393,100.051,0.0011556,0.0646698,20.9307,46.7631,-0.0545891,0.0,0.0
343,85.5,60.3568,63.2177,171.51,99.306,100.235,0.00111408,0.0644356,20.9313,46.7731,-0.0711642,0.0,0.0
350,87.25,59.8841,63.0183,175.999,99.3266,101.242,0.00105042,0.063907,20.9316,46.7731,-0.145971,0.0,0.0
357,89,59.975,63.2345,170.338,99.2854,101.078,0.000962616,0.0632173,20.9318,46.7831,-0.1367,0.0,0.0
364,90.75,60.0752,63.1447,170.158,99.2597,100.428,0.000856691,0.0624817,20.9323,46.733,-0.0894439,0.0,0.0
371,92.5,60.0248,63.1214,171.453,99.2509,100.938,0.000877454,0.0619054,20.9327,46.723,-0.128812,0.0,0.0
378,94.25,59.4483,63.4119,168.674,99.2367,100.013,0.00100363,0.0612592,20.9339,46.7431,-0.0595804,0.0,0.0
385,96,59.5834,63.2776,169.17,99.2315,101.239,0.00110063,0.0606177,20.9346,46.7531,-0.153047,0.0,0.0
392,97.75,59.8977,63.3278,173.348,99.2256,102.14,0.00113297,0.0602933,20.935,46.7931,-0.221209,0.0,0.0
399,99.5,59.8322,63.3387,170.7,99.188,101.845,0.00110726,0.0597487,20.9361,46.7631,-0.202041,0.0,0.0
406,101.25,60.0221,62.9154,173.549,99.1583,101.565,0.00101453,0.0589949,20.9369,46.7531,-0.183272,0.0,0.0
413,103,59.818,63.595,168.765,99.15,100.929,0.000929789,0.0584803,20.9372,46.7631,-0.135871,0.0,0.0
420,104.75,59.9186,63.301,168.952,99.1492,100.861,0.000871987,0.0577213,20.9374,46.723,-0.130775,0.0,0.0
427,106.5,59.8539,62.9853,170.17,99.1246,100.691,0.000794747,0.0569094,20.9383,46.703,-0.119821,0.0,0.0
434,108.25,59.9695,62.4083,169.211,99.0858,100.664,0.000755719,0.0563744,20.9391,46.713,-0.12077,0.0,0.0
441,110,59.9998,62.8199,170.465,99.0597,98.9937,0.000711209,0.0557022,20.9396,46.703,0.00508773,0.0,0.0
448,111.75,59.4261,62.7845,174.293,99.0557,100.645,0.000608589,0.0553538,20.9398,46.703,-0.121649,0.0,0.0
455,113.5,59.4833,62.6876,172.515,99.0205,100.447,0.000535775,0.0549327,20.9403,46.723,-0.109327,0.0,0.0
462,115.25,59.5723,62.8002,167.944,99.0058,101.453,0.000562912,0.0545423,20.9414,46.683,-0.186568,0.0,0.0
469,117,59.6523,62.7394,169.088,98.9769,101.432,0.000629917,0.0541895,20.9411,46.733,-0.187249,0.0,0.0
476,118.75,59.1513,62.7289,173.253,98.9504,101.7,0.000665632,0.0538502,20.9417,46.723,-0.209431,0.0,0.0
483,120.5,59.3096,62.8836,168.901,98.9488,100.913,0.00069472,0.0536315,20.942,46.693,-0.150193,0.0,0.0
490,122.25,59.519,62.5332,169.276,98.9373,101.125,0.000720043,0.0533906,20.9422,46.693,-0.167131,0.0,0.0
497,124,59.4277,62.7354,169.327,98.9282,100.348,0.000718497,0.0531926,20.9422,46.653,-0.108859,0.0,0.0
504,125.75,59.2886,62.7162,176.172,98.8965,101.182,0.000696547,0.0528898,20.9429,46.653,-0.174587,0.0,0.0
511,127.5,58.9053,62.7005,173.482,98.8779,100.074,0.000702177,0.0523001,20.9434,46.683,-0.0918553,0.0,0.0
518,129.25,59.1616,62.4805,173.03,98.8743,100.085,0.000674207,0.0517196,20.9436,46.673,-0.0929774,0.0,0.0
525,131,59.0558,62.17,176.609,98.8775,101.765,0.000609559,0.0511664,20.9437,46.643,-0.219938,0.0,0.0
532,132.75,59.0614,62.1861,170.92,98.8597,101.157,0.000499887,0.0506037,20.9438,46.633,-0.17552,0.0,0.0
539,134.5,59.3885,62.2761,166.081,98.8478,100.477,0.000310782,0.0502072,20.9438,46.693,-0.124951,0.0,0.0
546,136.25,59.0737,62.3809,172.125,98.8232,99.7411,0.000186952,0.0499986,20.9438,46.723,-0.070647,0.0,0.0
553,138,59.4326,61.958,169.406,98.8434,100.009,7.93256e-05,0.0495277,20.9462,46.683,-0.08956,0.0,0.0
560,139.75,59.3785,62.4873,173.235,98.83,101.868,4.13605e-05,0.049116,20.9473,46.693,-0.231335,0.0,0.0
567,141.5,59.6616,62.2731,167.7,98.8133,100.042,4.55854e-05,0.048858,20.9479,46.683,-0.0944271,0.0,0.0
574,143.25,59.522,61.944,174.615,98.807,101.184,9.26015e-05,0.0485897,20.9492,46.693,-0.181626,0.0,0.0
581,145,59.4589,62.412,166.655,98.803,100.287,0.000201015,0.0482258,20.9501,46.703,-0.113947,0.0,0.0
588,146.75,59.5665,62.5283,170.817,98.8137,100.137,0.000293451,0.0480584,20.9504,46.703,-0.10165,0.0,0.0
595,148.5,59.6202,62.422,174.368,98.8125,98.7214,0.000349713,0.0478417,20.9505,46.693,0.00705289,0.0,0.0