File: 01_Data/Feather_Pillow_Feathers/Cone/Feather_Pillow_Feathers_Cone_HF25Scalar_230710_R2.csv
LABORATORY,FSRI
TEST IDENT,Fea_Pill_Fea_HF25_R2
OPERATOR,Marino
MATERIAL,Feather Pillow Feathers
ORIENTATION,Horizontal
HEAT FLUX,25
SURF AREA,0.01
C FACTOR,0.0383364
SPEC HOLDER DIFF,-566
SPECIMEN MASS,5.35
SCAN TIME,0.25
O2 DELAY TIME,11
CO DELAY TIME,11
CO2 DELAY TIME,8
FLOW FACTOR,1
SCAN COUNT,1475
TIME TO IGN,0
END OF TEST SCAN,995
END OF TEST TIME,248.75
TEST STATUS,1
PRE TEST CMT,5 cm depth tray filled without compression
POST TEST CMT,"Sample did not ignite. Sample shrank and charred. Leftover charred mass bubbled."