File: 01_Data/Feather_Pillow_Feathers/Cone/Feather_Pillow_Feathers_Cone_HF50Scan_230710_R2.csv
Names,Time,Stack TC,Smoke TC,Exh Press,Smoke Comp,Smoke Meas,CO Meter,CO2 Meter,O2 Meter,Sample Mass,Ext Coeff,Start Test,Flame Verif
Chan Gain,,500,500,1,1,1,1,1,1,1,1,1.0,1.0
Offset,,0,0,0.18266,0,0,0,0,0,0,0,0.0,0.0
Gain,,1,1,25.011,12.9861,52.0581,1,1,1,1.00092,0.871134,1.0,1.0
Units,sec,C,C,Pa,%,%,%,%,%,g,/m,,
Baseline,,55.8363,58.0948,174.044,99.6774,99.9784,3.38473e-05,0.0444385,20.952,-446.56,-0.0228256,,
7,1.5,53.7907,55.6102,172.446,100.051,99.1118,0.000200194,0.0453986,20.9533,49.6457,0.0720716,0.0,0.0
14,3.25,54.5251,56.107,171.789,100.033,89.424,0.00017886,0.0453903,20.9529,49.5056,0.856714,0.0,0.0
21,5,54.593,56.3946,157.215,100,102.975,0.00017407,0.0452332,20.9527,49.1052,-0.224035,0.0,1.0
28,6.75,55.7116,60.2516,153.665,99.9785,103.649,0.00025965,0.0450496,20.9526,48.7449,-0.275524,0.0,1.0
35,8.5,56.1038,64.1531,154.344,99.9293,102.211,0.000372361,0.0449946,20.9525,48.4146,-0.172539,0.0,1.0
42,10.25,58.9621,66.0057,161.692,99.8691,103.26,0.000446986,0.0452831,20.9525,48.2044,-0.255138,0.0,0.0
49,12,59.6614,68.1364,150.134,99.8267,101.543,0.000648366,0.0477225,20.9525,47.9842,-0.130225,0.0,0.0
56,13.75,61.0326,70.9962,150.276,99.7696,95.5929,0.00112684,0.0834122,20.9517,47.6939,0.326795,0.0,0.0
63,15.5,62.2601,72.569,154.616,99.7692,89.6861,0.00201753,0.167093,20.9383,47.5138,0.814157,0.0,0.0
70,17.25,63.2313,75.4527,146.194,99.7708,81.1851,0.0027353,0.259341,20.8592,47.3236,1.57526,0.0,0.0
77,19,64.6877,77.5072,156.805,99.7994,87.3619,0.00309598,0.309803,20.7527,47.1234,1.01711,0.0,0.0
84,20.75,65.8236,78.4411,158.25,99.8323,88.6916,0.00318319,0.331401,20.635,46.9833,0.904191,0.0,0.0
91,22.5,66.42,79.0599,160.7,99.8564,88.7282,0.00336968,0.357281,20.5734,46.8732,0.902894,0.0,0.0
98,24.25,66.8838,79.2758,163.328,99.883,98.219,0.00398813,0.394183,20.5289,46.9733,0.128377,0.0,0.0
105,26,67.2075,78.0519,171.208,99.904,101.201,0.0052455,0.437873,20.4751,47.0033,-0.0985636,0.0,0.0
112,27.75,67.0156,76.9217,169.199,99.9282,101.681,0.00675862,0.460061,20.4092,46.9733,-0.132857,0.0,0.0
119,29.5,66.4326,75.3364,169.355,99.9404,100.683,0.00808077,0.444466,20.3685,47.0233,-0.0565683,0.0,0.0
126,31.25,65.2226,73.9354,167.002,99.969,101.52,0.00844655,0.403879,20.3587,46.9833,-0.117668,0.0,0.0
133,33,64.5704,72.9957,167.456,100.007,100.184,0.00792469,0.346574,20.3994,47.0033,-0.0135244,0.0,0.0
140,34.75,65.3265,72.0249,166.538,100.015,101.071,0.00700348,0.276052,20.4558,46.9432,-0.0802079,0.0,0.0
147,36.5,64.6497,71.2185,168.614,100.025,100.481,0.00577853,0.2099,20.542,46.9733,-0.0347877,0.0,0.0
154,38.25,64.1289,70.5666,174.029,100.053,102.056,0.00492099,0.15331,20.6308,46.9432,-0.151412,0.0,0.0
161,40,64.1218,69.5721,173.209,100.073,101.612,0.00453463,0.118962,20.7324,46.9132,-0.116668,0.0,0.0
168,41.75,64.0652,69.1446,175.445,100.109,100.993,0.00443007,0.100458,20.8001,46.9032,-0.0671467,0.0,0.0
175,43.5,64.0118,68.4145,169.152,100.105,101.862,0.00443691,0.0907094,20.8421,46.9032,-0.132921,0.0,0.0
182,45.25,63.4894,67.8258,169.38,100.128,101.747,0.00434273,0.0853042,20.8675,46.8732,-0.122581,0.0,0.0
189,47,63.3425,68.0884,171.727,100.146,101.368,0.00419058,0.0820688,20.8853,46.8732,-0.0926501,0.0,0.0
196,48.75,63.2047,67.9023,167.116,100.196,102.183,0.00401921,0.0804013,20.8961,46.8832,-0.150063,0.0,0.0
203,50.5,63.2822,67.1266,175.133,100.189,101.778,0.00383744,0.0793519,20.9027,46.8732,-0.120191,0.0,0.0
210,52.25,63.0153,67.1287,169.507,100.227,102.119,0.0036507,0.0783016,20.9059,46.8431,-0.142893,0.0,0.0
217,54,62.129,66.4675,168.483,100.238,101.26,0.00347346,0.0775195,20.9082,46.8231,-0.0775199,0.0,0.0
224,55.75,62.8144,66.2433,174.152,100.254,102.58,0.00329712,0.076424,20.911,46.8431,-0.175296,0.0,0.0
231,57.5,62.5297,66.1324,165.811,100.277,102.126,0.00306517,0.075042,20.9131,46.8632,-0.139592,0.0,0.0
238,59.25,62.1552,66.3387,172.053,100.27,102.048,0.00279017,0.0740778,20.915,46.8932,-0.134278,0.0,0.0
245,61,61.9824,65.7956,171.289,100.302,102.008,0.00254028,0.0732772,20.9167,46.8431,-0.128858,0.0,0.0
252,62.75,62.1091,65.5088,170.168,100.294,102.129,0.00229581,0.0723762,20.9179,46.9032,-0.138561,0.0,0.0
259,64.5,61.8853,64.9264,165.543,100.313,102.203,0.0020455,0.0714742,20.9193,46.8932,-0.142667,0.0,0.0
266,66.25,61.8539,65.0189,171.393,100.341,101.577,0.00191073,0.0710606,20.92,46.8532,-0.0935796,0.0,0.0
273,68,61.8683,65.0212,169.336,100.323,101.427,0.00187864,0.0705649,20.9203,46.9332,-0.0836055,0.0,0.0
280,69.75,61.9439,64.9773,166.673,100.35,102.394,0.00186689,0.0704254,20.9207,46.8932,-0.1541,0.0,0.0
287,71.5,61.7086,64.6607,172.642,100.349,101.97,0.00184715,0.0698983,20.9218,46.8532,-0.122409,0.0,0.0
294,73.25,61.6732,64.403,173.691,100.379,100.556,0.00182946,0.0690975,20.9224,46.7831,-0.0134756,0.0,0.0
301,75,61.4523,64.4872,168.448,100.377,101.191,0.00177553,0.0683699,20.9231,46.8131,-0.0617662,0.0,0.0
308,76.75,61.2801,64.4318,170.905,100.383,100.689,0.00169382,0.0674454,20.9242,46.7831,-0.0233082,0.0,0.0
315,78.5,61.0727,64.6878,174.533,100.354,101.075,0.00164791,0.0662413,20.9248,46.7631,-0.0547529,0.0,0.0
322,80.25,61.2678,63.8897,172.24,100.376,101.28,0.00162904,0.0652672,20.9257,46.7831,-0.0685414,0.0,0.0
329,82,61.1159,64.5053,170.08,100.361,101.185,0.00156547,0.0644635,20.9267,46.7531,-0.0624926,0.0,0.0
336,83.75,61.0957,63.9643,171.53,100.372,103.141,0.00155722,0.0636409,20.9272,46.8131,-0.207902,0.0,0.0
343,85.5,60.7173,64.3364,171.666,100.355,101.212,0.00161594,0.06287,20.9278,46.8131,-0.0650146,0.0,0.0
350,87.25,60.9549,64.0853,167.539,100.36,101.074,0.00169129,0.0621275,20.9289,46.7931,-0.0541804,0.0,0.0
357,89,60.9064,64.1369,171.57,100.38,102.645,0.00172601,0.0615142,20.9314,46.7731,-0.170547,0.0,0.0
364,90.75,60.4294,63.8538,172.301,100.384,101.21,0.00170081,0.0609896,20.9331,46.7831,-0.0626625,0.0,0.0
371,92.5,60.5902,63.4527,172.711,100.385,101.417,0.00161863,0.0600196,20.9339,46.733,-0.0781797,0.0,0.0
378,94.25,60.6361,63.4477,170.656,100.397,101.786,0.00145596,0.0595351,20.9351,46.7631,-0.104935,0.0,0.0
385,96,60.5787,63.5071,173.859,100.417,102.224,0.00130223,0.0592044,20.9361,46.7431,-0.136275,0.0,0.0
392,97.75,60.477,63.8445,172.435,100.437,102.96,0.00125508,0.0585703,20.9366,46.7431,-0.189525,0.0,0.0
399,99.5,60.3709,63.2818,170.628,100.45,101.241,0.00133246,0.0579952,20.9374,46.7531,-0.0598746,0.0,0.0
406,101.25,60.7337,63.2642,168.952,100.472,101.099,0.00133657,0.0573664,20.9389,46.7631,-0.0475672,0.0,0.0
413,103,60.5614,63.0953,171.196,100.485,101.786,0.00118875,0.0567088,20.9396,46.7731,-0.0982416,0.0,0.0
420,104.75,59.7033,63.4527,170.718,100.505,102.459,0.000981843,0.0561904,20.9399,46.7831,-0.14717,0.0,0.0
427,106.5,60.7673,63.592,171.16,100.497,100.078,0.000860532,0.0556363,20.9401,46.733,0.0319654,0.0,0.0
434,108.25,60.5978,63.4573,166.502,100.52,101.433,0.000830294,0.0551663,20.9401,46.7531,-0.0690663,0.0,0.0
441,110,60.1743,63.5608,170.359,100.56,101.339,0.000853608,0.0548187,20.941,46.7631,-0.0589892,0.0,0.0
448,111.75,60.0854,63.2763,173.286,100.557,101.047,0.00082865,0.0545416,20.9422,46.7731,-0.0371257,0.0,0.0
455,113.5,60.4166,63.0928,176.361,100.568,101.465,0.000704486,0.0542337,20.9426,46.7731,-0.0678149,0.0,0.0
462,115.25,60.2878,62.9973,169.128,100.564,101.145,0.000473611,0.0538752,20.9428,46.7931,-0.0440294,0.0,0.0
469,117,60.2306,63.2017,174.762,100.591,102,0.00031705,0.0537004,20.9429,46.7731,-0.106284,0.0,0.0
476,118.75,60.3561,62.9054,166.521,100.614,101.314,0.000316147,0.0533567,20.943,46.7431,-0.0529777,0.0,0.0
483,120.5,60.2095,62.8177,167.963,100.611,102.114,0.000393329,0.0528811,20.9441,46.7431,-0.113374,0.0,0.0
490,122.25,60.0472,63.0263,167.629,100.624,102.561,0.000496729,0.0525047,20.9443,46.733,-0.145715,0.0,0.0
497,124,59.8944,62.832,172.232,100.639,101.897,0.000545323,0.0521434,20.9451,46.7531,-0.0949016,0.0,0.0
504,125.75,60.1708,63.0063,173.359,100.649,102.383,0.000493004,0.0514983,20.9459,46.7731,-0.13055,0.0,0.0
511,127.5,60.3437,62.5284,169.304,100.64,101.406,0.000407541,0.0507479,20.9464,46.7431,-0.0579088,0.0,0.0
518,129.25,59.9603,62.7707,170.219,100.672,102.159,0.000372766,0.0500634,20.9469,46.733,-0.112037,0.0,0.0
525,131,59.6514,62.778,171.165,100.651,100.782,0.000347936,0.0495678,20.9481,46.7531,-0.00987141,0.0,0.0
532,132.75,59.7755,62.7598,168.464,100.649,101.822,0.000307688,0.0493054,20.9487,46.7531,-0.0885176,0.0,0.0
539,134.5,59.8973,62.8529,169.958,100.666,101.851,0.000308055,0.0494111,20.9472,46.7631,-0.0893697,0.0,0.0
546,136.25,60.1166,62.2929,168.764,100.671,101.644,0.000406624,0.0494335,20.9462,46.7431,-0.0735276,0.0,0.0
553,138,59.8359,62.7393,167.571,100.674,102.691,0.000490693,0.0491488,20.9458,46.7831,-0.151623,0.0,0.0
560,139.75,60.2176,62.7329,170.572,100.655,102.041,0.00050261,0.0489568,20.9456,46.7531,-0.104563,0.0,0.0
567,141.5,59.8344,62.8111,170.24,100.649,102.728,0.000498213,0.0487848,20.9455,46.7531,-0.156237,0.0,0.0
574,143.25,59.7004,62.7849,171.392,100.645,101.234,0.000527412,0.0485542,20.9454,46.7431,-0.0445769,0.0,0.0
581,145,59.4899,62.6828,172.043,100.651,101.687,0.000518179,0.0484612,20.9454,46.7431,-0.0782566,0.0,0.0
588,146.75,59.5161,62.4952,170.769,100.647,99.9379,0.00041899,0.0482145,20.9465,46.7531,0.0539997,0.0,0.0
595,148.5,59.6814,62.3715,169.858,100.624,102.427,0.000355453,0.0479329,20.9471,46.733,-0.135765,0.0,0.0
597,149,59.3659,62.5396,171.436,100.624,101.203,0.000346825,0.0478502,20.9473,46.7631,-0.0438027,0.0,0.0