File: 01_Data/Feather_Pillow_Feathers/Cone/Feather_Pillow_Feathers_Cone_HF75Scan_230710_R3.csv
Names,Time,Stack TC,Smoke TC,Exh Press,Smoke Comp,Smoke Meas,CO Meter,CO2 Meter,O2 Meter,Sample Mass,Ext Coeff,Start Test,Flame Verif
Chan Gain,,500,500,1,1,1,1,1,1,1,1,1.0,1.0
Offset,,0,0,0.18266,0,0,0,0,0,0,0,0.0,0.0
Gain,,1,1,25.011,12.9494,73.1405,1,1,1,1.00092,0.871134,1.0,1.0
Units,sec,C,C,Pa,%,%,%,%,%,g,/m,,
Baseline,,67.8388,71.1797,167.304,99.8215,100.175,0.000226445,0.0440013,20.9515,-448.532,-0.0269346,,
6,1.25,65.962,67.2071,173.66,99.8671,90.5574,-0.000191061,0.047583,20.9462,47.6039,0.747772,0.0,0.0
12,2.75,65.9016,68.7338,144.965,99.8686,102.153,-9.81413e-05,0.0477975,20.9447,47.2735,-0.172819,0.0,1.0
18,4.25,67.6406,71.2071,138.737,99.9121,100.421,-5.7269e-05,0.0473216,20.9446,46.8131,-0.0388148,0.0,1.0
24,5.75,69.3919,76.5913,141.186,99.9117,98.2915,-2.84673e-05,0.0465908,20.945,46.4728,0.124934,0.0,1.0
30,7.25,71.1787,81.5382,144.356,99.9493,98.4946,3.49663e-05,0.0460676,20.9452,46.1926,0.11203,0.0,0.0
36,8.75,72.4706,84.953,148.374,99.9536,95.2626,0.000177773,0.0465965,20.9453,45.8422,0.367321,0.0,0.0
42,10.25,74.8503,87.4146,148.386,99.9935,88.5552,0.000363284,0.0602477,20.9449,45.642,0.928287,0.0,0.0
48,11.75,75.5687,89.818,149.396,100.006,84.7227,0.000708898,0.119491,20.9436,45.4519,1.26733,0.0,0.0
54,13.25,76.9351,91.889,149.312,100.017,82.8255,0.00116571,0.24453,20.9325,45.2317,1.44124,0.0,0.0
60,14.75,78.4346,92.7013,148.44,100.034,81.6269,0.0018341,0.362228,20.85,45.1015,1.55394,0.0,0.0
66,16.25,78.9243,93.6306,154.371,100.05,83.7585,0.00250768,0.444643,20.6666,44.9814,1.35818,0.0,0.0
72,17.75,79.5473,94.3316,153.245,100.077,91.5931,0.00320395,0.493775,20.509,44.9114,0.676943,0.0,0.0
78,19.25,79.922,93.9959,158.386,100.072,99.1643,0.00414042,0.513471,20.3893,44.9714,0.0696149,0.0,0.0
84,20.75,79.2114,93.089,158.508,100.084,100.416,0.00528073,0.516359,20.3258,45.0014,-0.0253388,0.0,0.0
90,22.25,79.6171,91.51,161.148,100.118,100.394,0.00677258,0.513947,20.2829,45.0115,-0.0210754,0.0,0.0
96,23.75,79.1877,90.3301,160.782,100.129,100.669,0.00820749,0.501621,20.2605,45.0415,-0.041039,0.0,0.0
102,25.25,78.5648,88.812,159.508,100.131,99.5928,0.00945206,0.472209,20.2533,45.0315,0.0412171,0.0,0.0
108,26.75,78.278,88.1016,165.729,100.163,100.454,0.00990118,0.426138,20.2668,45.0215,-0.0222233,0.0,0.0
114,28.25,77.9786,87.8569,164.143,100.165,100.99,0.00927874,0.35545,20.3065,45.0215,-0.0627144,0.0,0.0
120,29.75,78.0545,87.11,163.975,100.168,100.097,0.00811385,0.27496,20.3811,45.0515,0.00541363,0.0,0.0
126,31.25,77.6236,86.406,163.557,100.16,100.941,0.00678894,0.210873,20.4994,45.0014,-0.0593899,0.0,0.0
132,32.75,77.548,85.3025,161.415,100.184,100.472,0.00551557,0.161846,20.6017,45.0014,-0.0219839,0.0,0.0
138,34.25,76.6817,84.5332,160.061,100.155,101.039,0.00459882,0.131016,20.6893,45.0115,-0.0671532,0.0,0.0
144,35.75,77.0012,84.3326,162.443,100.184,101.399,0.00400188,0.111859,20.7533,44.9714,-0.0920826,0.0,0.0
150,37.25,76.8422,83.7733,161.224,100.175,100.274,0.00362584,0.100265,20.8009,44.9714,-0.00749343,0.0,0.0
156,38.75,76.702,82.7947,162.296,100.18,101.2,0.00339897,0.0932186,20.8352,44.9514,-0.0773681,0.0,0.0
162,40.25,76.4659,82.5312,166.23,100.181,101.314,0.00324339,0.0879985,20.8599,44.9414,-0.085899,0.0,0.0
168,41.75,76.3154,82.5216,163.372,100.174,101.086,0.00311848,0.0844412,20.8769,44.9714,-0.0692506,0.0,0.0
174,43.25,75.8274,81.7418,162.636,100.182,99.2156,0.00302427,0.0827956,20.8888,44.9114,0.0740746,0.0,0.0
180,44.75,75.8897,81.7905,165.691,100.168,101.01,0.00297574,0.0818292,20.8958,44.9214,-0.0639631,0.0,0.0
186,46.25,75.6005,81.5691,163.293,100.19,101.113,0.00286224,0.0806241,20.9005,44.9214,-0.0700384,0.0,0.0
192,47.75,75.8789,81.4433,163.057,100.172,101.088,0.00268923,0.0794036,20.9037,44.9214,-0.0695999,0.0,0.0
198,49.25,75.5353,80.6548,164.676,100.186,100.693,0.00248859,0.078589,20.9068,44.8913,-0.0385914,0.0,0.0
204,50.75,75.5331,80.9201,165.24,100.177,101.434,0.00232267,0.0782314,20.9086,44.9014,-0.0953157,0.0,0.0
210,52.25,75.2943,80.1149,162.322,100.173,101.242,0.0022446,0.0779012,20.9096,44.8913,-0.0811423,0.0,0.0
216,53.75,75.3005,80.3146,163.412,100.171,100.287,0.00219544,0.0771278,20.9111,44.8713,-0.00881525,0.0,0.0
222,55.25,75.3668,80.5461,160.201,100.169,100.582,0.00210493,0.0758267,20.9121,44.8413,-0.031383,0.0,0.0
228,56.75,74.6278,79.9398,163.881,100.175,100.622,0.00199916,0.0747609,20.9135,44.8813,-0.033983,0.0,0.0
234,58.25,74.8956,79.6969,164.68,100.184,100.702,0.00192114,0.0739671,20.9144,44.8513,-0.0394195,0.0,0.0
240,59.75,74.8659,79.7159,162.41,100.194,100.707,0.001812,0.0727941,20.9148,44.8913,-0.0389741,0.0,0.0
246,61.25,74.8495,79.7943,167.262,100.172,100.666,0.00166616,0.0714439,20.9161,44.8713,-0.0376132,0.0,0.0
252,62.75,74.8761,79.0491,162.364,100.172,101.363,0.00151292,0.0701834,20.9177,44.8613,-0.090325,0.0,0.0
258,64.25,74.5118,79.1991,167.713,100.165,100.606,0.00147413,0.0697901,20.9187,44.8413,-0.0336101,0.0,0.0
264,65.75,74.7104,79.2639,160.958,100.166,101.615,0.0014943,0.0693011,20.9204,44.9014,-0.109738,0.0,0.0
270,67.25,74.2956,78.9776,166.084,100.164,100.885,0.00155923,0.0686757,20.9214,44.9314,-0.0548029,0.0,0.0
276,68.75,74.2922,78.8013,161.683,100.163,101.178,0.0016099,0.0679314,20.9219,44.8413,-0.0770395,0.0,0.0
282,70.25,74.568,78.6739,164.189,100.163,100.829,0.00161865,0.0671737,20.9221,44.7913,-0.0506358,0.0,0.0
288,71.75,74.6166,78.4679,161.751,100.156,101.2,0.00159615,0.0664722,20.9229,44.8313,-0.0792671,0.0,0.0
294,73.25,74.6883,78.3944,163.008,100.175,101.059,0.0015354,0.0661612,20.9238,44.8213,-0.067195,0.0,0.0
300,74.75,74.063,78.7768,162.236,100.165,101.521,0.0014658,0.0659476,20.9243,44.7712,-0.102745,0.0,0.0
306,76.25,74.1451,78.1441,160.755,100.165,100.055,0.00136875,0.0652494,20.9253,44.8013,0.00844067,0.0,0.0
312,77.75,73.9916,78.3892,167.384,100.162,100.419,0.00128531,0.0642755,20.9262,44.8513,-0.0195665,0.0,0.0
318,79.25,73.957,78.405,162.928,100.156,99.9745,0.00125516,0.0631812,20.9266,44.8613,0.0138565,0.0,0.0
324,80.75,73.139,78.6388,162.783,100.154,100.836,0.0012429,0.0624658,20.9271,44.8213,-0.051867,0.0,0.0
330,82.25,73.6359,78.1588,162.201,100.165,100.497,0.00118804,0.0618427,20.9288,44.8013,-0.0252378,0.0,0.0
336,83.75,74.1046,78.0683,160.197,100.161,101.55,0.00105755,0.0612594,20.9303,44.7913,-0.105231,0.0,0.0
342,85.25,73.8097,77.5834,167.439,100.164,99.8919,0.000932292,0.0609472,20.9319,44.7712,0.0207749,0.0,0.0
348,86.75,73.8681,78.4097,167.174,100.151,100.035,0.000846645,0.060678,20.933,44.7712,0.00886014,0.0,0.0
354,88.25,73.67,78.0124,163.756,100.187,100.736,0.000803881,0.0602855,20.9338,44.7712,-0.0417479,0.0,0.0
360,89.75,73.5753,78.2405,163.589,100.165,101.934,0.000798493,0.0598931,20.9342,44.8013,-0.133824,0.0,0.0
366,91.25,73.4461,77.881,161.609,100.163,101.825,0.000786203,0.0595247,20.9344,44.78125,-0.125712,0.0,0.0
372,92.75,73.228,78.2466,163.461,100.169,100.564,0.00075721,0.0590029,20.9355,44.7712,-0.0300266,0.0,0.0
378,94.25,73.5506,77.9318,165.704,100.176,100.365,0.000768973,0.0583383,20.9362,44.7712,-0.0143736,0.0,0.0
384,95.75,73.5854,77.4988,160.755,100.169,101.175,0.000820144,0.0576548,20.9366,44.7913,-0.0764185,0.0,0.0
390,97.25,73.3754,77.245,161.266,100.169,100.894,0.000862181,0.0571031,20.9368,44.7913,-0.0551474,0.0,0.0
396,98.75,73.6579,77.4645,165.346,100.178,100.604,0.000868582,0.0565594,20.9374,44.8113,-0.0324153,0.0,0.0
402,100.25,73.0474,77.2911,167.463,100.164,101.079,0.000844308,0.0560048,20.9383,44.8213,-0.0694979,0.0,0.0
408,101.75,72.9039,77.533,162.6,100.181,101.048,0.000793796,0.0552669,20.9388,44.8313,-0.0658387,0.0,0.0
414,103.25,73.6889,77.6376,164.522,100.165,101.278,0.000785818,0.0545772,20.9391,44.8213,-0.0844109,0.0,0.0
420,104.75,72.9577,77.5142,165.298,100.19,100.466,0.00082702,0.0540951,20.9392,44.8313,-0.0210224,0.0,0.0
426,106.25,72.9224,77.7157,165.025,100.181,100.122,0.000899436,0.0536851,20.9394,44.8013,0.00453423,0.0,0.0
432,107.75,73.586,77.1828,167.821,100.186,100.575,0.00092003,0.0532142,20.9395,44.7712,-0.0296384,0.0,0.0
438,109.25,72.5333,77.1756,163.891,100.19,100.579,0.000847182,0.0527799,20.9401,44.8213,-0.0296763,0.0,0.0
444,110.75,73.016,77.0542,165.763,100.217,100.874,0.000635397,0.0522199,20.941,44.8013,-0.0499486,0.0,0.0
450,112.25,72.8393,77.5028,169.413,100.23,100.495,0.000411265,0.0517779,20.9414,44.78125,-0.0201259,0.0,0.0
456,113.75,72.9374,76.8394,165.559,100.24,100.999,0.000293703,0.051398,20.9426,44.7512,-0.0576646,0.0,0.0
462,115.25,72.8873,77.0486,161.488,100.228,101.184,0.000305681,0.0509546,20.9425,44.7412,-0.072572,0.0,0.0
468,116.75,72.8398,76.6814,165.117,100.252,101.912,0.000397174,0.0504045,20.9433,44.7112,-0.125521,0.0,0.0
474,118.25,72.7741,76.8914,160.539,100.26,100.345,0.00047851,0.0499251,20.9438,44.7512,-0.00648592,0.0,0.0
480,119.75,72.9991,76.7174,163.74,100.237,100.343,0.000482544,0.0495798,20.944,44.7612,-0.00809299,0.0,0.0
486,121.25,72.8895,76.3236,166.608,100.271,101.82,0.000440782,0.0493609,20.9441,44.7712,-0.11715,0.0,0.0
492,122.75,72.3309,76.6584,165.764,100.279,101.017,0.000397196,0.0489779,20.9442,44.7212,-0.0560333,0.0,0.0
498,124.25,72.5482,76.6588,164.924,100.286,101.881,0.000373711,0.0486942,20.9452,44.7512,-0.120588,0.0,0.0
504,125.75,72.2656,76.4689,163.022,100.295,100.716,0.000340068,0.0484848,20.9459,44.78125,-0.03194,0.0,0.0
510,127.25,72.7907,76.5421,164.348,100.299,100.155,0.000312007,0.0483149,20.9462,44.8113,0.0109571,0.0,0.0
516,128.75,73.0199,76.4611,163.296,100.309,100.28,0.000344882,0.0480168,20.9469,44.7913,0.00220871,0.0,0.0
522,130.25,72.6847,76.6334,166.001,100.342,101.149,0.000410749,0.0478657,20.9474,44.7512,-0.0612019,0.0,0.0
528,131.75,72.7967,75.9525,164.266,100.327,101.51,0.000393423,0.0476621,20.9476,44.7612,-0.0896144,0.0,0.0
534,133.25,73.0284,76.2563,160.582,100.346,101.336,0.000323827,0.0476121,20.9479,44.78125,-0.074992,0.0,0.0
540,134.75,72.9101,76.0494,166.05,100.34,101.37,0.000284511,0.0474707,20.9489,44.7312,-0.0780288,0.0,0.0
546,136.25,72.4328,76.7023,169.138,100.355,101.541,0.000267251,0.0471921,20.9495,44.7612,-0.0898296,0.0,0.0
552,137.75,72.5432,76.5488,165.264,100.352,101.133,0.000258731,0.0470293,20.9498,44.7612,-0.0592389,0.0,0.0
558,139.25,72.3106,76.3257,166.687,100.355,100.588,0.000253071,0.0469132,20.9499,44.7412,-0.0177356,0.0,0.0
564,140.75,72.4632,76.0823,160.59,100.354,102.385,0.000240758,0.0467823,20.95,44.7312,-0.153153,0.0,0.0
570,142.25,72.2864,76.2825,165.366,100.341,102.34,0.000211591,0.0465864,20.95,44.7212,-0.150753,0.0,0.0
574,143.25,72.5999,76.7446,162.773,100.344,101.017,0.000194845,0.0464207,20.9501,44.7212,-0.0510356,0.0,0.0