File: 01_Data/Feather_Pillow_Feathers/Cone/Feather_Pillow_Feathers_Cone_HF25Scan_230710_R1.csv
Names,Time,Stack TC,Smoke TC,Exh Press,Smoke Comp,Smoke Meas,CO Meter,CO2 Meter,O2 Meter,Sample Mass,Ext Coeff,Start Test,Flame Verif
Chan Gain,,500,500,1,1,1,1,1,1,1,1,1.0,1.0
Offset,,0,0,0.18266,0,0,0,0,0,0,0,0.0,0.0
Gain,,1,1,25.011,13.0208,54.2044,1,1,1,1.00092,0.871134,1.0,1.0
Units,sec,C,C,Pa,%,%,%,%,%,g,/m,,
Baseline,,40.3361,41.7577,184.021,100.245,100.719,0.000460248,0.045537,20.9391,-446.077,-0.0360107,,
7,1.5,39.2953,39.7967,180.339,100.446,101.398,0.000562772,0.0461191,20.9456,50.3364,-0.072121,0.0,0.0
14,3.25,39.0153,40.4264,178.402,100.46,101.799,0.00067587,0.0458398,20.9454,50.3063,-0.101141,0.0,0.0
21,5,39.7016,40.7543,175.743,100.478,104.05,0.00073323,0.0460717,20.9451,50.1462,-0.266968,0.0,1.0
28,6.75,40.2498,42.1983,165.865,100.481,105.258,0.000743685,0.0465732,20.9449,49.926,-0.35493,0.0,1.0
35,8.5,41.0737,43.8942,167.926,100.465,104.717,0.000722994,0.0472535,20.9444,49.6157,-0.316737,0.0,1.0
42,10.25,41.7964,46.3731,165.674,100.475,105.8,0.000691018,0.0479705,20.9434,49.3354,-0.394611,0.0,1.0
49,12,42.7562,48.8072,165.449,100.483,105.043,0.000616586,0.0502148,20.9429,49.1052,-0.33909,0.0,0.0
56,13.75,43.6035,51.0642,161.412,100.5,105.339,0.000577463,0.0629368,20.9413,48.855,-0.359331,0.0,0.0
63,15.5,44.9432,52.5608,160.528,100.506,105.387,0.000761543,0.103598,20.9372,48.7149,-0.362358,0.0,0.0
70,17.25,45.4896,54.7565,162.586,100.507,103.063,0.00109568,0.161048,20.8866,48.4947,-0.19189,0.0,0.0
77,19,46.5418,55.7951,167.384,100.496,101.218,0.00158608,0.217427,20.8152,48.2645,-0.0547129,0.0,0.0
84,20.75,47.8812,57.1983,164.402,100.506,102.588,0.00200655,0.25679,20.7332,48.0843,-0.156698,0.0,0.0
91,22.5,48.8796,58.568,160.028,100.503,96.636,0.00231057,0.281608,20.666,47.9342,0.299835,0.0,0.0
98,24.25,49.4436,60.0609,167.175,100.515,97.6898,0.00252148,0.298916,20.6201,47.794,0.217898,0.0,0.0
105,26,49.9576,60.0392,170.832,100.513,99.4399,0.00263324,0.313478,20.5873,47.754,0.0819995,0.0,0.0
112,27.75,50.513,60.5942,173.746,100.511,98.6227,0.0027219,0.328912,20.5566,47.764,0.144934,0.0,0.0
119,29.5,51.119,60.0652,178.169,100.522,101.427,0.00288874,0.345497,20.5337,47.7039,-0.068438,0.0,0.0
126,31.25,50.5777,59.5256,176.739,100.53,100.98,0.00320875,0.363229,20.5137,47.6939,-0.0341408,0.0,0.0
133,33,50.3121,58.5061,175.125,100.527,100.356,0.00359965,0.365141,20.4971,47.724,0.0129563,0.0,0.0
140,34.75,50.218,57.9703,181.659,100.532,101.862,0.00393728,0.348103,20.4884,47.7139,-0.10042,0.0,0.0
147,36.5,49.7859,56.271,181.553,100.53,101.65,0.00413049,0.319857,20.4947,47.7139,-0.0846403,0.0,0.0
154,38.25,49.6628,56.0239,178.389,100.544,101.178,0.00404617,0.282977,20.5256,47.774,-0.0480902,0.0,0.0
161,40,49.0147,54.6407,178.476,100.556,101.623,0.00381471,0.236985,20.5693,47.744,-0.0806871,0.0,0.0
168,41.75,48.0489,52.8812,182.69,100.559,100.772,0.00349762,0.188537,20.6418,47.7039,-0.0161471,0.0,0.0
175,43.5,47.7825,52.1811,181.011,100.551,101.309,0.00309479,0.150028,20.7104,47.734,-0.0573796,0.0,0.0
182,45.25,47.4548,51.5442,183.012,100.572,101.946,0.00266091,0.118852,20.765,47.6839,-0.103666,0.0,0.0
189,47,47.3474,50.8103,180.425,100.555,100.93,0.00222792,0.0940544,20.8127,47.734,-0.0284817,0.0,0.0
196,48.75,47.202,50.1632,181.2,100.56,103.339,0.00189798,0.0771174,20.8557,47.724,-0.208297,0.0,0.0
203,50.5,46.9321,49.5287,185.093,100.572,101.9,0.00158275,0.0657994,20.887,47.7039,-0.100254,0.0,0.0
210,52.25,46.685,48.5965,184.006,100.57,100.897,0.0012248,0.0585394,20.9051,47.6839,-0.024859,0.0,0.0
217,54,46.0005,48.4407,179.617,100.58,101.939,0.000952699,0.0543154,20.9181,47.7139,-0.102597,0.0,0.0
224,55.75,46.1322,47.6228,180.406,100.582,102.234,0.000791663,0.0517573,20.9279,47.7139,-0.124456,0.0,0.0
231,57.5,45.5247,47.7936,178.676,100.589,101.62,0.000745213,0.0502311,20.9338,47.7039,-0.0779326,0.0,0.0
238,59.25,45.8006,47.275,179.562,100.573,102.272,0.00082302,0.0493973,20.9366,47.6739,-0.128024,0.0,0.0
245,61,45.6774,47.2382,180.419,100.579,101.13,0.000949364,0.0487875,20.9396,47.734,-0.0418089,0.0,0.0
252,62.75,45.2088,47.2,182.973,100.573,101.617,0.00100348,0.048469,20.9415,47.734,-0.0788916,0.0,0.0
259,64.5,45.0882,46.5469,180.651,100.579,101.187,0.0010147,0.0482781,20.9426,47.744,-0.0459972,0.0,0.0
266,66.25,45.1603,46.687,181.605,100.556,101.298,0.000994528,0.0487363,20.943,47.734,-0.0561737,0.0,0.0
273,68,44.7427,46.3683,183.559,100.567,101.64,0.0009492,0.0497354,20.9424,47.754,-0.0810862,0.0,0.0
280,69.75,44.8749,46.3157,181.572,100.571,102.943,0.000918022,0.05005,20.9414,47.764,-0.178191,0.0,0.0
287,71.5,44.4779,45.9071,179.83,100.552,101.971,0.000865466,0.0497804,20.9409,47.754,-0.107036,0.0,0.0
294,73.25,44.6444,45.5553,184.442,100.57,102.128,0.000764756,0.0492964,20.9407,47.724,-0.117444,0.0,0.0
301,75,44.5715,45.5643,183.281,100.558,102.264,0.000639774,0.0487604,20.9406,47.744,-0.128493,0.0,0.0
308,76.75,44.6141,45.7008,183.915,100.555,101.959,0.000528886,0.0483681,20.9414,47.7139,-0.105956,0.0,0.0
315,78.5,44.0687,45.0983,183.815,100.548,101.958,0.000477477,0.0479898,20.9426,47.764,-0.106346,0.0,0.0
322,80.25,43.9639,45.2801,181.795,100.559,101.16,0.000486123,0.0476715,20.9432,47.724,-0.0455683,0.0,0.0
329,82,43.662,45.268,181.804,100.559,101.837,0.00053888,0.047488,20.9434,47.744,-0.0965052,0.0,0.0
336,83.75,43.8877,45.1221,183.224,100.548,101.594,0.00058915,0.0473752,20.9439,47.744,-0.0790522,0.0,0.0
343,85.5,43.6814,44.8766,184.938,100.547,101.696,0.000553554,0.0472708,20.9441,47.754,-0.0868226,0.0,0.0
350,87.25,44.0615,44.8243,178.327,100.548,101.872,0.000546354,0.0472299,20.944,47.724,-0.0999267,0.0,0.0
357,89,43.4422,44.6954,180.898,100.576,102.009,0.000670677,0.0472482,20.9437,47.7039,-0.108105,0.0,0.0
364,90.75,43.6072,45.0693,177.915,100.568,102.098,0.000751037,0.0471801,20.9436,47.754,-0.115397,0.0,0.0
371,92.5,43.8992,45.0003,184.621,100.549,101.352,0.000692897,0.0470929,20.9435,47.754,-0.0607744,0.0,0.0
378,94.25,43.0854,44.8591,182.01,100.549,101.112,0.000591501,0.0471706,20.9435,47.744,-0.042669,0.0,0.0
385,96,43.0717,44.8166,178.898,100.542,101.494,0.000561916,0.0471861,20.9435,47.754,-0.0720663,0.0,0.0
392,97.75,43.454,44.1671,180.279,100.56,101.293,0.000605002,0.0472234,20.9435,47.734,-0.0554373,0.0,0.0
399,99.5,42.8167,44.5376,178.298,100.568,102.067,0.000661188,0.0473395,20.9435,47.734,-0.113015,0.0,0.0
406,101.25,43.4006,44.7235,182.841,100.573,102.226,0.000681972,0.04739,20.9435,47.734,-0.124502,0.0,0.0
413,103,43.0541,44.2606,179.14,100.553,101.726,0.00063972,0.0473723,20.9435,47.734,-0.088607,0.0,0.0
420,104.75,43.4206,44.3492,185.311,100.548,100.862,0.000585792,0.0472886,20.9435,47.7139,-0.0238885,0.0,0.0
427,106.5,42.796,44.2242,186.707,100.56,103.883,0.000571274,0.0473203,20.9432,47.7139,-0.248465,0.0,0.0
434,108.25,43.4103,44.0068,182.086,100.558,101.799,0.00062594,0.0474128,20.9434,47.734,-0.0936801,0.0,0.0
441,110,42.8186,44.1603,179.964,100.556,102.33,0.000733473,0.0473008,20.9435,47.7139,-0.133586,0.0,0.0
448,111.75,42.6231,44.2866,180.201,100.56,100.677,0.000795234,0.0472991,20.9435,47.6939,-0.00893335,0.0,0.0
455,113.5,42.9969,43.7423,184.816,100.563,101.812,0.000772366,0.0472217,20.9435,47.7139,-0.0943109,0.0,0.0
462,115.25,42.8423,44.2569,179.187,100.571,101.486,0.000683277,0.0472604,20.9435,47.724,-0.0692396,0.0,0.0
469,117,43.0709,44.1121,182.164,100.557,102.469,0.000637369,0.0471869,20.9434,47.7039,-0.143925,0.0,0.0
476,118.75,42.8328,44.1383,179.372,100.565,101.529,0.000634687,0.0471489,20.943,47.7139,-0.0729298,0.0,0.0
483,120.5,42.2218,44.0877,178.052,100.55,102.04,0.000547987,0.0471585,20.9428,47.734,-0.112421,0.0,0.0
490,122.25,42.7286,44.3057,181.923,100.542,101.413,0.000388313,0.0471149,20.9428,47.6939,-0.065931,0.0,0.0
497,124,42.8869,43.8418,181.806,100.55,100.813,0.000297371,0.0471745,20.9427,47.764,-0.0199168,0.0,0.0
504,125.75,42.4626,43.9899,180.234,100.547,101.966,0.000244267,0.0471992,20.9427,47.734,-0.107056,0.0,0.0
511,127.5,42.6196,44.2863,182.168,100.564,101.296,0.000236807,0.0470761,20.9427,47.724,-0.0553846,0.0,0.0
518,129.25,43.0018,43.3919,184.688,100.546,101.43,0.000273052,0.047045,20.9439,47.7039,-0.0668453,0.0,0.0
525,131,42.2836,44.0751,182.571,100.551,100.914,0.000311306,0.0470332,20.9455,47.7139,-0.0275011,0.0,0.0
532,132.75,42.4793,43.958,179.933,100.577,102.51,0.000383523,0.0470361,20.9463,47.6739,-0.145439,0.0,0.0
539,134.5,42.3761,43.7776,184.73,100.565,102.328,0.000475317,0.0471081,20.9467,47.6139,-0.132798,0.0,0.0
546,136.25,42.4942,43.9047,185.181,100.558,102.073,0.000502545,0.0471506,20.9468,47.6139,-0.114325,0.0,0.0
553,138,42.744,43.9205,183.369,100.56,102.214,0.00041281,0.0471091,20.9469,47.6639,-0.124662,0.0,0.0
560,139.75,42.2196,43.5165,185.085,100.56,102.092,0.000319135,0.0471242,20.947,47.6939,-0.115506,0.0,0.0
567,141.5,42.2926,43.4877,176.291,100.565,101.822,0.000282028,0.0471583,20.947,47.6539,-0.0949348,0.0,0.0
574,143.25,42.2691,43.7253,180.999,100.561,101.164,0.000200552,0.0471227,20.947,47.6739,-0.0456371,0.0,0.0
581,145,42.5467,43.7583,179.586,100.556,101.592,0.000128692,0.0470395,20.947,47.6739,-0.0783238,0.0,0.0
588,146.75,42.3274,44.0991,176.64,100.56,101.592,0.000127258,0.0469719,20.947,47.6939,-0.0779915,0.0,0.0
595,148.5,42.3278,44.0662,180.771,100.551,102.937,0.000206896,0.0470287,20.947,47.6939,-0.179209,0.0,0.0
602,150.25,42.2033,43.6126,180.23,100.558,102.783,0.000357279,0.0470773,20.947,47.6839,-0.167268,0.0,0.0
609,152,42.1777,43.845,179.789,100.55,101.777,0.000498934,0.0469769,20.9472,47.6739,-0.092669,0.0,0.0
616,153.75,42.6834,43.7401,178.605,100.552,102.414,0.000622312,0.0469566,20.9475,47.6939,-0.140215,0.0,0.0
623,155.5,42.5927,43.5023,181.081,100.535,101.696,0.000735365,0.0470522,20.9476,47.6739,-0.0877288,0.0,0.0
630,157.25,41.8287,44.1991,178.741,100.531,101.506,0.000759829,0.0470714,20.9476,47.6839,-0.073723,0.0,0.0
637,159,42.3041,43.6465,183.228,100.537,101.316,0.000641138,0.047032,20.9478,47.6839,-0.0589961,0.0,0.0
638,159.25,41.975,44.1342,183.054,100.533,101.312,0.00062335,0.0470408,20.9479,47.6739,-0.0590186,0.0,0.0