File: 01_Data/Feather_Pillow_Feathers/Cone/Feather_Pillow_Feathers_Cone_HF25Scan_230710_R2.csv
Names,Time,Stack TC,Smoke TC,Exh Press,Smoke Comp,Smoke Meas,CO Meter,CO2 Meter,O2 Meter,Sample Mass,Ext Coeff,Start Test,Flame Verif
Chan Gain,,500,500,1,1,1,1,1,1,1,1,1.0,1.0
Offset,,0,0,0.18266,0,0,0,0,0,0,0,0.0,0.0
Gain,,1,1,25.011,13.0208,54.2044,1,1,1,1.00092,0.871134,1.0,1.0
Units,sec,C,C,Pa,%,%,%,%,%,g,/m,,
Baseline,,40.6367,41.9149,182.836,99.2517,99.3091,0.000185634,0.0463922,20.9505,-446.097,-0.00432937,,
16,3.75,40.1185,41.3308,186.804,99.6965,98.5516,0.000310453,0.0486118,20.9501,50.1662,0.088264,0.0,0.0
32,7.75,40.5271,41.3539,183.567,99.6798,95.5989,0.000370638,0.0509263,20.9483,50.0261,0.319434,0.0,0.0
48,11.75,40.7673,42.0901,180.155,99.6472,94.9206,0.000360721,0.0544628,20.9442,49.916,0.37134,0.0,0.0
64,15.75,41.4763,42.8911,180.927,99.629,93.5758,0.000529861,0.0553377,20.9417,49.8259,0.47898,0.0,0.0
80,19.75,40.9052,42.5625,180.191,99.596,95.3077,0.00116013,0.058908,20.9382,49.7158,0.336311,0.0,0.0
96,23.75,41.2652,43.1273,180.8,99.5868,93.3971,0.00164981,0.060669,20.9342,49.5857,0.490352,0.0,0.0
112,27.75,41.5128,43.2864,183.572,99.5602,95.1406,0.00155605,0.0604323,20.9326,49.4455,0.346974,0.0,0.0
128,31.75,41.6228,44.0633,179.421,99.5491,92.6809,0.00164165,0.058738,20.934,49.3855,0.546284,0.0,0.0
144,35.75,41.2199,43.9194,184.029,99.5272,95.2713,0.00199064,0.0576648,20.938,49.3455,0.333953,0.0,0.0
160,39.75,41.7753,44.0317,178.365,99.5078,94.0423,0.00218902,0.0579468,20.9388,49.2854,0.431681,0.0,0.0
176,43.75,42.0168,43.7092,180.491,99.4891,96.0008,0.00235886,0.057994,20.939,49.2454,0.272735,0.0,0.0
192,47.75,42.1763,43.6406,178.261,99.4684,95.8189,0.00192659,0.057594,20.9413,49.1553,0.285645,0.0,0.0
208,51.75,42.2947,43.7649,180.704,99.4871,95.4599,0.00158627,0.0548518,20.9436,49.1052,0.315761,0.0,0.0
224,55.75,42.5783,43.2291,179.043,99.5956,96.4028,0.00125948,0.052255,20.947,49.0652,0.248982,0.0,0.0
240,59.75,42.187,44.2771,181.684,99.7136,97.6104,0.000987018,0.0516233,20.9476,49.0452,0.162906,0.0,0.0
256,63.75,42.6441,44.3433,178.54,99.7827,98.4441,0.00111768,0.0523744,20.9477,48.9951,0.103212,0.0,0.0
272,67.75,42.5138,44.6838,180.54,99.8503,97.6749,0.000955208,0.0522641,20.9468,48.9851,0.168325,0.0,0.0
288,71.75,42.4097,44.5314,182.742,99.9254,97.2315,0.000762258,0.0521407,20.9469,48.9751,0.208833,0.0,0.0
304,75.75,42.5266,44.5038,182.309,99.9623,97.617,0.000611531,0.0504215,20.9473,48.9351,0.181427,0.0,0.0
320,79.75,42.7407,44.1785,184.082,100.016,98.1198,0.000707212,0.0492996,20.9482,48.905,0.146263,0.0,0.0
336,83.75,42.5576,44.4846,176.985,100.072,99.0859,0.000759077,0.0484446,20.9484,48.875,0.0756749,0.0,0.0
352,87.75,42.2802,44.4461,179.326,100.099,98.0206,0.000996055,0.0480513,20.9489,48.815,0.160339,0.0,0.0
368,91.75,42.7826,44.515,179.124,100.119,98.1099,0.000802892,0.048272,20.949,48.7949,0.154864,0.0,0.0
384,95.75,42.6545,44.5738,180.082,100.159,96.636,0.00066166,0.0481525,20.9496,48.7549,0.273625,0.0,0.0
400,99.75,43.0626,44.6063,181.635,100.187,98.0421,0.000702079,0.0480294,20.9487,48.7649,0.165363,0.0,0.0
416,103.75,43.0203,44.6566,180.59,100.2,98.9188,0.000562272,0.0482191,20.9471,48.7349,0.0983652,0.0,0.0
432,107.75,42.841,44.9785,178.874,100.231,98.6376,0.000771008,0.0481644,20.9485,48.7049,0.122453,0.0,0.0
448,111.75,43.0563,45.0114,180.858,100.264,97.9164,0.000657039,0.0480164,20.9497,48.6648,0.181046,0.0,0.0
464,115.75,42.7607,44.6373,180.246,100.265,98.5466,0.000620816,0.0476276,20.951,48.6248,0.132109,0.0,0.0
480,119.75,42.9269,44.7061,175.874,100.284,98.6591,0.000695837,0.0476133,20.9514,48.6548,0.124815,0.0,0.0
496,123.75,43.3135,44.9889,183.012,100.273,99.7806,0.000547662,0.0472822,20.95,48.6648,0.0376202,0.0,0.0
512,127.75,42.8252,44.5377,186.513,100.257,99.7542,0.000334408,0.0472089,20.9492,48.6148,0.038436,0.0,0.0
528,131.75,42.6471,44.8504,179.897,100.26,99.0793,0.000483803,0.0471649,20.951,48.6148,0.0904933,0.0,0.0
544,135.75,42.7437,44.8086,180.319,100.249,99.1438,0.000551607,0.0469035,20.9513,48.5948,0.0847324,0.0,0.0
560,139.75,43.1757,44.9196,181.079,100.221,99.4101,0.000424516,0.0467235,20.9531,48.5747,0.0621126,0.0,0.0
576,143.75,43.1043,45.199,181.943,100.215,99.4515,0.000175589,0.0469347,20.9522,48.5547,0.0584189,0.0,0.0
592,147.75,43.2493,44.53,185.145,100.221,99.4167,0.000418751,0.0471156,20.952,48.5647,0.0615434,0.0,0.0
608,151.75,43.2144,44.682,178.686,100.229,99.2265,0.000806034,0.0470336,20.953,48.5247,0.0768149,0.0,0.0
624,155.75,42.7133,44.9939,179.695,100.215,99.7658,0.000726564,0.046877,20.9541,48.4646,0.0343073,0.0,0.0
640,159.75,42.8253,44.9312,186.591,100.188,99.4068,0.000849227,0.0467587,20.953,48.4747,0.059791,0.0,0.0
656,163.75,43.3736,45.0733,183.312,100.185,99.3423,0.000736284,0.046543,20.9511,48.4847,0.0645392,0.0,0.0
672,167.75,42.8309,44.3567,176.896,100.165,99.8485,0.000527536,0.0467027,20.9507,48.4847,0.0241863,0.0,0.0
688,171.75,43.6024,44.5032,183.236,100.14,98.9982,0.000277263,0.0471171,20.9501,48.4446,0.0875959,0.0,0.0
704,175.75,43.3321,44.8209,182.097,100.105,100.328,0.00027415,0.0471357,20.9498,48.4546,-0.0170176,0.0,0.0
720,179.75,42.9624,44.6429,181.953,100.059,101.015,0.000257203,0.0469915,20.9497,48.4346,-0.0726755,0.0,0.0
736,183.75,43.4132,44.6392,181.839,99.9826,98.2919,0.000271102,0.0470266,20.95,48.4146,0.130326,0.0,0.0
752,187.75,42.5865,44.6366,180.541,99.9278,98.8361,0.000350204,0.0473186,20.9502,48.4346,0.0839405,0.0,0.0
768,191.75,43.4551,44.8768,177.226,99.8237,98.6773,0.000459922,0.0472212,20.9511,48.4046,0.0882622,0.0,0.0
784,195.75,42.7992,44.2658,182.299,99.7478,99.1124,0.000413808,0.0467282,20.9512,48.3846,0.048834,0.0,0.0
800,199.75,43.0472,44.4846,181.791,99.7378,100.012,8.83536e-05,0.0464282,20.9513,48.4246,-0.0209946,0.0,0.0
816,203.75,43.224,44.4532,184.93,99.7402,100.57,1.80784e-05,0.0467428,20.9513,48.3746,-0.0632862,0.0,0.0
832,207.75,43.3079,44.8392,189.103,99.7831,99.822,0.000102257,0.0474316,20.9516,48.3746,-0.00297571,0.0,0.0
848,211.75,43.4484,44.6242,182.88,99.7565,99.6797,0.000127189,0.0483625,20.9502,48.4046,0.00588332,0.0,0.0
864,215.75,43.0582,45.0892,181.4,99.7502,99.7889,0.000118825,0.0481459,20.9504,48.4046,-0.00296842,0.0,0.0
880,219.75,43.0048,44.8675,178.879,99.7573,101.202,0.000127989,0.0478137,20.9522,48.4046,-0.109841,0.0,0.0
896,223.75,43.2863,45.1469,183.195,99.7541,101.59,0.000393753,0.0470314,20.9523,48.3545,-0.13938,0.0,0.0
912,227.75,43.2246,45.3767,178.964,99.7541,99.4581,0.000392957,0.046301,20.952,48.3445,0.0227124,0.0,0.0
928,231.75,42.9468,45.0432,181.257,99.7621,99.7194,0.000422312,0.0459947,20.9521,48.3345,0.00326594,0.0,0.0
944,235.75,43.2207,45.0603,183.697,99.7748,100.467,0.000230297,0.0458484,20.953,48.3445,-0.052842,0.0,0.0
960,239.75,43.0183,45.1891,182.061,99.768,100.206,3.90002e-05,0.0457395,20.9532,48.3445,-0.0334541,0.0,0.0
976,243.75,43.1867,45.043,180.383,99.8022,99.1173,0.000272587,0.0457239,20.9532,48.3645,0.0526211,0.0,0.0
992,247.75,43.2222,44.5971,180.458,99.8249,99.8832,0.00055676,0.0457647,20.9532,48.3445,-0.00446492,0.0,0.0
1008,251.75,42.4203,43.8928,178.907,99.8503,99.9411,0.000380475,0.0455483,20.9536,48.3145,-0.0069468,0.0,0.0
1024,255.75,42.2073,44.2191,180.493,99.8928,99.6516,6.03923e-05,0.0455815,20.9541,48.2945,0.0184725,0.0,0.0
1040,259.75,42.7624,44.4546,178.871,99.9047,100.249,0.000140127,0.0456284,20.9543,48.2945,-0.0262711,0.0,0.0
1056,263.75,43.0657,44.8728,180.443,99.9679,99.607,0.000271473,0.0455518,20.9533,48.3445,0.0276416,0.0,0.0
1072,267.75,42.3681,44.6878,182.178,99.9846,99.3026,0.00014362,0.0456163,20.9546,48.2945,0.0523026,0.0,0.0
1088,271.75,42.5587,44.4501,179.327,100.044,100.153,0.000178361,0.0456333,20.955,48.2945,-0.00829269,0.0,0.0
1104,275.75,42.288,44.5289,182.348,100.098,100.368,0.000403781,0.0456231,20.9555,48.2845,-0.0205867,0.0,0.0
1120,279.75,42.7409,44.4984,183.096,100.12,100.652,0.00033453,0.0455817,20.9554,48.2645,-0.04055,0.0,0.0
1136,283.75,43.1066,44.0758,181.221,100.21,100.082,0.000341483,0.0456302,20.9554,48.2745,0.0097818,0.0,0.0
1152,287.75,42.4634,44.5204,175.8,100.251,101.218,0.000143684,0.0458189,20.9559,48.2945,-0.0733478,0.0,0.0
1168,291.75,42.7622,44.0962,183.222,100.31,100.198,0.000201573,0.0456725,20.9543,48.2344,0.00854804,0.0,0.0
1184,295.75,42.649,44.1774,178.147,100.365,100.568,5.77817e-05,0.0457083,20.954,48.2645,-0.0154223,0.0,0.0
1200,299.75,42.8003,44.2693,181.549,100.421,100.034,0.000181219,0.045683,20.9526,48.2544,0.0295484,0.0,0.0
1216,303.75,42.4001,44.2097,182.724,100.475,99.8948,0.000349787,0.0456185,20.9523,48.2945,0.0442518,0.0,0.0
1232,307.75,42.541,44.0649,180.941,100.509,100.836,0.000202484,0.0454433,20.9522,48.2745,-0.024843,0.0,0.0
1248,311.75,42.7564,44.4608,183.258,100.538,100.647,0.000183205,0.0454491,20.9522,48.2544,-0.00830409,0.0,0.0
1264,315.75,42.843,44.315,185.785,100.564,100.778,0.000526049,0.0454027,20.9522,48.2745,-0.016226,0.0,0.0
1280,319.75,42.8003,44.2784,180.462,100.582,101.413,0.000634684,0.0453768,20.9526,48.2745,-0.0629119,0.0,0.0
1296,323.75,43.1952,44.5059,181.909,100.564,100.905,0.000342183,0.0451922,20.9537,48.2645,-0.0258776,0.0,0.0
1312,327.75,42.6778,44.6449,178.756,100.534,100.634,4.88269e-05,0.0452895,20.9527,48.2745,-0.00760103,0.0,0.0
1328,331.75,42.587,44.5906,180.449,100.5,99.9097,0.000172384,0.0451979,20.9525,48.2845,0.0450161,0.0,0.0
1344,335.75,42.5439,44.3457,182.409,100.473,101.551,0.000205628,0.0450917,20.9544,48.2645,-0.0815262,0.0,0.0
1360,339.75,42.7935,44.4568,180.837,100.461,100.457,0.000342843,0.0453137,20.9541,48.2745,0.000261436,0.0,0.0
1376,343.75,43.1868,44.5233,179.553,100.433,98.8841,0.000309117,0.0451214,20.953,48.2544,0.118756,0.0,0.0
1392,347.75,42.5347,44.499,180.426,100.37,99.7525,0.000126951,0.0450917,20.9529,48.2444,0.0471593,0.0,0.0
1408,351.75,42.3776,44.4893,179.247,100.329,100.325,0.00023723,0.0448687,20.9529,48.2845,0.000323377,0.0,0.0
1424,355.75,42.8066,44.5048,182.8,100.258,100.52,0.000264013,0.0451899,20.9533,48.2244,-0.0199195,0.0,0.0
1440,359.75,42.6301,44.0538,183.135,100.188,100.209,0.000342912,0.0453685,20.9547,48.2244,-0.00163395,0.0,0.0
1456,363.75,42.9101,44.5596,175.205,100.106,100.651,0.000129466,0.0454472,20.9551,48.2645,-0.0414558,0.0,0.0
1472,367.75,42.8821,44.3009,183.044,100.004,100.798,0.000121528,0.0455216,20.9553,48.2344,-0.0604241,0.0,0.0
1475,368.5,42.8884,44.2359,180.588,100.01,101.461,0.00012424,0.0455259,20.9555,48.2344,-0.110091,0.0,0.0