File: 01_Data/Feather_Pillow_Feathers/Cone/Feather_Pillow_Feathers_Cone_HF25Scan_230710_R4.csv
Names,Time,Stack TC,Smoke TC,Exh Press,Smoke Comp,Smoke Meas,CO Meter,CO2 Meter,O2 Meter,Sample Mass,Ext Coeff,Start Test,Flame Verif
Chan Gain,,500,500,1,1,1,1,1,1,1,1,1.0,1.0
Offset,,0,0,0.18266,0,0,0,0,0,0,0,0.0,0.0
Gain,,1,1,25.011,13.1186,54.4142,1,1,1,1.00092,0.871134,1.0,1.0
Units,sec,C,C,Pa,%,%,%,%,%,g,/m,,
Baseline,,42.2008,43.6639,181.824,100.491,100.484,0.00026948,0.044972,20.9523,-446.041,0.000640307,,
14,3.25,41.3039,42.2417,179.283,100.743,101.077,0.000453713,0.0457244,20.9575,50.2563,-0.0252474,0.0,0.0
28,6.75,41.215,42.8438,182.109,100.7,98.1691,0.000340717,0.0454574,20.9567,50.1762,0.194521,0.0,0.0
42,10.25,41.8464,43.631,182.041,100.594,95.8028,0.000296384,0.0454799,20.9569,50.0761,0.37292,0.0,0.0
56,13.75,42.0037,44.1999,178.154,100.55,93.4946,0.000178437,0.0455766,20.9576,49.926,0.555939,0.0,0.0
70,17.25,42.5689,43.8266,178.671,100.491,94.7001,0.000651161,0.0465907,20.9558,49.8559,0.453559,0.0,0.0
84,20.75,42.2761,44.4323,179.287,100.471,97.0233,0.00114576,0.0481678,20.9541,49.7458,0.266809,0.0,0.0
98,24.25,42.6087,44.5076,180.962,100.483,94.0226,0.00143183,0.0494182,20.9527,49.6657,0.507787,0.0,0.0
112,27.75,42.9874,45.2593,182.382,100.485,93.6606,0.00174683,0.0504018,20.9524,49.5857,0.537448,0.0,0.0
126,31.25,43.0155,45.2296,181.531,100.517,95.1385,0.00204031,0.0508313,20.9524,49.5156,0.420244,0.0,0.0
140,34.75,43.1551,45.8243,178.973,100.526,94.1073,0.00213549,0.0511249,20.9501,49.4355,0.504164,0.0,0.0
154,38.25,43.2451,45.4892,179.01,100.572,95.3079,0.0018797,0.0516195,20.9499,49.3555,0.41079,0.0,0.0
168,41.75,43.0335,45.3326,177.186,100.609,96.7012,0.00184495,0.0520024,20.9514,49.2554,0.302752,0.0,0.0
182,45.25,44.0687,45.6467,184.412,100.635,97.7307,0.00193876,0.0517513,20.9523,49.2454,0.223769,0.0,0.0
196,48.75,43.4334,45.6438,182.844,100.66,96.6181,0.00192224,0.0516251,20.9544,49.2053,0.313176,0.0,0.0
210,52.25,43.1685,45.6101,180.063,100.683,99.6852,0.00175836,0.0512166,20.9549,49.1553,0.0760717,0.0,0.0
224,55.75,43.3946,45.7477,181.912,100.738,97.6095,0.0018309,0.0509572,20.955,49.1052,0.241062,0.0,0.0
238,59.25,43.8614,45.1968,178.693,100.783,97.7075,0.00199715,0.0503684,20.955,49.0952,0.236857,0.0,0.0
252,62.75,43.9321,45.568,183.619,100.866,98.0911,0.00183709,0.0489322,20.9537,49.0852,0.213196,0.0,0.0
266,66.25,43.5809,45.4662,181.031,100.92,99.4162,0.00137042,0.0485274,20.9541,49.0652,0.114688,0.0,0.0
280,69.75,43.6073,45.7233,181.053,100.961,97.8652,0.00108114,0.0486801,20.9549,49.0452,0.237965,0.0,0.0
294,73.25,43.3803,46.0293,177.902,101.028,99.7782,0.00101214,0.0485301,20.9538,49.0051,0.0950938,0.0,0.0
308,76.75,43.7936,45.6133,183.672,101.067,98.4863,0.000936348,0.0481619,20.9531,48.9851,0.197649,0.0,0.0
322,80.25,43.902,45.8855,179.64,101.133,100.589,0.00097851,0.0479325,20.9529,48.9551,0.0412108,0.0,0.0
336,83.75,43.8335,45.7958,177.211,101.177,99.026,0.0011648,0.0477558,20.9529,48.9451,0.164209,0.0,0.0
350,87.25,44.0454,45.7191,179.017,101.222,98.9695,0.00112972,0.0472987,20.9538,48.9151,0.171983,0.0,0.0
364,90.75,43.5243,45.9228,180.066,101.267,99.7849,0.000804437,0.0471581,20.9549,48.895,0.112702,0.0,0.0
378,94.25,43.5807,45.9851,183.18,101.275,100.248,0.000630563,0.047017,20.9551,48.895,0.0778781,0.0,0.0
392,97.75,43.8026,46.0079,178.569,101.307,100.637,0.000711993,0.0468683,20.9545,48.885,0.0507319,0.0,0.0
406,101.25,44.1014,46.2348,179.53,101.311,101.228,0.000756258,0.0469796,20.9544,48.865,0.0062465,0.0,0.0
420,104.75,43.6625,45.7466,177.644,101.338,99.8048,0.000812612,0.0468346,20.9543,48.855,0.116491,0.0,0.0
434,108.25,43.9625,45.8321,176.135,101.332,100.364,0.000497083,0.0468572,20.954,48.7649,0.0733114,0.0,0.0
448,111.75,44.0311,45.9112,182.15,101.335,100.228,0.000226124,0.0468612,20.9539,48.7649,0.0838973,0.0,0.0
462,115.25,43.6013,45.945,176.342,101.33,101.015,0.000311327,0.0467554,20.9539,48.7849,0.0237886,0.0,0.0
476,118.75,43.929,46.3024,179.719,101.279,99.4893,0.000344531,0.0465726,20.9545,48.7249,0.136277,0.0,0.0
490,122.25,44.3403,45.8998,180.48,101.269,100.647,0.000310565,0.0465533,20.9547,48.7249,0.0471367,0.0,0.0
504,125.75,44.0285,45.9662,179.115,101.175,100.155,0.000458582,0.0466278,20.9547,48.7149,0.0773839,0.0,0.0
518,129.25,44.1791,45.6933,178.732,101.106,100.222,0.000663389,0.0467484,20.9547,48.6548,0.0671457,0.0,0.0
532,132.75,44.5231,46.1355,180.33,101.028,99.5076,0.000635458,0.0465751,20.9538,48.7049,0.115852,0.0,0.0
546,136.25,44.2737,45.9851,182.767,100.914,99.4727,0.000488065,0.0464601,20.9536,48.6848,0.109925,0.0,0.0
560,139.75,44.7716,45.8329,180.483,100.837,99.3863,0.000624331,0.046553,20.9535,48.6949,0.110738,0.0,0.0
574,143.25,44.3354,45.989,177.042,100.716,100.057,0.000451458,0.0465812,20.9545,48.6848,0.0501319,0.0,0.0
588,146.75,44.5163,45.9299,178.861,100.598,99.5574,0.000392812,0.0466577,20.9555,48.6748,0.0794955,0.0,0.0
602,150.25,44.0278,46.4405,181.74,100.474,99.4461,0.000702658,0.0466965,20.954,48.6348,0.0785769,0.0,0.0
616,153.75,44.6817,46.5108,178.557,100.337,98.5594,0.000618157,0.0466235,20.9541,48.6248,0.136601,0.0,0.0
630,157.25,43.8498,46.0656,179.939,100.216,98.9828,0.000554442,0.0464987,20.9542,48.6548,0.0945963,0.0,0.0
644,160.75,43.9584,45.8553,180.646,100.046,99.1074,0.000359792,0.046227,20.9542,48.5948,0.0720635,0.0,0.0
658,164.25,44.8049,46.0816,178.302,99.9191,98.1392,0.00035791,0.0461513,20.9542,48.5948,0.137346,0.0,0.0
672,167.75,44.0022,45.84,181.972,99.7714,98.9147,0.000440896,0.0460283,20.9556,48.5848,0.065894,0.0,0.0
686,171.25,44.0758,46.2593,181.607,99.6469,97.5447,0.000343526,0.0459758,20.9546,48.5747,0.162928,0.0,0.0
700,174.75,44.4403,45.8556,178.598,99.5396,98.38,0.000446757,0.0459696,20.9543,48.5547,0.089539,0.0,0.0
714,178.25,44.0845,46.3014,178.54,99.4815,97.9018,0.000675706,0.0459171,20.9542,48.5948,0.12232,0.0,0.0
728,181.75,44.3593,46.2146,181.845,99.4223,98.1093,0.000429331,0.0460086,20.9542,48.5647,0.101582,0.0,0.0
742,185.25,44.5783,46.312,179.551,99.3586,99.1837,0.00014268,0.0459441,20.9542,48.5247,0.013461,0.0,0.0
756,188.75,44.1121,46.162,183.947,99.3182,98.7653,0.000110086,0.0460001,20.9542,48.5347,0.0426594,0.0,0.0
770,192.25,44.4572,46.2791,187.078,99.3126,98.835,3.49851e-05,0.0458553,20.9536,48.5447,0.0368333,0.0,0.0
784,195.75,44.211,46.1258,180.497,99.307,98.5162,0.000164908,0.0456666,20.9535,48.5147,0.0610924,0.0,0.0
798,199.25,44.4962,46.0753,181.814,99.3258,98.1807,0.000355543,0.0454905,20.9545,48.4947,0.0886035,0.0,0.0
812,202.75,44.0458,46.0625,179.359,99.3538,98.5344,0.000430428,0.0454455,20.9548,48.4646,0.0632791,0.0,0.0
826,206.25,44.333,46.3386,183.738,99.4215,98.2621,0.000319725,0.045336,20.9548,48.4646,0.0896308,0.0,0.0
840,209.75,43.6937,45.252,181.41,99.5091,98.6839,0.000333801,0.0454619,20.9548,48.4346,0.0636359,0.0,0.0
854,213.25,43.5399,45.2076,179.453,99.6224,98.5527,0.00027422,0.0454532,20.9561,48.4446,0.0824961,0.0,0.0
868,216.75,43.4639,45.4017,181.945,99.7213,98.1276,0.000304746,0.0452272,20.9576,48.4346,0.12311,0.0,0.0
882,220.25,43.2557,45.458,179.528,99.8346,99.6935,0.000208358,0.0451458,20.9566,48.4246,0.0108061,0.0,0.0
896,223.75,43.3722,45.5879,178.762,99.9243,99.5806,0.000180655,0.0453197,20.9551,48.3746,0.0263273,0.0,0.0
910,227.25,44.0306,45.8508,181.937,99.9972,99.7317,8.52118e-05,0.0453987,20.9547,48.3645,0.0203097,0.0,0.0
924,230.75,43.9469,45.3879,178.975,100.126,99.3066,-3.94874e-05,0.0453314,20.9547,48.4246,0.0627668,0.0,0.0
938,234.25,43.924,45.5988,175.767,100.197,100.78,0.000357396,0.045323,20.9553,48.4346,-0.044275,0.0,0.0
952,237.75,43.9371,45.6938,181.299,100.267,100.218,0.000563405,0.0452576,20.9555,48.4246,0.00374396,0.0,0.0
966,241.25,43.8852,45.9014,182.164,100.343,100.969,0.000626013,0.044994,20.9555,48.4246,-0.0475406,0.0,0.0
980,244.75,43.8946,45.4101,177.456,100.385,99.5823,0.000378915,0.0449858,20.955,48.3846,0.0613581,0.0,0.0
994,248.25,44.0762,45.5475,182.508,100.462,101.623,0.000130136,0.0450453,20.9549,48.3846,-0.0878482,0.0,0.0
1008,251.75,43.9175,45.6454,177.705,100.492,100.132,6.70536e-05,0.0449498,20.9559,48.3946,0.0273975,0.0,0.0
1022,255.25,44.2041,45.5522,182.537,100.547,100.783,2.32467e-05,0.0447631,20.9555,48.3746,-0.0179182,0.0,0.0
1036,258.75,43.8685,45.6162,183.231,100.583,100.878,3.16096e-05,0.0448099,20.9554,48.3946,-0.0223539,0.0,0.0
1050,262.25,44.2844,46.2044,181.077,100.607,100.705,0.000194405,0.0452058,20.9568,48.3946,-0.00743598,0.0,0.0
1064,265.75,44.0261,45.6977,179.865,100.648,100.296,0.000326315,0.0450976,20.956,48.3946,0.0267557,0.0,0.0
1078,269.25,44.2782,45.7143,181.343,100.648,100.268,0.000425141,0.0450421,20.9566,48.3946,0.0288769,0.0,0.0
1092,272.75,43.9794,45.3399,185.803,100.649,101.329,0.000327816,0.0449229,20.9566,48.3645,-0.0515056,0.0,0.0
1106,276.25,43.829,45.8345,175.825,100.63,100.238,0.000181878,0.0450137,20.9553,48.3746,0.029787,0.0,0.0
1120,279.75,44.0512,45.4329,182.634,100.589,100.532,0.00014172,0.0451207,20.9549,48.3645,0.00431118,0.0,0.0
1134,283.25,44.1491,45.7477,179.393,100.547,100.758,0.000182927,0.0449961,20.9549,48.3445,-0.0159997,0.0,0.0
1148,286.75,44.0611,45.3958,183.88,100.487,100.987,0.000287456,0.0447649,20.9548,48.3545,-0.0379244,0.0,0.0
1162,290.25,43.7148,45.5568,180.146,100.465,100.564,0.000242661,0.0449313,20.9553,48.3645,-0.00749024,0.0,0.0
1176,293.75,43.6993,45.5261,183.293,100.409,100.18,0.00015333,0.0449499,20.9555,48.3645,0.0174501,0.0,0.0
1190,297.25,43.678,45.608,184.4375,100.398,101.482,0.000287752,0.0450581,20.9549,48.3545,-0.0820704,0.0,0.0
1204,300.75,43.9649,45.7367,181.073,100.333,100.471,0.000197602,0.044959,20.9547,48.3445,-0.0104757,0.0,0.0
1218,304.25,43.8958,45.346,180.847,100.311,100.763,9.93964e-05,0.044753,20.9529,48.3846,-0.0343801,0.0,0.0
1232,307.75,43.8924,45.5976,181.416,100.27,101.029,0.000199258,0.0449529,20.9531,48.3846,-0.0575843,0.0,0.0
1246,311.25,43.6366,45.6456,184.458,100.247,100.359,0.000271632,0.0448007,20.953,48.3645,-0.0085982,0.0,0.0
1260,314.75,43.8465,45.4319,182.116,100.206,100.672,0.000220458,0.0448944,20.9528,48.3545,-0.0354146,0.0,0.0
1274,318.25,43.8098,45.6881,178.212,100.176,100.202,0.000492243,0.0447613,20.9546,48.3545,-0.00198019,0.0,0.0
1288,321.75,44.6364,45.4774,183.437,100.162,100.378,0.000539623,0.0446932,20.955,48.3345,-0.0164616,0.0,0.0
1302,325.25,43.6398,45.6959,177.717,100.129,100.23,0.000561578,0.0443823,20.9551,48.3145,-0.00767671,0.0,0.0
1315,328.5,43.4308,45.601,178.363,100.119,99.6304,0.000668621,0.0444773,20.9551,48.3545,0.0373709,0.0,0.0