File: 01_Data/Feather_Pillow_Feathers/Cone/Feather_Pillow_Feathers_HRRPUA_75.csv
Time after Ignition,Feather_Pillow_Feathers_R1,Feather_Pillow_Feathers_R2,Feather_Pillow_Feathers_R3,Mean,Std. Dev.
0.0,-0.7,-0.3,2.9,0.6,2.0
0.25,-0.7,-0.3,2.9,0.6,2.0
0.5,-0.7,-0.2,3.0,0.7,2.0
0.75,-0.7,-0.2,3.1,0.7,2.0
1.0,-0.8,-0.2,3.1,0.7,2.1
1.25,-0.7,-0.1,3.2,0.8,2.1
1.5,-0.8,-0.1,3.2,0.8,2.1
1.75,-0.8,-0.1,3.4,0.8,2.2
2.0,-0.8,-0.1,3.2,0.8,2.1
2.25,-0.8,0.1,3.2,0.8,2.1
2.5,-0.8,0.2,3.1,0.8,2.0
2.75,-0.8,0.3,3.1,0.9,2.0
3.0,-0.8,0.4,3.0,0.9,1.9
3.25,-0.8,0.5,3.0,0.9,2.0
3.5,-0.8,0.5,3.0,0.9,1.9
3.75,-0.8,0.6,2.9,0.9,1.9
4.0,-0.8,0.7,2.9,0.9,1.9
4.25,-0.8,0.8,2.9,0.9,1.9
4.5,-0.8,0.8,2.9,0.9,1.9
4.75,-0.7,0.8,2.8,1.0,1.8
5.0,-0.6,0.8,2.8,1.0,1.7
5.25,-0.5,0.9,2.9,1.1,1.7
5.5,-0.5,0.8,2.9,1.1,1.7
5.75,-0.4,0.7,2.9,1.0,1.7
6.0,-0.4,0.6,2.8,1.0,1.6
6.25,-0.3,0.5,2.8,1.0,1.6
6.5,-0.3,0.4,2.8,1.0,1.6
6.75,-0.2,0.3,2.8,1.0,1.6
7.0,-0.2,0.3,2.8,1.0,1.6
7.25,-0.1,0.2,2.8,1.0,1.6
7.5,-0.1,0.3,2.8,1.0,1.6
7.75,-0.1,0.3,2.8,1.0,1.5
8.0,-0.0,0.4,2.8,1.0,1.5
8.25,0.2,0.4,2.9,1.1,1.5
8.5,0.4,0.5,3.0,1.3,1.5
8.75,0.6,0.7,3.0,1.4,1.4
9.0,0.8,0.8,3.1,1.6,1.4
9.25,1.3,0.9,3.2,1.8,1.2
9.5,1.8,2.4,3.3,2.5,0.7
9.75,2.3,3.7,3.3,3.1,0.7
10.0,2.7,4.7,3.6,3.7,1.0
10.25,6.5,6.0,3.9,5.5,1.4
10.5,9.9,6.9,4.0,6.9,2.9
10.75,12.8,12.9,4.4,10.0,4.9
11.0,15.8,17.8,6.7,13.4,5.9
11.25,26.9,23.0,6.5,18.8,10.8
11.5,37.1,27.7,8.7,24.5,14.5
11.75,47.4,30.2,10.6,29.4,18.4
12.0,54.9,41.0,12.0,36.0,21.9
12.25,67.8,50.9,21.7,46.8,23.3
12.5,80.4,59.1,30.7,56.7,24.9
12.75,97.6,66.6,38.9,67.7,29.4
13.0,102.5,81.9,46.0,76.8,28.6
13.25,109.6,95.4,62.4,89.2,24.2
13.5,124.2,106.9,73.8,101.6,25.6
13.75,120.3,116.4,87.4,108.0,18.0
14.0,135.8,134.7,97.8,122.8,21.7
14.25,147.5,147.9,113.4,136.3,19.8
14.5,157.5,166.3,131.1,151.6,18.3
14.75,174.4,176.0,149.1,166.5,15.1
15.0,184.2,191.7,153.1,176.4,20.4
15.25,194.7,209.0,165.0,189.5,22.4
15.5,195.9,218.2,175.9,196.6,21.2
15.75,209.0,233.3,190.6,210.9,21.4
16.0,222.0,242.8,202.1,222.3,20.4
16.25,230.1,260.9,211.6,234.2,24.9
16.5,238.9,263.4,220.6,241.0,21.5
16.75,237.7,272.9,232.3,247.6,22.1
17.0,245.1,280.3,249.1,258.2,19.3
17.25,250.1,291.5,250.2,263.9,23.8