File: 01_Data/Feather_Pillow_Feathers/Cone/Feather_Pillow_Feathers_Cone_HF50Scan_230710_R1.csv
Names,Time,Stack TC,Smoke TC,Exh Press,Smoke Comp,Smoke Meas,CO Meter,CO2 Meter,O2 Meter,Sample Mass,Ext Coeff,Start Test,Flame Verif
Chan Gain,,500,500,1,1,1,1,1,1,1,1,1.0,1.0
Offset,,0,0,0.18266,0,0,0,0,0,0,0,0.0,0.0
Gain,,1,1,25.011,13.1186,54.4142,1,1,1,1.00092,0.871134,1.0,1.0
Units,sec,C,C,Pa,%,%,%,%,%,g,/m,,
Baseline,,55.0673,57.6401,174.398,100.467,103.958,0.00034239,0.0439879,20.9517,-446.51,-0.26082,,
7,1.5,52.7927,54.0648,178.086,100.797,102.164,0.000587976,0.043906,20.9497,49.6457,-0.10294,0.0,0.0
14,3.25,53.5723,54.5435,162.364,100.879,106.288,0.000533286,0.0440177,20.9495,49.3555,-0.399093,0.0,1.0
21,5,53.8475,57.7335,156.905,100.957,108.103,0.00052239,0.0442652,20.9502,49.0452,-0.522571,0.0,1.0
28,6.75,55.3551,61.679,154.068,101.012,108.246,0.000511075,0.044526,20.9501,48.7349,-0.528539,0.0,1.0
35,8.5,57.1548,64.7762,149.933,101.056,106.799,0.000377997,0.0446908,20.9501,48.3245,-0.422384,0.0,1.0
42,10.25,58.5155,68.3506,148.837,101.105,106.338,0.000264436,0.0470574,20.9501,48.1844,-0.385559,0.0,1.0
49,12,60.4146,71.5279,154.951,101.149,105.122,0.000474261,0.0745558,20.9483,47.9141,-0.294408,0.0,0.0
56,13.75,61.573,73.1521,153.266,101.174,101.24,0.0011103,0.150588,20.9238,47.744,-0.00496579,0.0,0.0
63,15.5,62.5109,74.3539,164.369,101.169,99.3415,0.00168717,0.238458,20.8513,47.6139,0.139296,0.0,0.0
70,17.25,63.1413,75.5245,155.764,101.165,97.9283,0.00217256,0.314583,20.7314,47.5038,0.248478,0.0,0.0
77,19,64.0841,76.4352,161.518,101.159,99.6039,0.00252665,0.362627,20.618,47.2936,0.118385,0.0,0.0
84,20.75,64.9857,77.0789,159.013,101.131,98.2355,0.0030219,0.394563,20.5308,47.1935,0.222002,0.0,0.0
91,22.5,65.0654,77.7343,163.876,101.111,98.6706,0.00370023,0.404465,20.4699,47.1434,0.18672,0.0,0.0
98,24.25,65.8176,77.709,168.513,101.059,100.57,0.00430093,0.391367,20.4407,47.0233,0.0370618,0.0,0.0
105,26,66.0128,76.9256,169.569,101.024,104.843,0.0047509,0.375652,20.4363,47.0533,-0.283513,0.0,0.0
112,27.75,66.0449,76.0886,170.299,100.969,105.841,0.00524776,0.368416,20.4544,47.0734,-0.36009,0.0,0.0
119,29.5,65.7249,74.8107,170.199,100.945,105.477,0.00575341,0.362054,20.4669,47.1234,-0.335637,0.0,0.0
126,31.25,64.4795,73.3366,172.512,100.896,106.48,0.00613583,0.340422,20.476,47.1034,-0.411656,0.0,0.0
133,33,63.8872,71.9232,171.768,100.819,105.555,0.00596798,0.303254,20.501,47.0934,-0.350842,0.0,0.0
140,34.75,63.8583,71.2918,173.202,100.769,105.162,0.00539917,0.26196,20.5449,47.0834,-0.326031,0.0,0.0
147,36.5,63.7823,70.215,169.824,100.697,105.58,0.00473159,0.201883,20.5913,47.0934,-0.361906,0.0,0.0
154,38.25,63.3061,69.4406,173.722,100.715,105.388,0.0041094,0.151142,20.6584,47.0634,-0.346523,0.0,0.0
161,40,63.2672,69.0803,173.518,100.727,105.992,0.00367444,0.113854,20.7415,47.0634,-0.389376,0.0,0.0
168,41.75,63.0354,68.3708,174.252,100.745,104.901,0.00341477,0.0928146,20.8093,47.0834,-0.308945,0.0,0.0
175,43.5,62.9353,68.1044,169.635,100.775,104.689,0.00332411,0.0816285,20.8506,47.0734,-0.291138,0.0,0.0
182,45.25,62.5831,67.1213,167.289,100.84,105.376,0.0034184,0.0760234,20.8766,47.0734,-0.336209,0.0,0.0
189,47,62.5424,66.8084,172.539,100.868,105.849,0.00363054,0.0737577,20.8948,47.0634,-0.368359,0.0,0.0
196,48.75,62.1511,66.4766,175.31,100.913,105.401,0.003758,0.0731313,20.9024,47.0533,-0.332496,0.0,0.0
203,50.5,62.0286,66.5139,172.72,100.952,104.245,0.00370288,0.072419,20.9077,47.0634,-0.2453,0.0,0.0
210,52.25,62.2146,66.0635,173.405,100.985,106.505,0.00350505,0.0717798,20.9108,47.0834,-0.406715,0.0,0.0
217,54,61.9043,65.8166,171.898,101.017,105.718,0.00330299,0.0711038,20.9129,47.0734,-0.347609,0.0,0.0
224,55.75,61.7,65.0975,169.289,101.087,104.742,0.00314924,0.0706911,20.9139,47.0533,-0.271404,0.0,0.0
231,57.5,61.6402,64.9737,170.447,101.102,104.971,0.00300606,0.0703379,20.9156,47.0433,-0.286955,0.0,0.0
238,59.25,61.3532,65.3155,169.722,101.135,105.325,0.00293107,0.0699758,20.9163,47.0333,-0.310209,0.0,0.0
245,61,61.6422,64.5892,172.044,101.169,104.121,0.00275596,0.0691618,20.9168,47.0233,-0.219788,0.0,0.0
252,62.75,61.283,64.6115,166.31,101.222,106.233,0.00245669,0.0682224,20.9179,47.0433,-0.369207,0.0,0.0
259,64.5,61.3939,64.3028,167.544,101.251,105.574,0.00218869,0.0676753,20.9187,47.0033,-0.319492,0.0,0.0
266,66.25,61.0099,64.4421,172.116,101.307,105.966,0.00204989,0.0675602,20.9197,46.9933,-0.343577,0.0,0.0
273,68,61.213,64.3195,176.612,101.318,105.338,0.00192288,0.0675996,20.9212,46.9833,-0.297362,0.0,0.0
280,69.75,60.9754,64.0199,168.99,101.362,106.13,0.0017649,0.0673548,20.9227,46.9933,-0.351258,0.0,0.0
287,71.5,60.677,63.8966,172.408,101.384,104.813,0.00165812,0.0667862,20.9234,46.9933,-0.254159,0.0,0.0
294,73.25,60.5846,64.0363,171.995,101.402,103.948,0.00162359,0.0661144,20.9237,47.0033,-0.189493,0.0,0.0
301,75,60.2313,63.6497,169.412,101.422,105.697,0.00165471,0.0655578,20.9239,46.9933,-0.315461,0.0,0.0
308,76.75,60.9095,63.9154,171.04,101.455,105.438,0.00172901,0.0648931,20.9249,46.9833,-0.294206,0.0,0.0
315,78.5,60.2467,63.6979,176.008,101.472,106.489,0.00176256,0.0643446,20.9257,46.9432,-0.368714,0.0,0.0
322,80.25,60.3664,63.2929,172.346,101.51,106.534,0.00172783,0.0636674,20.9261,46.9833,-0.369067,0.0,0.0
329,82,60.3971,63.146,172.958,101.513,105.672,0.00166735,0.0632043,20.9262,46.9633,-0.306815,0.0,0.0
336,83.75,60.1833,63.5958,170.475,101.538,105.667,0.00164395,0.0628379,20.9263,46.9633,-0.304557,0.0,0.0
343,85.5,60.028,63.6053,172.575,101.549,105.368,0.00161469,0.0624521,20.927,46.9733,-0.282097,0.0,0.0
350,87.25,59.7892,63.3031,175.484,101.579,105.436,0.00157844,0.0621766,20.9279,46.9432,-0.284774,0.0,0.0
357,89,59.7999,63.1224,168.61,101.59,106.754,0.00157492,0.0618888,20.9286,46.9432,-0.378928,0.0,0.0
364,90.75,59.851,62.8191,170.974,101.616,105.768,0.00158208,0.0614174,20.9299,46.9432,-0.306036,0.0,0.0
371,92.5,59.9671,62.9813,175.464,101.608,107.201,0.0015542,0.0607616,20.9307,46.9533,-0.40948,0.0,0.0
378,94.25,59.8071,62.668,170,101.6,106.455,0.00152348,0.0603537,20.9321,46.9132,-0.356719,0.0,0.0
385,96,59.8046,63.0824,169.185,101.612,105.866,0.00151547,0.0600972,20.9328,46.9032,-0.313382,0.0,0.0
392,97.75,59.5327,62.7738,170.282,101.631,105.69,0.00153833,0.059795,20.9331,46.9432,-0.299221,0.0,0.0
399,99.5,59.5709,62.4173,170.022,101.594,106.812,0.00154044,0.0594969,20.9333,46.9132,-0.382756,0.0,0.0
406,101.25,59.3759,62.4967,166.986,101.595,105.748,0.00150963,0.0590752,20.9334,46.9132,-0.306192,0.0,0.0
413,103,59.5916,62.3588,172.439,101.571,104.73,0.00147038,0.0587358,20.9334,46.9132,-0.234085,0.0,0.0
420,104.75,59.7784,62.8277,173.172,101.568,106.592,0.00138932,0.058411,20.9345,46.9432,-0.368896,0.0,0.0
427,106.5,59.724,62.3042,172.475,101.555,105.222,0.00127722,0.0581654,20.9352,46.8832,-0.271039,0.0,0.0
434,108.25,59.2245,62.5442,168.635,101.511,106.537,0.00116237,0.0577156,20.9355,46.9032,-0.369275,0.0,0.0
441,110,59.0086,62.054,173.433,101.476,105.31,0.00106422,0.0572443,20.9354,46.9032,-0.283396,0.0,0.0
448,111.75,59.145,61.9703,172.266,101.469,105.876,0.000999691,0.0569157,20.9352,46.9032,-0.324858,0.0,0.0
455,113.5,59.0498,62.1851,171.786,101.429,105.662,0.000965591,0.056353,20.9358,46.9032,-0.312396,0.0,0.0
462,115.25,59.1562,61.6464,169.767,101.392,107.513,0.000871272,0.0558479,20.9363,46.9132,-0.447948,0.0,0.0
469,117,59.6226,62.1448,171.913,101.33,105.497,0.000776476,0.0554829,20.9378,46.9332,-0.307951,0.0,0.0
476,118.75,59.431,62.2375,167.875,101.297,106.462,0.000789013,0.0549975,20.9385,46.9132,-0.380024,0.0,0.0
483,120.5,58.9758,61.7342,173.432,101.263,106.311,0.000909144,0.0544462,20.9392,46.9132,-0.371707,0.0,0.0
490,122.25,58.911,61.8208,175.9,101.218,105.763,0.00108164,0.0541118,20.9404,46.9232,-0.33563,0.0,0.0
497,124,59.0184,61.8843,165.558,101.167,105.907,0.00114966,0.0537219,20.9409,46.9032,-0.349932,0.0,0.0
504,125.75,59.1176,61.5467,176.418,101.115,104.557,0.00112719,0.0532352,20.9424,46.8832,-0.255796,0.0,0.0
511,127.5,59.3135,61.9964,172.392,101.063,104.504,0.00107613,0.052647,20.9431,46.8832,-0.255846,0.0,0.0
518,129.25,58.7761,61.4244,168.899,101.028,105.225,0.000994346,0.051958,20.9435,46.8632,-0.311058,0.0,0.0
525,131,58.851,61.9136,178.301,100.97,105.325,0.000908395,0.0514205,20.9437,46.8932,-0.322622,0.0,0.0
532,132.75,59.0668,61.8697,171.405,100.888,105.934,0.000871198,0.050983,20.9437,46.9032,-0.372924,0.0,0.0
539,134.5,58.6557,62.0775,170.639,100.826,105.406,0.000903541,0.0504566,20.9442,46.8732,-0.339468,0.0,0.0
546,136.25,58.555,61.687,169.277,100.76,105.775,0.000920931,0.0501545,20.9452,46.8832,-0.371126,0.0,0.0
553,138,59.1658,61.7937,169.263,100.705,105.491,0.00090642,0.0499765,20.9457,46.9032,-0.354775,0.0,0.0
560,139.75,58.6141,61.6216,171.102,100.633,104.787,0.000820354,0.0498122,20.946,46.8732,-0.309041,0.0,0.0
567,141.5,59.1225,62.1318,174.078,100.557,104.277,0.000652339,0.049451,20.9474,46.8932,-0.277581,0.0,0.0
574,143.25,58.3318,61.7578,169.083,100.468,105.574,0.000552889,0.0489869,20.9483,46.8832,-0.378792,0.0,0.0
581,145,58.9213,61.5588,176.938,100.428,103.626,0.000559623,0.0484248,20.9489,46.8832,-0.239532,0.0,0.0
588,146.75,58.8842,61.8134,170.673,100.395,106.359,0.000603337,0.0478518,20.9491,46.9232,-0.441008,0.0,0.0
595,148.5,58.3225,61.946,167.587,100.323,104.187,0.000627174,0.0475528,20.9493,46.8932,-0.288765,0.0,0.0
601,150,58.6159,61.534,172,100.294,103.478,0.000600794,0.0472211,20.9493,46.9132,-0.238837,0.0,0.0