File: 01_Data/Feather_Pillow_Feathers/Cone/Feather_Pillow_Feathers_Cone_HF75Scan_230710_R2.csv
Names,Time,Stack TC,Smoke TC,Exh Press,Smoke Comp,Smoke Meas,CO Meter,CO2 Meter,O2 Meter,Sample Mass,Ext Coeff,Start Test,Flame Verif
Chan Gain,,500,500,1,1,1,1,1,1,1,1,1.0,1.0
Offset,,0,0,0.18266,0,0,0,0,0,0,0,0.0,0.0
Gain,,1,1,25.011,12.871,48.7072,1,1,1,1.00092,0.871134,1.0,1.0
Units,sec,C,C,Pa,%,%,%,%,%,g,/m,,
Baseline,,65.1614,68.4462,168.199,99.7375,100.364,-3.30466e-05,0.0438606,20.9506,-448.382,-0.0477792,,
6,1.25,64.6433,66.9198,178.902,99.9768,57.3909,-0.000301047,0.0442143,20.9515,46.3927,4.24145,0.0,0.0
12,2.75,65.0241,68.7971,140.181,99.9784,68.0277,-0.000219651,0.0443261,20.951,46.0024,2.94228,0.0,1.0
18,4.25,66.9229,73.272,140.101,99.9925,66.8356,-9.71675e-05,0.0444818,20.9502,45.6521,3.07846,0.0,1.0
24,5.75,68.8699,76.8765,141.854,99.9851,65.4503,3.69093e-05,0.0446721,20.9492,45.2417,3.23794,0.0,1.0
30,7.25,70.3025,81.1449,152.9,99.9705,63.8494,9.24673e-05,0.0448014,20.949,44.9314,3.42607,0.0,1.0
36,8.75,71.8445,84.1748,138.598,99.9678,59.7692,8.84074e-05,0.0455962,20.9501,44.6411,3.93048,0.0,0.0
42,10.25,73.5604,87.4906,138.2,99.9858,56.2567,0.00024493,0.073375,20.9494,44.4509,4.39466,0.0,0.0
48,11.75,74.757,89.3401,132.704,99.9823,51.9208,0.000788822,0.149988,20.9398,44.2107,5.00729,0.0,0.0
54,13.25,76.3498,92.0466,153.318,99.9788,54.5221,0.00157944,0.272693,20.8907,44.1106,4.63346,0.0,0.0
60,14.75,77.4872,93.2116,149.224,99.9717,55.3976,0.00249325,0.395752,20.7703,44.0005,4.51118,0.0,0.0
66,16.25,78.0987,93.9061,158.985,99.9603,62.1727,0.00354303,0.481723,20.5944,43.9004,3.62863,0.0,0.0
72,17.75,78.6583,93.4583,160.929,99.9646,64.9226,0.00469336,0.530237,20.4316,44.0005,3.29824,0.0,0.0
78,19.25,78.9726,92.3956,160.381,99.9517,66.4908,0.00610368,0.553655,20.3156,44.0306,3.11487,0.0,0.0
84,20.75,78.2987,91.3266,164.16,99.9568,66.6186,0.00787525,0.566241,20.2468,44.0005,3.10058,0.0,0.0
90,22.25,78.2256,89.9514,159.681,99.9477,66.8445,0.00967928,0.559389,20.2088,44.0005,3.07402,0.0,0.0
96,23.75,77.5323,88.4161,165.966,99.9689,66.7063,0.0108577,0.525229,20.1891,44.0105,3.09146,0.0,0.0
102,25.25,76.7902,87.3549,165.443,99.9442,66.516,0.0110177,0.468734,20.1987,43.9605,3.11139,0.0,0.0
108,26.75,76.5155,86.0631,168.189,99.9477,67.0333,0.0103695,0.395479,20.2358,43.9605,3.05247,0.0,0.0
114,28.25,76.4441,85.5562,160.021,99.9375,67.6636,0.00889806,0.307387,20.2977,44.0105,2.98018,0.0,0.0
120,29.75,76.1706,84.5211,161.698,99.9297,67.8181,0.00721372,0.237433,20.3758,43.9705,2.96214,0.0,0.0
126,31.25,76.21,83.7966,169.686,99.9116,67.176,0.00554897,0.179767,20.5118,43.9705,3.03345,0.0,0.0
132,32.75,75.589,83.5355,163.817,99.912,66.9471,0.00434823,0.143018,20.6301,43.9805,3.05957,0.0,0.0
138,34.25,75.7981,83.0446,160.472,99.8979,67.1284,0.00360301,0.119195,20.7187,43.9705,3.03781,0.0,0.0
144,35.75,75.4351,82.136,167.619,99.8872,66.904,0.00320631,0.104152,20.7823,43.9505,3.0626,0.0,0.0
150,37.25,74.4493,82.0477,162.749,99.8821,67.4213,0.00303481,0.0952199,20.8278,43.9605,3.00335,0.0,0.0
156,38.75,75.1052,81.3795,172.032,99.8656,66.8758,0.00295884,0.0892145,20.8563,43.9405,3.06417,0.0,0.0
162,40.25,74.2093,80.7887,165.674,99.8472,66.9664,0.00292238,0.0853271,20.8743,43.9205,3.0524,0.0,0.0
168,41.75,74.9699,80.2817,162.406,99.8503,66.7167,0.00290669,0.0827648,20.886,43.8904,3.08119,0.0,0.0
174,43.25,74.4734,79.7384,169.374,99.8378,66.8743,0.00289825,0.0812826,20.8934,43.9305,3.06221,0.0,0.0
180,44.75,74.6594,79.9636,169.302,99.8146,66.8445,0.0029045,0.0800022,20.8995,43.9104,3.06383,0.0,0.0
186,46.25,74.3817,79.5747,163.998,99.8189,67.1775,0.00291079,0.0788282,20.9035,43.9305,3.02619,0.0,0.0
192,47.75,73.935,79.6261,166.755,99.8004,67.1894,0.00288498,0.0774653,20.9062,43.9104,3.02343,0.0,0.0
198,49.25,73.9188,79.0173,163.274,99.813,67.3336,0.00273143,0.0760307,20.9085,43.8604,3.00801,0.0,0.0
204,50.75,74.5849,78.7628,164.51,99.7674,66.9501,0.0024711,0.074467,20.91,43.8704,3.04817,0.0,0.0
210,52.25,73.3767,78.958,164.26,99.7584,67.0036,0.00217788,0.0734578,20.9113,43.8604,3.04137,0.0,0.0
216,53.75,73.4624,78.5139,167.651,99.7517,66.7108,0.00189744,0.072705,20.9137,43.8504,3.07433,0.0,0.0
222,55.25,73.7132,77.8703,166.062,99.7431,66.6364,0.00173324,0.0714738,20.9149,43.8504,3.08218,0.0,0.0
228,56.75,73.6431,77.8536,166.865,99.7356,67.9177,0.00167639,0.0703172,20.9168,43.8404,2.93607,0.0,0.0
234,58.25,73.5655,77.865,161.777,99.7191,67.6145,0.00171657,0.0692631,20.9195,43.8604,2.969,0.0,0.0
240,59.75,72.9593,77.6071,159.879,99.7164,66.0523,0.00174958,0.0684014,20.9213,43.8304,3.14742,0.0,0.0
246,61.25,72.9146,77.7357,161.204,99.703,66.9798,0.00170926,0.0677867,20.9226,43.7703,3.03984,0.0,0.0
252,62.75,72.5718,77.7671,166.714,99.7238,67.2964,0.00159875,0.066931,20.9241,43.8104,3.0054,0.0,0.0
258,64.25,73.0908,77.42,166.91,99.6857,66.8921,0.0014627,0.0658734,20.9249,43.8704,3.04852,0.0,0.0
264,65.75,72.717,77.3064,166.596,99.6975,67.2444,0.00134186,0.0649154,20.9258,43.8604,3.00929,0.0,0.0
270,67.25,72.9053,77.1063,165.001,99.6755,66.5205,0.00126191,0.0643775,20.9269,43.8104,3.09031,0.0,0.0
276,68.75,72.8993,76.6885,165.796,99.6822,66.6245,0.00119987,0.0642036,20.9275,43.8003,3.07888,0.0,0.0
282,70.25,72.6048,76.9134,168.029,99.6386,66.3302,0.00117177,0.0639285,20.9278,43.7903,3.10937,0.0,0.0
288,71.75,72.7513,76.8106,165.175,99.6382,66.9174,0.00120474,0.0633441,20.928,43.8204,3.04199,0.0,0.0
294,73.25,72.6549,76.7101,168.497,99.6339,66.4165,0.00125019,0.0624906,20.9281,43.8304,3.09908,0.0,0.0
300,74.75,72.5849,77.0652,164.562,99.6056,66.8431,0.00128087,0.0618279,20.9291,43.8704,3.04798,0.0,0.0
306,76.25,71.944,76.3999,166.824,99.597,67.0571,0.00130279,0.0611473,20.9307,43.8704,3.02289,0.0,0.0
312,77.75,72.0503,76.4272,171.698,99.593,66.9367,0.00126787,0.0606035,20.9323,43.8504,3.03632,0.0,0.0
318,79.25,72.1528,75.8539,159.64,99.5675,67.2087,0.00118161,0.0602103,20.9338,43.8404,3.00337,0.0,0.0
324,80.75,72.2889,76.1852,164.621,99.5546,67.564,0.00107936,0.0596009,20.9354,43.7903,2.96209,0.0,0.0
330,82.25,72.0875,76.3489,167.321,99.5483,66.3763,0.000970642,0.0591772,20.9362,43.7803,3.09713,0.0,0.0
336,83.75,72.3199,76.3302,165.964,99.5192,66.4997,0.000861648,0.0587163,20.9367,43.8404,3.08071,0.0,0.0
342,85.25,71.9736,76.2219,165.825,99.518,67.1195,0.000773041,0.0585014,20.9369,43.8304,3.00972,0.0,0.0
348,86.75,72.1723,76.226,162.908,99.4866,66.7509,0.0007146,0.0584108,20.9371,43.7903,3.04939,0.0,0.0
354,88.25,72.1262,76.0186,164.282,99.4878,66.5725,0.000700788,0.0582547,20.9371,43.8104,3.06993,0.0,0.0
360,89.75,71.511,76.1283,162.631,99.4536,66.5859,0.000734275,0.0578953,20.9372,43.7503,3.06577,0.0,0.0
366,91.25,71.6614,75.5595,164.515,99.4567,66.8564,0.00073475,0.0573838,20.9372,43.8304,3.03503,0.0,0.0
372,92.75,71.6937,76.0691,163.362,99.4332,65.8724,0.000668407,0.0568765,20.9374,43.8304,3.14652,0.0,0.0
378,94.25,71.9894,76.3518,165.955,99.4053,66.571,0.000569913,0.0566178,20.9384,43.8204,3.06376,0.0,0.0
384,95.75,71.6332,75.5048,162.264,99.4065,66.9174,0.000488828,0.0565353,20.939,43.8104,3.0242,0.0,0.0
390,97.25,71.4131,75.773,164.762,99.3601,66.2411,0.00046757,0.0564039,20.9392,43.8204,3.09826,0.0,0.0
396,98.75,71.4348,75.4922,166.185,99.3884,66.5354,0.00046851,0.0561052,20.9394,43.8404,3.06656,0.0,0.0
402,100.25,71.4421,75.4981,171.681,99.3754,66.3882,0.00047078,0.0557157,20.9395,43.7103,3.08248,0.0,0.0
408,101.75,71.1061,75.894,165.411,99.3692,66.6899,0.000502479,0.0553656,20.9395,43.7403,3.04735,0.0,0.0
414,103.25,71.75,75.4137,168.361,99.3483,66.3897,0.000581292,0.0548974,20.9403,43.7303,3.08023,0.0,0.0
420,104.75,71.2139,75.1668,164.64,99.3633,66.2856,0.000651424,0.054428,20.9411,43.7703,3.09336,0.0,0.0
426,106.25,71.3917,75.4004,166.588,99.3448,66.629,0.000660982,0.0541058,20.9415,43.7503,3.05246,0.0,0.0
432,107.75,71.3733,76.0076,162.715,99.3444,65.7282,0.000608208,0.0537274,20.9417,43.7503,3.15644,0.0,0.0
438,109.25,71.2055,75.4804,160.294,99.3417,66.3451,0.000551548,0.0533774,20.9418,43.7803,3.08485,0.0,0.0
444,110.75,71.3897,75.1939,164.124,99.3338,66.0686,0.000477971,0.0532185,20.9418,43.7603,3.11615,0.0,0.0
450,112.25,71.3056,75.531,170.626,99.3271,66.8653,0.000446588,0.0529485,20.9428,43.7403,3.02404,0.0,0.0
456,113.75,70.9017,75.3391,166.841,99.3138,65.8382,0.00044574,0.0527157,20.9435,43.7503,3.14131,0.0,0.0
462,115.25,71.1847,75.7975,162.496,99.3102,66.8609,0.000441611,0.0526045,20.9439,43.6902,3.02325,0.0,0.0
468,116.75,71.8371,75.5406,165.014,99.324,66.4997,0.00044008,0.052339,20.944,43.7403,3.0657,0.0,0.0
474,118.25,71.0926,75.4878,165.696,99.3181,67.0928,0.000455951,0.052079,20.9441,43.7203,2.9974,0.0,0.0
480,119.75,71.1169,75.4645,161.107,99.3087,66.6275,0.00048988,0.0518972,20.9442,43.7403,3.04985,0.0,0.0
486,121.25,71.2576,75.4179,161.619,99.3208,66.6766,0.000509907,0.0516351,20.944,43.6802,3.04516,0.0,0.0
492,122.75,71.1507,75.8096,164.065,99.3028,66.0909,0.000465543,0.0513323,20.9438,43.7003,3.11119,0.0,0.0
498,124.25,71.1171,75.7108,160.732,99.3279,66.5101,0.000320607,0.0509265,20.9443,43.6802,3.06481,0.0,0.0
504,125.75,71.351,75.188,164.711,99.3063,66.25,0.000179281,0.0506498,20.9451,43.6902,3.09309,0.0,0.0
510,127.25,70.9162,75.4616,163.908,99.3075,66.1712,8.83445e-05,0.05038,20.9455,43.7003,3.10228,0.0,0.0
516,128.75,71.0085,75.4232,164.296,99.302,66.7033,4.99859e-05,0.0501102,20.9457,43.7203,3.04065,0.0,0.0
522,130.25,71.3112,75.7099,163.076,99.3138,66.4447,9.20807e-05,0.04976,20.9458,43.7003,3.07124,0.0,0.0
528,131.75,71.0673,75.6226,166.028,99.3091,66.739,0.000159099,0.0492763,20.9463,43.7503,3.0371,0.0,0.0
534,133.25,71.181,75.4143,163.91,99.3079,66.0984,0.000238922,0.0489234,20.9473,43.7403,3.11072,0.0,0.0
540,134.75,71.092,75.6132,161.751,99.3326,67.2028,0.00030723,0.0487569,20.9477,43.7403,2.986,0.0,0.0
546,136.25,71.1018,75.5962,162.464,99.3087,67.1299,0.000326172,0.0485139,20.948,43.7403,2.99244,0.0,0.0
552,137.75,71.1772,75.2311,163.608,99.3346,66.9085,0.000299571,0.0482631,20.9481,43.7003,3.01969,0.0,0.0
558,139.25,70.7252,75.4523,161.289,99.3083,67.1894,0.000251962,0.0480618,20.9482,43.7403,2.98565,0.0,0.0
564,140.75,70.8066,75.7409,169.291,99.3036,66.2084,0.000199216,0.0479455,20.9483,43.7103,3.09768,0.0,0.0
570,142.25,71.4484,75.2124,166.243,99.3055,67.1641,0.000118066,0.0478761,20.9483,43.6702,2.98831,0.0,0.0
571,142.5,71.2759,75.8971,165.121,99.3122,66.7301,0.000100579,0.0478499,20.9483,43.6702,3.03837,0.0,0.0