File: 01_Data/Feather_Pillow_Feathers/Cone/Feather_Pillow_Feathers_Cone_HF50Scalar_230710_R2.csv
LABORATORY,FSRI
TEST IDENT,Fea_Pill_Fea_HF50_R2
OPERATOR,Marino
MATERIAL,Feather Pillow Feathers
ORIENTATION,Horizontal
HEAT FLUX,50
SURF AREA,0.01
C FACTOR,0.0383364
SPEC HOLDER DIFF,-566
SPECIMEN MASS,5.39
SCAN TIME,0.25
O2 DELAY TIME,11
CO DELAY TIME,11
CO2 DELAY TIME,8
FLOW FACTOR,1
SCAN COUNT,597
TIME TO IGN,4.75
END OF TEST SCAN,117
END OF TEST TIME,29.25
TEST STATUS,1
PRE TEST CMT,5 cm depth tray filled without compression
POST TEST CMT,Sample charred and bubbled. Corners of sample foil lifted after flames were extinguished.