File: 01_Data/Feather_Pillow_Feathers/Cone/Feather_Pillow_Feathers_Cone_HF25Scalar_230710_R3.csv
LABORATORY,FSRI
TEST IDENT,Fea_Pill_Fea_HF25_R3
OPERATOR,Marino
MATERIAL,Feather Pillow Feathers
ORIENTATION,Horizontal
HEAT FLUX,25
SURF AREA,0.01
C FACTOR,0.0383364
SPEC HOLDER DIFF,-566
SPECIMEN MASS,5.38
SCAN TIME,0.25
O2 DELAY TIME,11
CO DELAY TIME,11
CO2 DELAY TIME,8
FLOW FACTOR,1
SCAN COUNT,1202
TIME TO IGN,0
END OF TEST SCAN,722
END OF TEST TIME,180.5
TEST STATUS,1
PRE TEST CMT,5 cm depth tray filled without compression
POST TEST CMT,"Sample did not ignite. Sample shrank and charred. Leftover charred mass bubbled."