File: 01_Data/Fiber_Cement_Board/FTIR/IS/Deprecated/Fiber_Cement_Board_IS_S_220928_R1.dpt
7497.03,0.49862
7473.89,0.50836
7450.74,0.50299
7427.6,0.50664
7404.45,0.49614
7381.31,0.49761
7358.16,0.49335
7335.02,0.50316
7311.87,0.50261
7288.73,0.49739
7265.58,0.49767
7242.44,0.49480
7219.29,0.49044
7196.15,0.48999
7173,0.48816
7149.86,0.48674
7126.71,0.48556
7103.57,0.48297
7080.42,0.48557
7057.28,0.47623
7034.13,0.47987
7010.99,0.48000
6987.84,0.48177
6964.7,0.48177
6941.55,0.48397
6918.41,0.48344
6895.26,0.49091
6872.12,0.48033
6848.97,0.48978
6825.83,0.48233
6802.68,0.48674
6779.54,0.48234
6756.39,0.48676
6733.25,0.48928
6710.1,0.49168
6686.96,0.49131
6663.82,0.49023
6640.67,0.49651
6617.53,0.48850
6594.38,0.49759
6571.24,0.49517
6548.09,0.49621
6524.95,0.49404
6501.8,0.49810
6478.66,0.49475
6455.51,0.49770
6432.37,0.49944
6409.22,0.49687
6386.08,0.50472
6362.93,0.49604
6339.79,0.50012
6316.64,0.49743
6293.5,0.49945
6270.35,0.50484
6247.21,0.50318
6224.06,0.50322
6200.92,0.50926
6177.77,0.50741
6154.63,0.50426
6131.48,0.50705
6108.34,0.50603
6085.19,0.50797
6062.05,0.50903
6038.9,0.50934
6015.76,0.50808
5992.61,0.50529
5969.47,0.50153
5946.32,0.50359
5923.18,0.50417
5900.03,0.50383
5876.89,0.50479
5853.74,0.50468
5830.6,0.50582
5807.45,0.50444
5784.31,0.50513
5761.16,0.50666
5738.02,0.50626
5714.87,0.50760
5691.73,0.50764
5668.58,0.50526
5645.44,0.50697
5622.29,0.50792
5599.15,0.50657
5576,0.50663
5552.86,0.50754
5529.71,0.50748
5506.57,0.50813
5483.42,0.50754
5460.28,0.50926
5437.13,0.50914
5413.99,0.50956
5390.84,0.50845
5367.7,0.50727
5344.55,0.50386
5321.41,0.49735
5298.26,0.48742
5275.12,0.47037
5251.97,0.44746
5228.83,0.42302
5205.68,0.41288
5182.54,0.41267
5159.39,0.41899
5136.25,0.42674
5113.1,0.43380
5089.96,0.44096
5066.81,0.44683
5043.67,0.45046
5020.52,0.45867
4997.38,0.46230
4974.23,0.46563
4951.09,0.46806
4927.94,0.47074
4904.8,0.46981
4881.65,0.46809
4858.51,0.46660
4835.36,0.46412
4812.22,0.46118
4789.07,0.45957
4765.93,0.45860
4742.78,0.45882
4719.64,0.46017
4696.49,0.46156
4673.35,0.45771
4650.2,0.45987
4627.06,0.45767
4603.92,0.45595
4580.77,0.45687
4557.63,0.45379
4534.48,0.45256
4511.34,0.44757
4488.19,0.44510
4465.05,0.44123
4441.9,0.43539
4418.76,0.42576
4395.61,0.41784
4372.47,0.41525
4349.32,0.40995
4326.18,0.40178
4303.03,0.40764
4279.89,0.40286
4256.74,0.39611
4233.6,0.39504
4210.45,0.39146
4187.31,0.38793
4164.16,0.38541
4141.02,0.38032
4117.87,0.37156
4094.73,0.36056
4071.58,0.34608
4048.44,0.33318
4025.29,0.33185
4002.15,0.33379
3979,0.33546
3955.86,0.33575
3932.71,0.33634
3909.57,0.33783
3886.42,0.33862
3863.28,0.33771
3840.13,0.33592
3816.99,0.32986
3793.84,0.32285
3770.7,0.31281
3747.55,0.29839
3724.41,0.27489
3701.26,0.23353
3678.12,0.14713
3654.97,0.13314
3631.83,0.11339
3608.68,0.10016
3585.54,0.09299
3562.39,0.08652
3539.25,0.08276
3516.1,0.08033
3492.96,0.07701
3469.81,0.07514
3446.67,0.07358
3423.52,0.07183
3400.38,0.07218
3377.23,0.07100
3354.09,0.07245
3330.94,0.07275
3307.8,0.07351
3284.65,0.07495
3261.51,0.07539
3238.36,0.07826
3215.22,0.07990
3192.07,0.08295
3168.93,0.08551
3145.78,0.08939
3122.64,0.09126
3099.49,0.09427
3076.35,0.09476
3053.2,0.09622
3030.06,0.08947
3006.91,0.10452
2983.77,0.09807
2960.62,0.07576
2937.48,0.07266
2914.33,0.07649
2891.19,0.08882
2868.04,0.08855
2844.9,0.10310
2821.75,0.12914
2798.61,0.14067
2775.46,0.14759
2752.32,0.15200
2729.17,0.15567
2706.03,0.16225
2682.88,0.16899
2659.74,0.17498
2636.59,0.17943
2613.45,0.18181
2590.3,0.18387
2567.16,0.18517
2544.02,0.18308
2520.87,0.17439
2497.73,0.18346
2474.58,0.20025
2451.44,0.20586
2428.29,0.20891
2405.15,0.20988
2382,0.20972
2358.86,0.20845
2335.71,0.20574
2312.57,0.20467
2289.42,0.20355
2266.28,0.19959
2243.13,0.19633
2219.99,0.19547
2196.84,0.19651
2173.7,0.19394
2150.55,0.19007
2127.41,0.18831
2104.26,0.19152
2081.12,0.19216
2057.97,0.19012
2034.83,0.18132
2011.68,0.17470
1988.54,0.16867
1965.39,0.16570
1942.25,0.16069
1919.1,0.16563
1895.96,0.15098
1872.81,0.14007
1849.67,0.15375
1826.52,0.14989
1803.38,0.12769
1780.23,0.12861
1757.09,0.12180
1733.94,0.06531
1710.8,0.09240
1687.65,0.08103
1664.51,0.07116
1641.36,0.06623
1618.22,0.06270
1595.07,0.05963
1571.93,0.06057
1548.78,0.06541
1525.64,0.07091
1502.49,0.06622
1479.35,0.06173
1456.2,0.05206
1433.06,0.05741
1409.91,0.05978
1386.77,0.06566
1363.62,0.06765
1340.48,0.07157
1317.33,0.07238
1294.19,0.07847
1271.04,0.07695
1247.9,0.07903
1224.75,0.08376
1201.61,0.07409
1178.46,0.07116
1155.32,0.07128
1132.17,0.08028
1109.03,0.08394
1085.88,0.09204
1062.74,0.09125
1039.59,0.10290
1016.45,0.11370
993.304,0.08939
970.159,0.07686
947.014,0.07105
923.869,0.06939
900.724,0.06435
877.579,0.06000
854.434,0.05944
831.289,0.05390
808.144,0.04927
784.999,0.04681
761.854,0.04531
738.709,0.04190
715.565,0.04405
692.42,0.05210
669.275,0.07572
646.13,0.06074
622.985,0.05767
599.84,0.06171