File: 01_Data/Fiber_Cement_Board/FTIR/IS/Deprecated/Fiber_Cement_Board_IS_S_220928_R4.dpt
7497.03,0.49620
7473.89,0.50038
7450.74,0.49783
7427.6,0.49795
7404.45,0.49401
7381.31,0.50401
7358.16,0.49724
7335.02,0.49557
7311.87,0.50763
7288.73,0.49551
7265.58,0.49865
7242.44,0.49424
7219.29,0.49842
7196.15,0.48138
7173,0.48904
7149.86,0.48557
7126.71,0.48483
7103.57,0.48409
7080.42,0.48363
7057.28,0.47985
7034.13,0.48328
7010.99,0.48163
6987.84,0.48186
6964.7,0.47997
6941.55,0.48273
6918.41,0.48006
6895.26,0.48287
6872.12,0.48755
6848.97,0.48471
6825.83,0.48445
6802.68,0.48900
6779.54,0.48604
6756.39,0.48648
6733.25,0.48633
6710.1,0.48616
6686.96,0.48981
6663.82,0.49078
6640.67,0.49365
6617.53,0.49476
6594.38,0.49361
6571.24,0.49255
6548.09,0.49148
6524.95,0.49757
6501.8,0.49563
6478.66,0.49886
6455.51,0.49761
6432.37,0.49849
6409.22,0.49942
6386.08,0.50253
6362.93,0.50035
6339.79,0.50100
6316.64,0.50203
6293.5,0.50631
6270.35,0.50396
6247.21,0.50344
6224.06,0.50312
6200.92,0.50096
6177.77,0.50651
6154.63,0.50558
6131.48,0.50699
6108.34,0.50594
6085.19,0.50938
6062.05,0.50595
6038.9,0.50772
6015.76,0.50411
5992.61,0.50778
5969.47,0.50504
5946.32,0.50399
5923.18,0.50260
5900.03,0.50381
5876.89,0.50659
5853.74,0.50407
5830.6,0.50514
5807.45,0.50323
5784.31,0.50436
5761.16,0.50596
5738.02,0.50750
5714.87,0.50562
5691.73,0.50594
5668.58,0.50345
5645.44,0.50719
5622.29,0.50585
5599.15,0.50651
5576,0.50523
5552.86,0.50870
5529.71,0.50899
5506.57,0.50813
5483.42,0.50950
5460.28,0.50826
5437.13,0.50883
5413.99,0.50892
5390.84,0.50823
5367.7,0.50632
5344.55,0.50408
5321.41,0.49779
5298.26,0.48743
5275.12,0.47157
5251.97,0.45017
5228.83,0.42668
5205.68,0.41426
5182.54,0.41574
5159.39,0.42066
5136.25,0.42856
5113.1,0.43497
5089.96,0.44235
5066.81,0.44652
5043.67,0.45382
5020.52,0.45848
4997.38,0.46264
4974.23,0.46649
4951.09,0.47010
4927.94,0.47090
4904.8,0.47201
4881.65,0.46798
4858.51,0.46825
4835.36,0.46389
4812.22,0.46169
4789.07,0.46057
4765.93,0.45899
4742.78,0.45863
4719.64,0.46018
4696.49,0.46079
4673.35,0.45742
4650.2,0.45956
4627.06,0.45667
4603.92,0.45506
4580.77,0.45562
4557.63,0.45369
4534.48,0.45117
4511.34,0.44789
4488.19,0.44445
4465.05,0.44092
4441.9,0.43438
4418.76,0.42621
4395.61,0.41867
4372.47,0.41549
4349.32,0.41078
4326.18,0.40152
4303.03,0.40778
4279.89,0.40308
4256.74,0.39654
4233.6,0.39520
4210.45,0.39127
4187.31,0.38897
4164.16,0.38544
4141.02,0.38099
4117.87,0.37207
4094.73,0.36067
4071.58,0.34618
4048.44,0.33350
4025.29,0.33273
4002.15,0.33459
3979,0.33650
3955.86,0.33736
3932.71,0.33824
3909.57,0.33895
3886.42,0.33903
3863.28,0.33875
3840.13,0.33614
3816.99,0.33056
3793.84,0.32371
3770.7,0.31474
3747.55,0.30002
3724.41,0.27530
3701.26,0.23481
3678.12,0.14733
3654.97,0.13375
3631.83,0.11462
3608.68,0.10089
3585.54,0.09371
3562.39,0.08748
3539.25,0.08410
3516.1,0.08068
3492.96,0.07817
3469.81,0.07588
3446.67,0.07444
3423.52,0.07300
3400.38,0.07176
3377.23,0.07179
3354.09,0.07224
3330.94,0.07367
3307.8,0.07402
3284.65,0.07423
3261.51,0.07661
3238.36,0.07805
3215.22,0.08087
3192.07,0.08387
3168.93,0.08669
3145.78,0.08947
3122.64,0.09312
3099.49,0.09492
3076.35,0.09542
3053.2,0.09686
3030.06,0.09019
3006.91,0.10479
2983.77,0.09808
2960.62,0.07536
2937.48,0.07309
2914.33,0.07661
2891.19,0.08847
2868.04,0.08917
2844.9,0.10335
2821.75,0.12939
2798.61,0.14130
2775.46,0.14808
2752.32,0.15263
2729.17,0.15631
2706.03,0.16333
2682.88,0.16968
2659.74,0.17543
2636.59,0.18041
2613.45,0.18302
2590.3,0.18445
2567.16,0.18546
2544.02,0.18333
2520.87,0.17507
2497.73,0.18438
2474.58,0.20093
2451.44,0.20695
2428.29,0.20963
2405.15,0.21109
2382,0.21062
2358.86,0.20946
2335.71,0.20727
2312.57,0.20605
2289.42,0.20466
2266.28,0.20091
2243.13,0.19757
2219.99,0.19682
2196.84,0.19775
2173.7,0.19532
2150.55,0.19109
2127.41,0.19022
2104.26,0.19308
2081.12,0.19368
2057.97,0.19164
2034.83,0.18247
2011.68,0.17550
1988.54,0.16953
1965.39,0.16618
1942.25,0.16164
1919.1,0.16628
1895.96,0.15112
1872.81,0.14071
1849.67,0.15412
1826.52,0.15040
1803.38,0.12814
1780.23,0.12908
1757.09,0.12235
1733.94,0.06573
1710.8,0.09244
1687.65,0.08169
1664.51,0.07177
1641.36,0.06675
1618.22,0.06233
1595.07,0.05969
1571.93,0.06081
1548.78,0.06544
1525.64,0.07134
1502.49,0.06652
1479.35,0.06173
1456.2,0.05240
1433.06,0.05770
1409.91,0.06018
1386.77,0.06576
1363.62,0.06783
1340.48,0.07191
1317.33,0.07222
1294.19,0.07895
1271.04,0.07672
1247.9,0.07908
1224.75,0.08335
1201.61,0.07430
1178.46,0.07082
1155.32,0.07145
1132.17,0.08075
1109.03,0.08437
1085.88,0.09281
1062.74,0.09127
1039.59,0.10306
1016.45,0.11339
993.304,0.08900
970.159,0.07685
947.014,0.07183
923.869,0.06921
900.724,0.06447
877.579,0.06014
854.434,0.06089
831.289,0.05456
808.144,0.04845
784.999,0.04666
761.854,0.04525
738.709,0.04302
715.565,0.04472
692.42,0.05267
669.275,0.07696
646.13,0.06047
622.985,0.05816
599.84,0.06151