File: 01_Data/Fiber_Cement_Board/FTIR/IS/Deprecated/Fiber_Cement_Board_IS_S_220928_R5.dpt
7497.03,0.50245
7473.89,0.50420
7450.74,0.50039
7427.6,0.49468
7404.45,0.48929
7381.31,0.50469
7358.16,0.49624
7335.02,0.49601
7311.87,0.50086
7288.73,0.49616
7265.58,0.49769
7242.44,0.49586
7219.29,0.49645
7196.15,0.49607
7173,0.49232
7149.86,0.48545
7126.71,0.48230
7103.57,0.48365
7080.42,0.47867
7057.28,0.48218
7034.13,0.48045
7010.99,0.48358
6987.84,0.48772
6964.7,0.48496
6941.55,0.48099
6918.41,0.48416
6895.26,0.48239
6872.12,0.48467
6848.97,0.49066
6825.83,0.48789
6802.68,0.48602
6779.54,0.48194
6756.39,0.48980
6733.25,0.48796
6710.1,0.48894
6686.96,0.49069
6663.82,0.49213
6640.67,0.49637
6617.53,0.49424
6594.38,0.49318
6571.24,0.49699
6548.09,0.49826
6524.95,0.49558
6501.8,0.49896
6478.66,0.49769
6455.51,0.50100
6432.37,0.50252
6409.22,0.49959
6386.08,0.50000
6362.93,0.50322
6339.79,0.50247
6316.64,0.50756
6293.5,0.50636
6270.35,0.50687
6247.21,0.50480
6224.06,0.50761
6200.92,0.50563
6177.77,0.50672
6154.63,0.50700
6131.48,0.50744
6108.34,0.50612
6085.19,0.50587
6062.05,0.50779
6038.9,0.51140
6015.76,0.50743
5992.61,0.50315
5969.47,0.50281
5946.32,0.50305
5923.18,0.50391
5900.03,0.50577
5876.89,0.50243
5853.74,0.50748
5830.6,0.50808
5807.45,0.50410
5784.31,0.50541
5761.16,0.50732
5738.02,0.50684
5714.87,0.50778
5691.73,0.50590
5668.58,0.50577
5645.44,0.50630
5622.29,0.50865
5599.15,0.50955
5576,0.50757
5552.86,0.50792
5529.71,0.50925
5506.57,0.50817
5483.42,0.50749
5460.28,0.50948
5437.13,0.50807
5413.99,0.51074
5390.84,0.50809
5367.7,0.50801
5344.55,0.50449
5321.41,0.49773
5298.26,0.48750
5275.12,0.47154
5251.97,0.44913
5228.83,0.42979
5205.68,0.41491
5182.54,0.41512
5159.39,0.42212
5136.25,0.42980
5113.1,0.43733
5089.96,0.44372
5066.81,0.44792
5043.67,0.45457
5020.52,0.45863
4997.38,0.46371
4974.23,0.46772
4951.09,0.47069
4927.94,0.47114
4904.8,0.47185
4881.65,0.46977
4858.51,0.46774
4835.36,0.46488
4812.22,0.46340
4789.07,0.46065
4765.93,0.45969
4742.78,0.45996
4719.64,0.46104
4696.49,0.46227
4673.35,0.45752
4650.2,0.46017
4627.06,0.45806
4603.92,0.45549
4580.77,0.45707
4557.63,0.45394
4534.48,0.45160
4511.34,0.44900
4488.19,0.44562
4465.05,0.44229
4441.9,0.43459
4418.76,0.42640
4395.61,0.41971
4372.47,0.41566
4349.32,0.41100
4326.18,0.40263
4303.03,0.40864
4279.89,0.40372
4256.74,0.39693
4233.6,0.39590
4210.45,0.39225
4187.31,0.39005
4164.16,0.38713
4141.02,0.38187
4117.87,0.37305
4094.73,0.36159
4071.58,0.34715
4048.44,0.33456
4025.29,0.33265
4002.15,0.33509
3979,0.33717
3955.86,0.33704
3932.71,0.33804
3909.57,0.33962
3886.42,0.33964
3863.28,0.33905
3840.13,0.33643
3816.99,0.33056
3793.84,0.32398
3770.7,0.31454
3747.55,0.30043
3724.41,0.27614
3701.26,0.23521
3678.12,0.14775
3654.97,0.13455
3631.83,0.11524
3608.68,0.10084
3585.54,0.09352
3562.39,0.08739
3539.25,0.08398
3516.1,0.08099
3492.96,0.07855
3469.81,0.07531
3446.67,0.07361
3423.52,0.07302
3400.38,0.07169
3377.23,0.07160
3354.09,0.07237
3330.94,0.07321
3307.8,0.07417
3284.65,0.07474
3261.51,0.07703
3238.36,0.07874
3215.22,0.08138
3192.07,0.08422
3168.93,0.08755
3145.78,0.09026
3122.64,0.09333
3099.49,0.09483
3076.35,0.09579
3053.2,0.09685
3030.06,0.09025
3006.91,0.10527
2983.77,0.09896
2960.62,0.07611
2937.48,0.07342
2914.33,0.07622
2891.19,0.08927
2868.04,0.08912
2844.9,0.10414
2821.75,0.12967
2798.61,0.14160
2775.46,0.14863
2752.32,0.15334
2729.17,0.15656
2706.03,0.16337
2682.88,0.17033
2659.74,0.17581
2636.59,0.18070
2613.45,0.18342
2590.3,0.18491
2567.16,0.18605
2544.02,0.18356
2520.87,0.17533
2497.73,0.18478
2474.58,0.20136
2451.44,0.20736
2428.29,0.21000
2405.15,0.21119
2382,0.21098
2358.86,0.21007
2335.71,0.20756
2312.57,0.20633
2289.42,0.20499
2266.28,0.20157
2243.13,0.19813
2219.99,0.19761
2196.84,0.19862
2173.7,0.19600
2150.55,0.19133
2127.41,0.19065
2104.26,0.19311
2081.12,0.19404
2057.97,0.19212
2034.83,0.18251
2011.68,0.17578
1988.54,0.17009
1965.39,0.16618
1942.25,0.16134
1919.1,0.16631
1895.96,0.15159
1872.81,0.14083
1849.67,0.15446
1826.52,0.15084
1803.38,0.12844
1780.23,0.12915
1757.09,0.12274
1733.94,0.06578
1710.8,0.09274
1687.65,0.08203
1664.51,0.07223
1641.36,0.06703
1618.22,0.06270
1595.07,0.05990
1571.93,0.06068
1548.78,0.06521
1525.64,0.07130
1502.49,0.06654
1479.35,0.06168
1456.2,0.05223
1433.06,0.05761
1409.91,0.06010
1386.77,0.06595
1363.62,0.06782
1340.48,0.07162
1317.33,0.07233
1294.19,0.07854
1271.04,0.07731
1247.9,0.07906
1224.75,0.08340
1201.61,0.07338
1178.46,0.07099
1155.32,0.07169
1132.17,0.08103
1109.03,0.08467
1085.88,0.09245
1062.74,0.09169
1039.59,0.10363
1016.45,0.11319
993.304,0.08928
970.159,0.07687
947.014,0.07078
923.869,0.06903
900.724,0.06420
877.579,0.06052
854.434,0.05960
831.289,0.05492
808.144,0.04919
784.999,0.04662
761.854,0.04628
738.709,0.04332
715.565,0.04465
692.42,0.05226
669.275,0.07680
646.13,0.06121
622.985,0.05695
599.84,0.05834