File: 01_Data/Fiber_Cement_Board/FTIR/IS/Deprecated/Fiber_Cement_Board_IS_S_220928_R8.dpt
7497.03,0.50934
7473.89,0.50825
7450.74,0.50152
7427.6,0.50151
7404.45,0.49235
7381.31,0.49928
7358.16,0.48974
7335.02,0.50537
7311.87,0.49735
7288.73,0.49772
7265.58,0.49614
7242.44,0.49201
7219.29,0.49491
7196.15,0.48836
7173,0.49878
7149.86,0.48541
7126.71,0.48024
7103.57,0.48639
7080.42,0.48267
7057.28,0.48517
7034.13,0.47729
7010.99,0.47894
6987.84,0.48171
6964.7,0.48006
6941.55,0.48053
6918.41,0.48550
6895.26,0.48719
6872.12,0.48639
6848.97,0.48985
6825.83,0.48976
6802.68,0.48846
6779.54,0.48958
6756.39,0.48744
6733.25,0.48963
6710.1,0.49157
6686.96,0.49000
6663.82,0.49338
6640.67,0.49126
6617.53,0.49990
6594.38,0.49551
6571.24,0.49622
6548.09,0.49882
6524.95,0.49740
6501.8,0.49623
6478.66,0.49836
6455.51,0.50360
6432.37,0.49998
6409.22,0.49933
6386.08,0.50145
6362.93,0.50435
6339.79,0.50200
6316.64,0.50172
6293.5,0.50269
6270.35,0.50204
6247.21,0.50252
6224.06,0.50146
6200.92,0.50493
6177.77,0.50513
6154.63,0.50907
6131.48,0.50787
6108.34,0.50838
6085.19,0.50608
6062.05,0.51066
6038.9,0.50723
6015.76,0.50946
5992.61,0.50645
5969.47,0.50161
5946.32,0.50449
5923.18,0.50357
5900.03,0.50185
5876.89,0.50524
5853.74,0.50747
5830.6,0.50427
5807.45,0.50326
5784.31,0.50617
5761.16,0.50670
5738.02,0.50545
5714.87,0.50848
5691.73,0.50748
5668.58,0.50543
5645.44,0.50897
5622.29,0.50747
5599.15,0.50996
5576,0.50717
5552.86,0.50838
5529.71,0.50890
5506.57,0.50786
5483.42,0.50848
5460.28,0.51066
5437.13,0.51134
5413.99,0.50784
5390.84,0.50949
5367.7,0.50856
5344.55,0.50503
5321.41,0.49941
5298.26,0.48916
5275.12,0.47120
5251.97,0.44938
5228.83,0.42787
5205.68,0.41708
5182.54,0.41561
5159.39,0.42324
5136.25,0.42994
5113.1,0.43842
5089.96,0.44374
5066.81,0.45038
5043.67,0.45531
5020.52,0.46005
4997.38,0.46497
4974.23,0.46900
4951.09,0.46996
4927.94,0.47143
4904.8,0.47120
4881.65,0.46869
4858.51,0.46843
4835.36,0.46510
4812.22,0.46393
4789.07,0.46069
4765.93,0.46035
4742.78,0.46030
4719.64,0.46130
4696.49,0.46246
4673.35,0.45861
4650.2,0.46022
4627.06,0.45825
4603.92,0.45648
4580.77,0.45659
4557.63,0.45428
4534.48,0.45131
4511.34,0.44790
4488.19,0.44541
4465.05,0.44214
4441.9,0.43534
4418.76,0.42707
4395.61,0.41861
4372.47,0.41656
4349.32,0.41065
4326.18,0.40202
4303.03,0.40885
4279.89,0.40390
4256.74,0.39734
4233.6,0.39607
4210.45,0.39227
4187.31,0.39074
4164.16,0.38742
4141.02,0.38219
4117.87,0.37317
4094.73,0.36211
4071.58,0.34732
4048.44,0.33505
4025.29,0.33352
4002.15,0.33578
3979,0.33748
3955.86,0.33808
3932.71,0.33907
3909.57,0.33954
3886.42,0.34020
3863.28,0.34035
3840.13,0.33726
3816.99,0.33209
3793.84,0.32496
3770.7,0.31513
3747.55,0.30167
3724.41,0.27626
3701.26,0.23569
3678.12,0.14739
3654.97,0.13461
3631.83,0.11545
3608.68,0.10206
3585.54,0.09412
3562.39,0.08776
3539.25,0.08383
3516.1,0.08117
3492.96,0.07838
3469.81,0.07559
3446.67,0.07437
3423.52,0.07308
3400.38,0.07201
3377.23,0.07240
3354.09,0.07210
3330.94,0.07292
3307.8,0.07369
3284.65,0.07549
3261.51,0.07696
3238.36,0.08032
3215.22,0.08120
3192.07,0.08429
3168.93,0.08685
3145.78,0.09022
3122.64,0.09320
3099.49,0.09513
3076.35,0.09604
3053.2,0.09730
3030.06,0.09042
3006.91,0.10604
2983.77,0.09905
2960.62,0.07598
2937.48,0.07325
2914.33,0.07644
2891.19,0.08970
2868.04,0.08933
2844.9,0.10393
2821.75,0.13042
2798.61,0.14176
2775.46,0.14867
2752.32,0.15368
2729.17,0.15692
2706.03,0.16329
2682.88,0.17070
2659.74,0.17632
2636.59,0.18110
2613.45,0.18304
2590.3,0.18501
2567.16,0.18665
2544.02,0.18434
2520.87,0.17615
2497.73,0.18462
2474.58,0.20209
2451.44,0.20776
2428.29,0.21034
2405.15,0.21198
2382,0.21154
2358.86,0.21060
2335.71,0.20834
2312.57,0.20698
2289.42,0.20541
2266.28,0.20209
2243.13,0.19858
2219.99,0.19802
2196.84,0.19937
2173.7,0.19649
2150.55,0.19180
2127.41,0.19112
2104.26,0.19388
2081.12,0.19473
2057.97,0.19213
2034.83,0.18308
2011.68,0.17630
1988.54,0.17003
1965.39,0.16680
1942.25,0.16173
1919.1,0.16700
1895.96,0.15151
1872.81,0.14087
1849.67,0.15449
1826.52,0.15110
1803.38,0.12833
1780.23,0.12957
1757.09,0.12246
1733.94,0.06617
1710.8,0.09296
1687.65,0.08195
1664.51,0.07220
1641.36,0.06669
1618.22,0.06261
1595.07,0.05960
1571.93,0.06058
1548.78,0.06521
1525.64,0.07138
1502.49,0.06631
1479.35,0.06156
1456.2,0.05204
1433.06,0.05768
1409.91,0.05986
1386.77,0.06643
1363.62,0.06754
1340.48,0.07193
1317.33,0.07188
1294.19,0.07849
1271.04,0.07675
1247.9,0.07924
1224.75,0.08329
1201.61,0.07373
1178.46,0.07113
1155.32,0.07168
1132.17,0.08039
1109.03,0.08367
1085.88,0.09212
1062.74,0.09156
1039.59,0.10265
1016.45,0.11334
993.304,0.08953
970.159,0.07717
947.014,0.07150
923.869,0.06905
900.724,0.06379
877.579,0.06045
854.434,0.05938
831.289,0.05520
808.144,0.04914
784.999,0.04641
761.854,0.04552
738.709,0.04243
715.565,0.04413
692.42,0.05320
669.275,0.07746
646.13,0.06170
622.985,0.05749
599.84,0.06279