File: 01_Data/Fiber_Cement_Board/FTIR/IS/Deprecated/Fiber_Cement_Board_IS_T_220928_R7.dpt
7497.03,0.02669
7473.89,0.02619
7450.74,0.02779
7427.6,0.02971
7404.45,0.03140
7381.31,0.03397
7358.16,0.03090
7335.02,0.02998
7311.87,0.02633
7288.73,0.02696
7265.58,0.02426
7242.44,0.02376
7219.29,0.02849
7196.15,0.01906
7173,0.02804
7149.86,0.02348
7126.71,0.02791
7103.57,0.02661
7080.42,0.02216
7057.28,0.02642
7034.13,0.02226
7010.99,0.02715
6987.84,0.02283
6964.7,0.02256
6941.55,0.02638
6918.41,0.02541
6895.26,0.02859
6872.12,0.02921
6848.97,0.01614
6825.83,0.02895
6802.68,0.01737
6779.54,0.02304
6756.39,0.02200
6733.25,0.01942
6710.1,0.02277
6686.96,0.02731
6663.82,0.02131
6640.67,0.02219
6617.53,0.02870
6594.38,0.02570
6571.24,0.02343
6548.09,0.02512
6524.95,0.02343
6501.8,0.02366
6478.66,0.02185
6455.51,0.02633
6432.37,0.02259
6409.22,0.02212
6386.08,0.02477
6362.93,0.01879
6339.79,0.02115
6316.64,0.02217
6293.5,0.02116
6270.35,0.02130
6247.21,0.02205
6224.06,0.02147
6200.92,0.02003
6177.77,0.02290
6154.63,0.02318
6131.48,0.02476
6108.34,0.02180
6085.19,0.02392
6062.05,0.01996
6038.9,0.02359
6015.76,0.02095
5992.61,0.02206
5969.47,0.02160
5946.32,0.02298
5923.18,0.02023
5900.03,0.02291
5876.89,0.02220
5853.74,0.01957
5830.6,0.02228
5807.45,0.02320
5784.31,0.02225
5761.16,0.02363
5738.02,0.02184
5714.87,0.02334
5691.73,0.01981
5668.58,0.02101
5645.44,0.02118
5622.29,0.02146
5599.15,0.02144
5576,0.02193
5552.86,0.02034
5529.71,0.02099
5506.57,0.01994
5483.42,0.02134
5460.28,0.02107
5437.13,0.02094
5413.99,0.02244
5390.84,0.02171
5367.7,0.02215
5344.55,0.02362
5321.41,0.02149
5298.26,0.02332
5275.12,0.02274
5251.97,0.02216
5228.83,0.02077
5205.68,0.02011
5182.54,0.02208
5159.39,0.02370
5136.25,0.02205
5113.1,0.02358
5089.96,0.02146
5066.81,0.02347
5043.67,0.02223
5020.52,0.02184
4997.38,0.02314
4974.23,0.02207
4951.09,0.02180
4927.94,0.02213
4904.8,0.02107
4881.65,0.02265
4858.51,0.02216
4835.36,0.02312
4812.22,0.02226
4789.07,0.02198
4765.93,0.02140
4742.78,0.02151
4719.64,0.02383
4696.49,0.02237
4673.35,0.02195
4650.2,0.02213
4627.06,0.02318
4603.92,0.02197
4580.77,0.02272
4557.63,0.02172
4534.48,0.02277
4511.34,0.02277
4488.19,0.02244
4465.05,0.02283
4441.9,0.02226
4418.76,0.02160
4395.61,0.02252
4372.47,0.02231
4349.32,0.02223
4326.18,0.02213
4303.03,0.02244
4279.89,0.02295
4256.74,0.02218
4233.6,0.02217
4210.45,0.02191
4187.31,0.02292
4164.16,0.02221
4141.02,0.02220
4117.87,0.02242
4094.73,0.02230
4071.58,0.02228
4048.44,0.02235
4025.29,0.02225
4002.15,0.02211
3979,0.02242
3955.86,0.02267
3932.71,0.02279
3909.57,0.02254
3886.42,0.02314
3863.28,0.02256
3840.13,0.02327
3816.99,0.02216
3793.84,0.02273
3770.7,0.02254
3747.55,0.02288
3724.41,0.02258
3701.26,0.02242
3678.12,0.02268
3654.97,0.02202
3631.83,0.02228
3608.68,0.02204
3585.54,0.02146
3562.39,0.02132
3539.25,0.02126
3516.1,0.02046
3492.96,0.02161
3469.81,0.02078
3446.67,0.02075
3423.52,0.02010
3400.38,0.01992
3377.23,0.02025
3354.09,0.01975
3330.94,0.02007
3307.8,0.02029
3284.65,0.02044
3261.51,0.02008
3238.36,0.02086
3215.22,0.02094
3192.07,0.01987
3168.93,0.02083
3145.78,0.02057
3122.64,0.02113
3099.49,0.02070
3076.35,0.02049
3053.2,0.02033
3030.06,0.02068
3006.91,0.02060
2983.77,0.01960
2960.62,0.01897
2937.48,0.01965
2914.33,0.02029
2891.19,0.02053
2868.04,0.02046
2844.9,0.02102
2821.75,0.02148
2798.61,0.02117
2775.46,0.02138
2752.32,0.02133
2729.17,0.02169
2706.03,0.02142
2682.88,0.02114
2659.74,0.02136
2636.59,0.02113
2613.45,0.02175
2590.3,0.02123
2567.16,0.02127
2544.02,0.02121
2520.87,0.02111
2497.73,0.02065
2474.58,0.02105
2451.44,0.02109
2428.29,0.02100
2405.15,0.02114
2382,0.02125
2358.86,0.02133
2335.71,0.02092
2312.57,0.02143
2289.42,0.02122
2266.28,0.02100
2243.13,0.02111
2219.99,0.02125
2196.84,0.02080
2173.7,0.02115
2150.55,0.02088
2127.41,0.02101
2104.26,0.02103
2081.12,0.02108
2057.97,0.02118
2034.83,0.02074
2011.68,0.02085
1988.54,0.02081
1965.39,0.02069
1942.25,0.02075
1919.1,0.02111
1895.96,0.02097
1872.81,0.02047
1849.67,0.02058
1826.52,0.02008
1803.38,0.02002
1780.23,0.01909
1757.09,0.01745
1733.94,0.01936
1710.8,0.02060
1687.65,0.01953
1664.51,0.01894
1641.36,0.01852
1618.22,0.01897
1595.07,0.01891
1571.93,0.01865
1548.78,0.01823
1525.64,0.01864
1502.49,0.01886
1479.35,0.01861
1456.2,0.01868
1433.06,0.01866
1409.91,0.01855
1386.77,0.01803
1363.62,0.01825
1340.48,0.01762
1317.33,0.01676
1294.19,0.01800
1271.04,0.01924
1247.9,0.02051
1224.75,0.01887
1201.61,0.01896
1178.46,0.01774
1155.32,0.01767
1132.17,0.01813
1109.03,0.01855
1085.88,0.01844
1062.74,0.01984
1039.59,0.01971
1016.45,0.01996
993.304,0.02107
970.159,0.02025
947.014,0.01966
923.869,0.01948
900.724,0.01884
877.579,0.01921
854.434,0.01880
831.289,0.01961
808.144,0.01930
784.999,0.01862
761.854,0.01843
738.709,0.01886
715.565,0.01819
692.42,0.01783
669.275,0.01764
646.13,0.01644
622.985,0.01671
599.84,0.01497