File: 01_Data/Fiber_Cement_Board/FTIR/IS/Deprecated/Fiber_Cement_Board_IS_S_220928_R6.dpt
7497.03,0.50362
7473.89,0.49991
7450.74,0.49274
7427.6,0.50916
7404.45,0.50113
7381.31,0.50342
7358.16,0.49059
7335.02,0.50663
7311.87,0.50124
7288.73,0.50649
7265.58,0.49350
7242.44,0.48937
7219.29,0.49630
7196.15,0.48851
7173,0.49381
7149.86,0.48411
7126.71,0.48710
7103.57,0.48397
7080.42,0.48512
7057.28,0.48127
7034.13,0.48830
7010.99,0.48741
6987.84,0.48159
6964.7,0.48499
6941.55,0.48516
6918.41,0.48022
6895.26,0.48369
6872.12,0.48912
6848.97,0.48064
6825.83,0.48177
6802.68,0.48181
6779.54,0.48557
6756.39,0.48803
6733.25,0.48994
6710.1,0.49438
6686.96,0.49171
6663.82,0.49491
6640.67,0.49568
6617.53,0.49277
6594.38,0.49345
6571.24,0.49926
6548.09,0.49658
6524.95,0.49392
6501.8,0.49581
6478.66,0.49751
6455.51,0.50110
6432.37,0.50111
6409.22,0.49695
6386.08,0.50087
6362.93,0.50135
6339.79,0.49791
6316.64,0.50466
6293.5,0.50498
6270.35,0.50448
6247.21,0.50520
6224.06,0.50336
6200.92,0.50600
6177.77,0.50904
6154.63,0.50578
6131.48,0.50804
6108.34,0.50662
6085.19,0.50707
6062.05,0.50926
6038.9,0.50872
6015.76,0.51022
5992.61,0.50502
5969.47,0.50165
5946.32,0.50255
5923.18,0.50229
5900.03,0.50057
5876.89,0.50491
5853.74,0.50519
5830.6,0.50796
5807.45,0.50282
5784.31,0.50544
5761.16,0.50902
5738.02,0.50779
5714.87,0.50591
5691.73,0.50574
5668.58,0.50502
5645.44,0.51032
5622.29,0.50546
5599.15,0.50887
5576,0.50926
5552.86,0.50911
5529.71,0.50934
5506.57,0.50737
5483.42,0.50958
5460.28,0.51116
5437.13,0.51164
5413.99,0.50901
5390.84,0.50983
5367.7,0.50729
5344.55,0.50389
5321.41,0.49787
5298.26,0.48885
5275.12,0.47098
5251.97,0.44879
5228.83,0.42957
5205.68,0.41472
5182.54,0.41575
5159.39,0.42078
5136.25,0.43060
5113.1,0.43808
5089.96,0.44449
5066.81,0.44884
5043.67,0.45520
5020.52,0.46066
4997.38,0.46585
4974.23,0.46896
4951.09,0.47179
4927.94,0.47172
4904.8,0.47263
4881.65,0.47011
4858.51,0.46798
4835.36,0.46641
4812.22,0.46269
4789.07,0.46077
4765.93,0.45962
4742.78,0.46072
4719.64,0.46129
4696.49,0.46163
4673.35,0.45780
4650.2,0.46103
4627.06,0.45808
4603.92,0.45674
4580.77,0.45656
4557.63,0.45589
4534.48,0.45191
4511.34,0.44874
4488.19,0.44533
4465.05,0.44263
4441.9,0.43551
4418.76,0.42614
4395.61,0.41902
4372.47,0.41665
4349.32,0.41144
4326.18,0.40241
4303.03,0.40830
4279.89,0.40407
4256.74,0.39727
4233.6,0.39609
4210.45,0.39321
4187.31,0.39009
4164.16,0.38724
4141.02,0.38170
4117.87,0.37276
4094.73,0.36211
4071.58,0.34687
4048.44,0.33457
4025.29,0.33316
4002.15,0.33570
3979,0.33720
3955.86,0.33743
3932.71,0.33845
3909.57,0.33997
3886.42,0.34029
3863.28,0.33948
3840.13,0.33755
3816.99,0.33231
3793.84,0.32499
3770.7,0.31508
3747.55,0.30109
3724.41,0.27665
3701.26,0.23507
3678.12,0.14697
3654.97,0.13412
3631.83,0.11519
3608.68,0.10122
3585.54,0.09386
3562.39,0.08750
3539.25,0.08363
3516.1,0.08101
3492.96,0.07854
3469.81,0.07646
3446.67,0.07375
3423.52,0.07368
3400.38,0.07190
3377.23,0.07204
3354.09,0.07204
3330.94,0.07372
3307.8,0.07412
3284.65,0.07523
3261.51,0.07693
3238.36,0.07947
3215.22,0.08164
3192.07,0.08439
3168.93,0.08701
3145.78,0.09010
3122.64,0.09352
3099.49,0.09495
3076.35,0.09529
3053.2,0.09776
3030.06,0.09080
3006.91,0.10524
2983.77,0.09898
2960.62,0.07632
2937.48,0.07301
2914.33,0.07668
2891.19,0.08960
2868.04,0.09015
2844.9,0.10390
2821.75,0.12999
2798.61,0.14194
2775.46,0.14865
2752.32,0.15360
2729.17,0.15651
2706.03,0.16338
2682.88,0.17040
2659.74,0.17587
2636.59,0.18094
2613.45,0.18347
2590.3,0.18497
2567.16,0.18634
2544.02,0.18463
2520.87,0.17531
2497.73,0.18458
2474.58,0.20136
2451.44,0.20772
2428.29,0.21095
2405.15,0.21138
2382,0.21120
2358.86,0.21012
2335.71,0.20732
2312.57,0.20651
2289.42,0.20503
2266.28,0.20197
2243.13,0.19806
2219.99,0.19759
2196.84,0.19851
2173.7,0.19607
2150.55,0.19179
2127.41,0.19059
2104.26,0.19341
2081.12,0.19434
2057.97,0.19213
2034.83,0.18271
2011.68,0.17603
1988.54,0.16994
1965.39,0.16657
1942.25,0.16172
1919.1,0.16652
1895.96,0.15173
1872.81,0.14066
1849.67,0.15464
1826.52,0.15067
1803.38,0.12870
1780.23,0.12908
1757.09,0.12256
1733.94,0.06596
1710.8,0.09308
1687.65,0.08164
1664.51,0.07205
1641.36,0.06709
1618.22,0.06281
1595.07,0.05974
1571.93,0.06070
1548.78,0.06574
1525.64,0.07122
1502.49,0.06674
1479.35,0.06135
1456.2,0.05200
1433.06,0.05786
1409.91,0.05989
1386.77,0.06603
1363.62,0.06766
1340.48,0.07181
1317.33,0.07239
1294.19,0.07901
1271.04,0.07685
1247.9,0.07902
1224.75,0.08391
1201.61,0.07421
1178.46,0.07125
1155.32,0.07175
1132.17,0.08118
1109.03,0.08400
1085.88,0.09235
1062.74,0.09182
1039.59,0.10252
1016.45,0.11355
993.304,0.08918
970.159,0.07761
947.014,0.07143
923.869,0.06936
900.724,0.06459
877.579,0.06029
854.434,0.05983
831.289,0.05458
808.144,0.04884
784.999,0.04715
761.854,0.04549
738.709,0.04224
715.565,0.04415
692.42,0.05261
669.275,0.07710
646.13,0.06023
622.985,0.05734
599.84,0.05942