File: 01_Data/Fiber_Cement_Board/FTIR/IS/Deprecated/Fiber_Cement_Board_IS_S_220928_R3.dpt
7497.03,0.50307
7473.89,0.50600
7450.74,0.50122
7427.6,0.49107
7404.45,0.49121
7381.31,0.50226
7358.16,0.50263
7335.02,0.50455
7311.87,0.48954
7288.73,0.49063
7265.58,0.49806
7242.44,0.49646
7219.29,0.49781
7196.15,0.48908
7173,0.49524
7149.86,0.49010
7126.71,0.48863
7103.57,0.48279
7080.42,0.48520
7057.28,0.48352
7034.13,0.48306
7010.99,0.47538
6987.84,0.48617
6964.7,0.48638
6941.55,0.48645
6918.41,0.48589
6895.26,0.48856
6872.12,0.48596
6848.97,0.48701
6825.83,0.48488
6802.68,0.48206
6779.54,0.49181
6756.39,0.48769
6733.25,0.49144
6710.1,0.48506
6686.96,0.49493
6663.82,0.49482
6640.67,0.49020
6617.53,0.49112
6594.38,0.49542
6571.24,0.49918
6548.09,0.49966
6524.95,0.49850
6501.8,0.49932
6478.66,0.50060
6455.51,0.50050
6432.37,0.49957
6409.22,0.49982
6386.08,0.49909
6362.93,0.50126
6339.79,0.50280
6316.64,0.50619
6293.5,0.50381
6270.35,0.50373
6247.21,0.50726
6224.06,0.50276
6200.92,0.50602
6177.77,0.50792
6154.63,0.50989
6131.48,0.50743
6108.34,0.50969
6085.19,0.50993
6062.05,0.50639
6038.9,0.51031
6015.76,0.50908
5992.61,0.50825
5969.47,0.50583
5946.32,0.50464
5923.18,0.50696
5900.03,0.50487
5876.89,0.50462
5853.74,0.50645
5830.6,0.50774
5807.45,0.50744
5784.31,0.50648
5761.16,0.50779
5738.02,0.50805
5714.87,0.50750
5691.73,0.50730
5668.58,0.50818
5645.44,0.50801
5622.29,0.51103
5599.15,0.50768
5576,0.50880
5552.86,0.51124
5529.71,0.50945
5506.57,0.51154
5483.42,0.51168
5460.28,0.51103
5437.13,0.51002
5413.99,0.51173
5390.84,0.51184
5367.7,0.50790
5344.55,0.50624
5321.41,0.50165
5298.26,0.48927
5275.12,0.47301
5251.97,0.44886
5228.83,0.42688
5205.68,0.41610
5182.54,0.41497
5159.39,0.42266
5136.25,0.42997
5113.1,0.43771
5089.96,0.44454
5066.81,0.45013
5043.67,0.45453
5020.52,0.45943
4997.38,0.46357
4974.23,0.46932
4951.09,0.47252
4927.94,0.47292
4904.8,0.47197
4881.65,0.47061
4858.51,0.46875
4835.36,0.46579
4812.22,0.46337
4789.07,0.46210
4765.93,0.46075
4742.78,0.46049
4719.64,0.46319
4696.49,0.46222
4673.35,0.45986
4650.2,0.46138
4627.06,0.45852
4603.92,0.45799
4580.77,0.45822
4557.63,0.45532
4534.48,0.45263
4511.34,0.44922
4488.19,0.44628
4465.05,0.44242
4441.9,0.43640
4418.76,0.42766
4395.61,0.41971
4372.47,0.41610
4349.32,0.41141
4326.18,0.40281
4303.03,0.40857
4279.89,0.40519
4256.74,0.39773
4233.6,0.39739
4210.45,0.39262
4187.31,0.39023
4164.16,0.38784
4141.02,0.38236
4117.87,0.37340
4094.73,0.36191
4071.58,0.34785
4048.44,0.33518
4025.29,0.33345
4002.15,0.33581
3979,0.33733
3955.86,0.33784
3932.71,0.33818
3909.57,0.33998
3886.42,0.33998
3863.28,0.33978
3840.13,0.33654
3816.99,0.33177
3793.84,0.32486
3770.7,0.31516
3747.55,0.30116
3724.41,0.27647
3701.26,0.23519
3678.12,0.14749
3654.97,0.13458
3631.83,0.11470
3608.68,0.10108
3585.54,0.09415
3562.39,0.08776
3539.25,0.08278
3516.1,0.08088
3492.96,0.07816
3469.81,0.07493
3446.67,0.07345
3423.52,0.07283
3400.38,0.07218
3377.23,0.07176
3354.09,0.07239
3330.94,0.07297
3307.8,0.07428
3284.65,0.07516
3261.51,0.07606
3238.36,0.07912
3215.22,0.08132
3192.07,0.08429
3168.93,0.08703
3145.78,0.09011
3122.64,0.09353
3099.49,0.09563
3076.35,0.09545
3053.2,0.09719
3030.06,0.09009
3006.91,0.10511
2983.77,0.09845
2960.62,0.07604
2937.48,0.07347
2914.33,0.07660
2891.19,0.08889
2868.04,0.08905
2844.9,0.10370
2821.75,0.12976
2798.61,0.14096
2775.46,0.14842
2752.32,0.15344
2729.17,0.15634
2706.03,0.16310
2682.88,0.16995
2659.74,0.17579
2636.59,0.18083
2613.45,0.18310
2590.3,0.18470
2567.16,0.18596
2544.02,0.18402
2520.87,0.17576
2497.73,0.18454
2474.58,0.20155
2451.44,0.20756
2428.29,0.21036
2405.15,0.21142
2382,0.21093
2358.86,0.20991
2335.71,0.20721
2312.57,0.20643
2289.42,0.20484
2266.28,0.20160
2243.13,0.19774
2219.99,0.19735
2196.84,0.19830
2173.7,0.19569
2150.55,0.19117
2127.41,0.19038
2104.26,0.19304
2081.12,0.19403
2057.97,0.19156
2034.83,0.18277
2011.68,0.17602
1988.54,0.16962
1965.39,0.16659
1942.25,0.16136
1919.1,0.16632
1895.96,0.15145
1872.81,0.14097
1849.67,0.15451
1826.52,0.15069
1803.38,0.12836
1780.23,0.12886
1757.09,0.12265
1733.94,0.06547
1710.8,0.09319
1687.65,0.08193
1664.51,0.07193
1641.36,0.06691
1618.22,0.06254
1595.07,0.05954
1571.93,0.06065
1548.78,0.06532
1525.64,0.07130
1502.49,0.06655
1479.35,0.06199
1456.2,0.05199
1433.06,0.05747
1409.91,0.06015
1386.77,0.06605
1363.62,0.06789
1340.48,0.07179
1317.33,0.07227
1294.19,0.07873
1271.04,0.07708
1247.9,0.07924
1224.75,0.08336
1201.61,0.07395
1178.46,0.07128
1155.32,0.07146
1132.17,0.08060
1109.03,0.08425
1085.88,0.09241
1062.74,0.09095
1039.59,0.10302
1016.45,0.11400
993.304,0.08849
970.159,0.07748
947.014,0.07124
923.869,0.06905
900.724,0.06414
877.579,0.06023
854.434,0.06021
831.289,0.05443
808.144,0.04860
784.999,0.04618
761.854,0.04595
738.709,0.04165
715.565,0.04309
692.42,0.05138
669.275,0.07672
646.13,0.06191
622.985,0.05784
599.84,0.06016