File: 01_Data/Fiber_Cement_Board/FTIR/IS/Deprecated/Fiber_Cement_Board_IS_S_220928_R7.dpt
7497.03,0.49766
7473.89,0.51191
7450.74,0.49562
7427.6,0.49555
7404.45,0.49478
7381.31,0.50769
7358.16,0.49812
7335.02,0.49414
7311.87,0.49526
7288.73,0.49700
7265.58,0.49806
7242.44,0.49624
7219.29,0.49148
7196.15,0.49182
7173,0.48914
7149.86,0.48563
7126.71,0.48228
7103.57,0.48199
7080.42,0.48065
7057.28,0.47830
7034.13,0.48763
7010.99,0.48134
6987.84,0.48261
6964.7,0.47988
6941.55,0.48560
6918.41,0.48435
6895.26,0.48568
6872.12,0.48776
6848.97,0.48514
6825.83,0.48431
6802.68,0.49286
6779.54,0.48654
6756.39,0.48884
6733.25,0.49093
6710.1,0.48710
6686.96,0.49044
6663.82,0.49418
6640.67,0.48898
6617.53,0.49170
6594.38,0.49249
6571.24,0.49770
6548.09,0.49647
6524.95,0.49957
6501.8,0.49711
6478.66,0.49931
6455.51,0.49824
6432.37,0.49692
6409.22,0.50127
6386.08,0.49981
6362.93,0.50202
6339.79,0.50486
6316.64,0.50115
6293.5,0.50138
6270.35,0.50322
6247.21,0.50451
6224.06,0.50569
6200.92,0.50494
6177.77,0.50406
6154.63,0.50527
6131.48,0.50708
6108.34,0.50603
6085.19,0.50802
6062.05,0.50864
6038.9,0.50701
6015.76,0.50679
5992.61,0.50378
5969.47,0.50370
5946.32,0.50405
5923.18,0.50274
5900.03,0.50216
5876.89,0.50467
5853.74,0.50591
5830.6,0.50489
5807.45,0.50430
5784.31,0.50703
5761.16,0.50667
5738.02,0.50591
5714.87,0.50491
5691.73,0.50498
5668.58,0.50657
5645.44,0.50898
5622.29,0.50767
5599.15,0.50919
5576,0.51051
5552.86,0.50906
5529.71,0.50832
5506.57,0.50752
5483.42,0.50981
5460.28,0.50972
5437.13,0.50866
5413.99,0.50962
5390.84,0.50789
5367.7,0.50764
5344.55,0.50526
5321.41,0.49830
5298.26,0.48809
5275.12,0.47256
5251.97,0.44986
5228.83,0.42721
5205.68,0.41637
5182.54,0.41536
5159.39,0.42271
5136.25,0.43097
5113.1,0.43615
5089.96,0.44379
5066.81,0.44975
5043.67,0.45446
5020.52,0.46001
4997.38,0.46466
4974.23,0.46841
4951.09,0.47154
4927.94,0.47204
4904.8,0.47172
4881.65,0.47037
4858.51,0.46782
4835.36,0.46479
4812.22,0.46199
4789.07,0.46065
4765.93,0.46016
4742.78,0.46010
4719.64,0.46068
4696.49,0.46262
4673.35,0.45833
4650.2,0.46126
4627.06,0.45781
4603.92,0.45610
4580.77,0.45754
4557.63,0.45509
4534.48,0.45221
4511.34,0.44777
4488.19,0.44516
4465.05,0.44170
4441.9,0.43528
4418.76,0.42646
4395.61,0.41896
4372.47,0.41582
4349.32,0.41123
4326.18,0.40201
4303.03,0.40832
4279.89,0.40382
4256.74,0.39674
4233.6,0.39598
4210.45,0.39189
4187.31,0.38993
4164.16,0.38742
4141.02,0.38169
4117.87,0.37276
4094.73,0.36197
4071.58,0.34676
4048.44,0.33442
4025.29,0.33376
4002.15,0.33568
3979,0.33697
3955.86,0.33766
3932.71,0.33870
3909.57,0.33942
3886.42,0.33952
3863.28,0.33893
3840.13,0.33732
3816.99,0.33188
3793.84,0.32484
3770.7,0.31475
3747.55,0.30020
3724.41,0.27644
3701.26,0.23456
3678.12,0.14738
3654.97,0.13419
3631.83,0.11501
3608.68,0.10096
3585.54,0.09396
3562.39,0.08784
3539.25,0.08381
3516.1,0.08132
3492.96,0.07824
3469.81,0.07597
3446.67,0.07395
3423.52,0.07349
3400.38,0.07210
3377.23,0.07233
3354.09,0.07241
3330.94,0.07274
3307.8,0.07414
3284.65,0.07504
3261.51,0.07642
3238.36,0.07901
3215.22,0.08151
3192.07,0.08418
3168.93,0.08667
3145.78,0.08951
3122.64,0.09367
3099.49,0.09528
3076.35,0.09587
3053.2,0.09672
3030.06,0.09038
3006.91,0.10554
2983.77,0.09860
2960.62,0.07629
2937.48,0.07302
2914.33,0.07684
2891.19,0.08928
2868.04,0.08967
2844.9,0.10342
2821.75,0.12995
2798.61,0.14145
2775.46,0.14843
2752.32,0.15348
2729.17,0.15677
2706.03,0.16378
2682.88,0.17042
2659.74,0.17576
2636.59,0.18096
2613.45,0.18345
2590.3,0.18464
2567.16,0.18616
2544.02,0.18395
2520.87,0.17556
2497.73,0.18436
2474.58,0.20194
2451.44,0.20723
2428.29,0.21087
2405.15,0.21167
2382,0.21087
2358.86,0.21047
2335.71,0.20780
2312.57,0.20674
2289.42,0.20570
2266.28,0.20198
2243.13,0.19851
2219.99,0.19774
2196.84,0.19874
2173.7,0.19622
2150.55,0.19230
2127.41,0.19086
2104.26,0.19387
2081.12,0.19454
2057.97,0.19207
2034.83,0.18273
2011.68,0.17593
1988.54,0.16996
1965.39,0.16676
1942.25,0.16174
1919.1,0.16691
1895.96,0.15192
1872.81,0.14074
1849.67,0.15446
1826.52,0.15050
1803.38,0.12819
1780.23,0.12908
1757.09,0.12263
1733.94,0.06535
1710.8,0.09325
1687.65,0.08179
1664.51,0.07187
1641.36,0.06721
1618.22,0.06215
1595.07,0.05986
1571.93,0.06030
1548.78,0.06532
1525.64,0.07144
1502.49,0.06619
1479.35,0.06155
1456.2,0.05208
1433.06,0.05761
1409.91,0.06022
1386.77,0.06593
1363.62,0.06751
1340.48,0.07185
1317.33,0.07214
1294.19,0.07865
1271.04,0.07689
1247.9,0.07924
1224.75,0.08326
1201.61,0.07414
1178.46,0.07072
1155.32,0.07186
1132.17,0.08044
1109.03,0.08443
1085.88,0.09175
1062.74,0.09137
1039.59,0.10252
1016.45,0.11341
993.304,0.08909
970.159,0.07682
947.014,0.07137
923.869,0.06908
900.724,0.06489
877.579,0.06031
854.434,0.05963
831.289,0.05492
808.144,0.04874
784.999,0.04629
761.854,0.04589
738.709,0.04288
715.565,0.04362
692.42,0.05110
669.275,0.07750
646.13,0.06175
622.985,0.05576
599.84,0.06054