File: 01_Data/Fiber_Cement_Board/FTIR/IS/Deprecated/Fiber_Cement_Board_IS_S_220928_R2.dpt
7497.03,0.50127
7473.89,0.50374
7450.74,0.49800
7427.6,0.50310
7404.45,0.49360
7381.31,0.50059
7358.16,0.49390
7335.02,0.49417
7311.87,0.49795
7288.73,0.49533
7265.58,0.49967
7242.44,0.49894
7219.29,0.49929
7196.15,0.49180
7173,0.49148
7149.86,0.48980
7126.71,0.48333
7103.57,0.48796
7080.42,0.48297
7057.28,0.48240
7034.13,0.48354
7010.99,0.47984
6987.84,0.48180
6964.7,0.47925
6941.55,0.48596
6918.41,0.48606
6895.26,0.48495
6872.12,0.48712
6848.97,0.48669
6825.83,0.48784
6802.68,0.48559
6779.54,0.48803
6756.39,0.48698
6733.25,0.49378
6710.1,0.48654
6686.96,0.48991
6663.82,0.48845
6640.67,0.49354
6617.53,0.49225
6594.38,0.49579
6571.24,0.49286
6548.09,0.49249
6524.95,0.50157
6501.8,0.49567
6478.66,0.49932
6455.51,0.49963
6432.37,0.50409
6409.22,0.49819
6386.08,0.50148
6362.93,0.49879
6339.79,0.50258
6316.64,0.50483
6293.5,0.49812
6270.35,0.50249
6247.21,0.50369
6224.06,0.50290
6200.92,0.50691
6177.77,0.50636
6154.63,0.50579
6131.48,0.50585
6108.34,0.50525
6085.19,0.50693
6062.05,0.51043
6038.9,0.50660
6015.76,0.50933
5992.61,0.50581
5969.47,0.50084
5946.32,0.50018
5923.18,0.50287
5900.03,0.50206
5876.89,0.50383
5853.74,0.50566
5830.6,0.50335
5807.45,0.50436
5784.31,0.50602
5761.16,0.50560
5738.02,0.50873
5714.87,0.50532
5691.73,0.50502
5668.58,0.50533
5645.44,0.50530
5622.29,0.50743
5599.15,0.50700
5576,0.50793
5552.86,0.50666
5529.71,0.50850
5506.57,0.50841
5483.42,0.50910
5460.28,0.50851
5437.13,0.50853
5413.99,0.50930
5390.84,0.50769
5367.7,0.50755
5344.55,0.50610
5321.41,0.49642
5298.26,0.48551
5275.12,0.46967
5251.97,0.44808
5228.83,0.42643
5205.68,0.41393
5182.54,0.41211
5159.39,0.41965
5136.25,0.42713
5113.1,0.43373
5089.96,0.44100
5066.81,0.44699
5043.67,0.45253
5020.52,0.45655
4997.38,0.46144
4974.23,0.46472
4951.09,0.46793
4927.94,0.47025
4904.8,0.47029
4881.65,0.46778
4858.51,0.46636
4835.36,0.46358
4812.22,0.46195
4789.07,0.45892
4765.93,0.45817
4742.78,0.45839
4719.64,0.45933
4696.49,0.46031
4673.35,0.45680
4650.2,0.46004
4627.06,0.45679
4603.92,0.45559
4580.77,0.45515
4557.63,0.45370
4534.48,0.45035
4511.34,0.44722
4488.19,0.44450
4465.05,0.44129
4441.9,0.43428
4418.76,0.42567
4395.61,0.41781
4372.47,0.41454
4349.32,0.40999
4326.18,0.40123
4303.03,0.40671
4279.89,0.40254
4256.74,0.39573
4233.6,0.39475
4210.45,0.39131
4187.31,0.38833
4164.16,0.38575
4141.02,0.38003
4117.87,0.37106
4094.73,0.36036
4071.58,0.34552
4048.44,0.33240
4025.29,0.33204
4002.15,0.33374
3979,0.33592
3955.86,0.33567
3932.71,0.33693
3909.57,0.33820
3886.42,0.33876
3863.28,0.33779
3840.13,0.33529
3816.99,0.33029
3793.84,0.32272
3770.7,0.31271
3747.55,0.29871
3724.41,0.27446
3701.26,0.23397
3678.12,0.14708
3654.97,0.13345
3631.83,0.11407
3608.68,0.10062
3585.54,0.09359
3562.39,0.08729
3539.25,0.08278
3516.1,0.08048
3492.96,0.07824
3469.81,0.07599
3446.67,0.07360
3423.52,0.07278
3400.38,0.07133
3377.23,0.07130
3354.09,0.07178
3330.94,0.07326
3307.8,0.07352
3284.65,0.07458
3261.51,0.07695
3238.36,0.07822
3215.22,0.08070
3192.07,0.08360
3168.93,0.08691
3145.78,0.08924
3122.64,0.09231
3099.49,0.09405
3076.35,0.09527
3053.2,0.09657
3030.06,0.08954
3006.91,0.10461
2983.77,0.09833
2960.62,0.07606
2937.48,0.07341
2914.33,0.07609
2891.19,0.08889
2868.04,0.08922
2844.9,0.10285
2821.75,0.12960
2798.61,0.14025
2775.46,0.14772
2752.32,0.15251
2729.17,0.15573
2706.03,0.16266
2682.88,0.16888
2659.74,0.17495
2636.59,0.17946
2613.45,0.18239
2590.3,0.18415
2567.16,0.18562
2544.02,0.18312
2520.87,0.17468
2497.73,0.18329
2474.58,0.20063
2451.44,0.20628
2428.29,0.20907
2405.15,0.21020
2382,0.20952
2358.86,0.20909
2335.71,0.20647
2312.57,0.20540
2289.42,0.20365
2266.28,0.20041
2243.13,0.19680
2219.99,0.19594
2196.84,0.19720
2173.7,0.19463
2150.55,0.19032
2127.41,0.18913
2104.26,0.19197
2081.12,0.19258
2057.97,0.19082
2034.83,0.18135
2011.68,0.17500
1988.54,0.16891
1965.39,0.16573
1942.25,0.16057
1919.1,0.16586
1895.96,0.15104
1872.81,0.14044
1849.67,0.15366
1826.52,0.15035
1803.38,0.12799
1780.23,0.12880
1757.09,0.12203
1733.94,0.06589
1710.8,0.09240
1687.65,0.08114
1664.51,0.07120
1641.36,0.06678
1618.22,0.06216
1595.07,0.05968
1571.93,0.06076
1548.78,0.06523
1525.64,0.07104
1502.49,0.06617
1479.35,0.06118
1456.2,0.05203
1433.06,0.05773
1409.91,0.05988
1386.77,0.06621
1363.62,0.06784
1340.48,0.07139
1317.33,0.07213
1294.19,0.07867
1271.04,0.07691
1247.9,0.07916
1224.75,0.08358
1201.61,0.07413
1178.46,0.07060
1155.32,0.07150
1132.17,0.08046
1109.03,0.08421
1085.88,0.09207
1062.74,0.09148
1039.59,0.10270
1016.45,0.11275
993.304,0.08949
970.159,0.07664
947.014,0.07144
923.869,0.06871
900.724,0.06422
877.579,0.06041
854.434,0.05970
831.289,0.05517
808.144,0.04878
784.999,0.04609
761.854,0.04491
738.709,0.04208
715.565,0.04395
692.42,0.05250
669.275,0.07691
646.13,0.06183
622.985,0.05808
599.84,0.06270