File: 01_Data/EPDM_Membrane/Cone/EPDM_Membrane_HRRPUA_25.csv
Time after Ignition,EPDM_Membrane_R1,EPDM_Membrane_R2,EPDM_Membrane_R3,EPDM_Membrane_R4,EPDM_Membrane_R5,Mean,Std. Dev.
0.0,8.0,8.5,14.8,6.0,15.0,10.5,4.2
2.25,28.8,20.6,28.3,24.9,47.2,30.0,10.2
4.5,94.6,35.3,59.8,89.7,99.9,75.8,27.5
6.75,181.5,70.2,112.0,154.9,155.8,134.9,43.9
9.0,248.0,146.5,151.8,201.5,219.0,193.3,43.7
11.25,314.6,232.5,178.4,239.9,256.9,244.5,49.0
13.5,371.1,304.3,217.6,276.9,286.4,291.3,55.2
15.75,417.7,356.6,254.5,298.6,302.4,326.0,62.8
18.0,457.7,381.0,275.5,304.8,321.7,348.1,72.4
20.25,469.6,402.7,298.5,326.3,327.0,364.8,70.2
22.5,501.5,424.5,306.3,329.7,336.8,379.8,81.5
24.75,525.4,448.5,327.6,333.9,355.3,398.1,86.1
27.0,539.1,442.4,343.2,346.0,363.1,406.8,84.3
29.25,547.7,446.8,355.8,358.7,373.6,416.5,82.1
31.5,558.8,451.2,361.3,364.9,382.0,423.6,83.8
33.75,553.6,450.8,367.7,371.4,385.7,425.8,78.9
36.0,553.0,451.2,363.9,374.2,387.1,425.9,78.8
38.25,534.9,450.6,378.4,374.3,390.9,425.8,68.3
40.5,536.5,440.3,378.9,381.1,380.7,423.5,68.3
42.75,522.9,437.0,380.9,372.0,380.2,418.6,63.8
45.0,532.1,433.0,375.2,379.9,373.2,418.7,68.1
47.25,521.5,431.4,384.2,371.0,373.4,416.3,63.6
49.5,527.9,428.5,386.8,372.5,369.8,417.1,66.3
51.75,519.0,423.0,388.4,368.6,368.1,413.4,63.1
54.0,508.8,417.5,390.3,376.1,369.5,412.4,56.9
56.25,523.1,422.1,384.9,364.2,359.2,410.7,67.5
58.5,515.5,408.7,385.4,351.1,357.4,403.6,66.7
60.75,511.7,402.6,382.7,366.3,361.7,405.0,61.8
63.0,504.7,405.0,378.3,361.0,365.9,403.0,59.4
65.25,517.4,406.5,370.6,367.4,349.9,402.4,67.5
67.5,501.4,397.8,373.0,358.3,346.2,395.3,62.3
69.75,515.3,401.8,374.0,353.0,348.5,398.5,68.6
72.0,513.8,399.6,371.1,356.9,347.1,397.7,67.8
74.25,534.5,397.8,368.4,345.0,346.0,398.3,79.1
76.5,526.1,399.1,357.7,352.9,336.7,394.5,77.1
78.75,540.9,395.4,356.9,342.9,338.3,394.9,84.7
81.0,539.8,392.8,363.8,345.6,337.6,395.9,83.2
83.25,553.2,397.3,364.4,340.2,334.9,398.0,90.2
85.5,572.2,401.3,366.8,339.7,330.6,402.1,99.0
87.75,589.0,393.9,365.3,337.3,329.0,402.9,107.1
90.0,613.5,403.1,363.0,332.7,332.1,408.9,118.0
92.25,626.7,410.9,367.3,336.8,319.7,412.3,124.8
94.5,665.4,409.8,363.4,333.8,325.4,419.6,141.3
96.75,711.1,395.0,369.2,333.9,324.1,426.7,161.5
99.0,734.4,400.0,374.8,340.3,324.8,434.9,170.0
101.25,740.8,408.2,382.3,340.3,321.5,438.6,172.4
103.5,727.9,423.1,373.4,339.1,323.7,437.4,166.8
105.75,792.7,426.9,373.0,334.9,316.1,448.7,196.9
108.0,822.2,431.4,379.4,329.9,307.1,454.0,211.3
110.25,859.1,445.4,378.1,347.7,313.9,468.8,223.5
112.5,858.8,443.8,381.5,341.4,323.9,469.9,222.2
114.75,901.3,452.7,382.9,343.9,330.2,482.2,239.1
117.0,894.0,480.6,382.4,358.1,332.1,489.4,233.0
119.25,940.8,504.4,393.2,358.1,335.6,506.4,251.3
121.5,925.6,505.4,392.8,349.5,332.9,501.2,246.6
123.75,933.2,518.6,399.6,355.0,324.0,506.1,250.0
126.0,896.9,537.8,396.8,349.5,324.1,501.0,236.2
128.25,867.9,557.0,406.3,359.1,331.5,504.4,221.1
130.5,853.6,593.1,394.2,354.6,323.1,503.7,222.1
132.75,817.4,603.1,378.6,356.0,332.3,497.5,209.1
135.0,822.3,617.7,375.6,361.5,325.2,500.5,213.9
137.25,785.4,614.1,368.7,354.3,326.3,489.8,201.6
139.5,757.1,601.3,369.4,346.4,322.9,479.4,191.2
141.75,730.6,604.9,359.9,341.0,317.7,470.8,185.8
144.0,699.5,602.2,357.4,335.4,328.1,464.5,173.9
146.25,680.8,592.6,344.7,327.6,328.0,454.7,169.2
148.5,709.2,598.2,339.0,320.1,312.2,455.7,185.2
150.75,674.9,575.4,333.1,309.2,321.3,442.8,170.4
153.0,666.9,558.9,327.3,306.0,321.7,436.1,166.0
155.25,631.9,543.7,323.3,302.2,318.6,423.9,153.0
157.5,615.7,536.4,310.7,294.2,315.5,414.5,150.3
159.75,606.1,529.2,303.7,292.2,309.4,408.1,148.3
162.0,582.1,534.0,299.6,283.7,309.9,401.9,143.9
164.25,579.1,528.8,294.1,282.4,297.3,396.3,145.1
166.5,573.7,519.2,290.0,275.5,297.7,391.2,143.2
168.75,558.7,509.6,289.7,270.8,291.3,384.0,138.4
171.0,567.2,497.3,286.8,266.7,283.7,380.3,141.1
173.25,561.8,498.8,282.5,255.7,277.9,375.3,143.6
175.5,546.3,486.0,277.1,252.0,277.0,367.7,137.6
177.75,535.2,487.2,264.7,250.9,273.5,362.3,137.2
180.0,517.7,479.1,259.9,255.9,269.2,356.4,130.5
182.25,504.3,477.3,256.0,250.8,259.3,349.5,129.3
184.5,494.1,469.9,249.9,245.9,251.1,342.2,127.9
186.75,478.8,470.5,247.1,247.9,250.3,338.9,123.9
189.0,469.1,465.6,239.7,239.1,249.9,332.7,123.0
191.25,460.7,473.4,238.1,235.0,242.5,329.9,125.3
193.5,444.9,462.1,238.0,234.7,241.1,324.2,118.2
195.75,436.6,449.4,240.1,229.1,235.2,318.1,114.2
198.0,412.2,455.2,239.0,228.8,230.4,313.1,111.2
200.25,405.0,454.0,232.1,226.6,231.3,309.8,110.7
202.5,403.6,472.6,232.0,222.6,223.5,310.9,118.8
204.75,392.8,484.1,228.0,220.1,226.9,310.4,121.3
207.0,394.2,477.1,227.7,214.6,219.5,306.6,121.5
209.25,376.2,467.9,227.0,215.9,216.2,300.6,115.6
211.5,375.2,477.3,228.5,211.8,219.6,302.5,118.8
213.75,364.8,462.6,227.4,212.0,217.3,296.8,112.3
216.0,364.5,436.2,226.8,208.8,212.8,289.8,104.3
218.25,361.7,433.1,222.9,209.4,212.4,287.9,103.2
220.5,347.2,410.1,225.5,206.8,212.7,280.4,92.6
222.75,344.7,394.3,221.2,205.8,213.5,275.9,87.4
225.0,346.2,375.8,218.7,205.3,213.1,271.8,82.2
227.25,337.6,365.3,214.4,203.2,211.4,266.4,78.4
229.5,334.4,355.6,220.3,203.8,211.8,265.2,73.5
231.75,328.1,345.7,218.8,201.3,212.0,261.2,69.7
234.0,330.1,339.6,219.6,196.5,206.5,258.4,70.3
236.25,326.0,330.0,216.7,194.0,205.1,254.3,67.7
238.5,323.5,332.5,215.7,193.5,207.5,254.6,67.6
240.75,319.1,324.1,216.0,194.8,205.5,251.9,64.1
243.0,319.3,322.6,216.6,195.6,207.8,252.4,63.1
245.25,316.7,322.0,211.6,196.4,198.2,249.0,64.5
247.5,305.5,316.3,212.9,193.6,200.5,245.8,60.0
249.75,302.9,312.1,215.4,192.3,194.6,243.4,59.2
252.0,304.0,307.5,212.8,191.3,194.6,242.0,58.7
254.25,307.1,305.5,213.9,192.9,192.1,242.3,59.1
256.5,304.0,307.2,209.3,194.2,192.8,241.5,58.9
258.75,296.6,302.3,209.0,190.4,196.6,239.0,55.6
261.0,297.9,298.5,207.5,188.7,197.2,238.0,55.4
263.25,296.8,295.4,208.4,188.0,191.4,236.0,55.4
265.5,292.7,294.5,205.2,191.4,194.8,235.7,53.1
267.75,284.4,299.3,203.7,189.3,194.4,234.2,53.1
270.0,285.9,298.0,202.0,190.0,197.5,234.7,52.7
272.25,278.0,291.8,203.6,190.2,192.6,231.2,49.4
274.5,276.3,289.2,203.2,190.2,193.3,230.4,48.2
276.75,274.0,291.5,200.5,191.4,190.8,229.6,49.0
279.0,270.0,288.2,203.9,193.5,193.0,229.7,45.7
281.25,269.3,284.6,198.9,194.6,188.4,227.2,45.9
283.5,263.6,279.5,201.4,191.1,188.7,224.9,43.3
285.75,262.2,279.2,201.3,189.7,187.3,223.9,43.4
288.0,259.8,275.1,199.3,189.1,189.4,222.5,41.6
290.25,250.0,274.0,197.9,187.8,186.5,219.3,40.2
292.5,250.3,271.7,196.0,191.2,189.4,219.7,38.5
294.75,244.1,266.2,197.2,191.0,187.1,217.1,35.8
297.0,242.5,265.3,199.5,189.4,184.6,216.3,35.7
299.25,238.1,263.6,195.4,187.5,186.8,214.3,34.7
301.5,238.3,261.3,199.6,188.4,185.4,214.6,33.6
303.75,234.8,260.1,198.3,188.4,184.3,213.2,33.0
306.0,227.1,260.4,199.3,190.2,184.9,212.4,31.4
308.25,228.7,255.7,201.7,190.7,180.7,211.5,30.5
310.5,222.0,256.2,200.2,187.7,185.9,210.4,29.4
312.75,218.7,251.7,203.1,188.2,184.9,209.3,27.2
315.0,210.8,253.5,199.8,190.4,183.6,207.6,27.6
317.25,209.5,250.4,199.8,189.7,181.5,206.2,26.9
319.5,202.4,248.0,200.1,189.1,184.1,204.7,25.3
321.75,197.5,250.8,200.1,190.8,186.2,205.1,26.1
324.0,194.5,247.4,203.8,190.4,186.3,204.5,24.8
326.25,192.7,246.7,203.3,186.7,185.8,203.0,25.4
328.5,186.9,243.1,203.1,189.9,183.7,201.3,24.5
330.75,185.1,241.9,203.5,192.8,181.4,200.9,24.4
333.0,181.6,243.4,201.8,185.8,180.6,198.6,26.5
335.25,177.1,245.6,199.0,188.6,181.7,198.4,27.6
337.5,173.0,239.0,199.3,189.9,184.0,197.0,25.3
339.75,169.2,239.4,198.7,189.5,182.1,195.8,26.6
342.0,164.3,237.4,195.4,185.8,181.0,192.8,27.4
344.25,161.6,237.7,196.5,190.2,181.9,193.6,27.9
346.5,158.5,236.2,192.8,184.0,182.4,190.8,28.4
348.75,157.0,236.5,194.0,186.8,179.7,190.8,29.1
351.0,153.0,233.3,194.3,188.6,180.3,189.9,29.0
353.25,148.3,238.3,194.2,185.7,181.0,189.5,32.4
355.5,144.8,234.2,193.8,187.4,178.9,187.8,32.1
357.75,142.0,233.3,193.2,187.0,177.7,186.6,32.8
360.0,140.0,236.8,193.9,187.3,181.6,187.9,34.5
362.25,136.6,229.2,191.6,183.9,181.2,184.5,33.0
364.5,133.8,233.0,189.6,184.4,181.1,184.4,35.2
366.75,129.5,228.9,188.7,183.0,179.6,182.0,35.4
369.0,127.0,229.0,188.0,184.5,176.0,180.9,36.4
371.25,123.4,227.3,187.0,183.5,180.3,180.3,37.1
373.5,120.1,223.6,183.0,185.3,179.7,178.3,37.1
375.75,117.3,225.4,181.2,183.5,177.8,177.0,38.6
378.0,117.2,223.7,182.7,184.9,178.1,177.3,38.2
380.25,115.5,226.2,184.1,182.3,179.3,177.5,39.6
382.5,111.6,222.9,182.1,183.4,178.7,175.7,40.1
384.75,106.7,219.0,182.0,179.7,176.8,172.8,40.8
387.0,103.7,221.1,180.5,179.4,174.9,171.9,42.5
389.25,100.3,220.8,178.9,174.9,174.2,169.8,43.5
391.5,98.8,217.8,179.5,176.5,173.8,169.3,43.3
393.75,97.5,221.0,178.6,177.6,172.5,169.4,44.7
396.0,95.3,216.0,178.3,174.5,167.6,166.3,43.9
398.25,93.8,217.3,178.2,175.4,169.0,166.7,45.0
400.5,92.9,216.3,178.5,174.9,168.5,166.2,45.1
402.75,93.8,214.2,172.6,173.3,168.1,164.4,43.7
405.0,91.1,217.9,173.6,172.6,168.9,164.8,45.8
407.25,88.9,213.0,175.2,175.9,167.7,164.1,45.6
409.5,86.3,214.3,169.3,176.3,166.0,162.4,46.7
411.75,85.4,214.6,169.1,173.6,167.2,162.0,47.0
414.0,86.1,213.6,170.2,172.8,168.4,162.2,46.5
416.25,82.4,213.4,165.9,170.9,167.4,160.0,47.7
418.5,82.2,214.3,167.6,169.2,165.6,159.8,47.9
420.75,79.7,213.3,166.5,168.2,166.9,158.9,48.6
423.0,76.8,210.3,167.8,162.6,164.2,156.3,48.6
425.25,75.8,208.2,164.5,164.8,165.5,155.7,48.4
427.5,75.2,209.4,163.1,164.9,163.7,155.3,48.9
429.75,73.5,209.2,164.5,165.8,164.6,155.5,49.7
432.0,71.5,210.5,163.5,164.3,163.1,154.6,50.7
434.25,70.1,207.9,163.9,164.7,164.3,154.2,50.6
436.5,69.6,210.0,160.9,163.9,163.1,153.5,51.2
438.75,68.2,209.7,163.3,161.0,161.4,152.7,51.6
441.0,67.4,212.4,159.3,163.2,160.7,152.6,52.6
443.0,63.3,209.3,160.3,159.5,156.1,149.7,53.1