File: 01_Data/ABS/STA/N2/10K_min/ABS_STA_N2_10KData_211018_R3.csv
##Temp./Â°C,Time/min,Mass loss(subtr.2)/mg,DSC(subtr.2)/(mW/mg),Sensit./(uV/mW)
50.197,10.01,0.01052,0.01315926,1.03582
52.797,12.36817,0.007910371,0.07781356,1.03568
55.397,13.06798,0.008670052,0.11028,1.03551
57.997,13.6241,0.01054608,0.13163,1.03532
60.597,14.11065,0.008932158,0.14712,1.03509
63.197,14.5533,0.009974676,0.16245,1.03483
65.797,14.9636,0.00776785,0.17933,1.03455
68.397,15.3499,0.01150581,0.18926,1.03423
70.997,15.7147,0.009416165,0.20295,1.03389
73.597,16.06448,0.01040063,0.21533,1.03352
76.197,16.4008,0.01480986,0.2261,1.03312
78.797,16.7258,0.01136131,0.2339,1.03269
81.397,17.0405,0.005659865,0.24008,1.03224
83.997,17.34846,0.01416789,0.24331,1.03176
86.597,17.64763,0.01345728,0.24347,1.03125
89.197,17.9404,0.01042475,0.24717,1.03071
91.797,18.22748,0.01288385,0.25146,1.03015
94.397,18.50936,0.01194962,0.25797,1.02956
96.997,18.78601,0.01250349,0.26817,1.02894
99.597,19.05973,0.01274851,0.27707,1.0283
102.197,19.32987,0.00865328,0.2854,1.02763
104.797,19.5965,0.01193995,0.29649,1.02693
107.397,19.86214,0.01584945,0.30949,1.02621
109.997,20.12519,0.01176557,0.32494,1.02546
112.597,20.38502,0.01005715,0.3402,1.02469
115.197,20.64515,0.01381901,0.34744,1.02389
117.797,20.90254,0.01084715,0.35595,1.02307
120.397,21.15789,0.01088188,0.35851,1.02222
122.997,21.4119,0.01681678,0.36681,1.02135
125.597,21.66349,0.01016619,0.37147,1.02045
128.197,21.91384,0.01239861,0.37841,1.01953
130.797,22.16231,0.01039777,0.38495,1.01859
133.397,22.40908,0.01291416,0.386,1.01762
135.997,22.6545,0.01076662,0.37941,1.01663
138.597,22.89844,0.01381262,0.3809,1.01561
141.197,23.14091,0.01118994,0.38005,1.01457
143.797,23.38266,0.01250317,0.38298,1.01351
146.397,23.6227,0.01250016,0.38664,1.01242
148.997,23.863,0.01251302,0.393,1.01132
151.597,24.1016,0.01165913,0.39443,1.01019
154.197,24.34026,0.009429625,0.39626,1.00904
156.797,24.57786,0.00976011,0.39882,1.00786
159.397,24.81598,0.01041671,0.40177,1.00667
161.997,25.0536,0.01108085,0.40477,1.00545
164.597,25.28967,0.009100162,0.40622,1.00421
167.197,25.52681,0.008052754,0.40715,1.00295
169.797,25.76359,0.00779454,0.41188,1.00167
172.397,25.9996,0.01413921,0.41312,1.00037
174.997,26.2359,0.01236911,0.41394,0.99905
177.597,26.4717,0.007605827,0.41533,0.99771
180.197,26.70555,0.005699999,0.41808,0.99634
182.797,26.94097,0.00628026,0.42192,0.99496
185.397,27.1751,0.00962873,0.42342,0.99356
187.997,27.40875,0.008116036,0.42391,0.99214
190.597,27.6421,0.01052443,0.42472,0.9907
193.197,27.87517,0.006492241,0.42771,0.98925
195.797,28.10828,0.001353988,0.42749,0.98777
198.397,28.3409,0.008230012,0.43196,0.98628
200.997,28.57385,0.004933489,0.43369,0.98476
203.597,28.8061,0.004229245,0.4372,0.98323
206.197,29.03908,0.006589554,0.43429,0.98168
208.797,29.27133,0.00592,0.43743,0.98012
211.397,29.50484,0.005750394,0.44109,0.97853
213.997,29.7378,0.00317785,0.44288,0.97693
216.597,29.9707,0.001050981,0.44467,0.97532
219.197,30.2035,-0.001891998,0.44708,0.97368
221.797,30.43627,0.0044119,0.44734,0.97204
224.397,30.6696,0.006213045,0.44871,0.97037
226.997,30.90275,-0.001365706,0.45206,0.96869
229.597,31.1357,-0.004271604,0.45402,0.96699
232.197,31.36911,2.560554e-05,0.45558,0.96528
234.797,31.60231,0.0009010525,0.45825,0.96355
237.397,31.83551,-0.00110001,0.45878,0.96181
239.997,32.06907,-0.00373982,0.45851,0.96005
242.597,32.30226,-0.007762523,0.45838,0.95828
245.197,32.5358,-0.002969102,0.46085,0.9565
247.797,32.7695,-0.00653521,0.45969,0.9547
250.397,33.00334,-0.007719295,0.45959,0.95288
252.997,33.23746,-0.008566083,0.46054,0.95106
255.597,33.472,-0.01038623,0.46067,0.94922
258.197,33.70646,-0.01491821,0.46296,0.94736
260.797,33.9405,-0.01055846,0.46127,0.9455
263.397,34.17523,-0.01043921,0.46243,0.94362
265.997,34.4095,-0.01857133,0.46122,0.94173
268.597,34.6435,-0.01798976,0.46267,0.93983
271.197,34.87895,-0.01722661,0.46084,0.93791
273.797,35.11391,-0.02472764,0.45986,0.93599
276.397,35.34903,-0.02795516,0.45847,0.93405
278.997,35.5846,-0.03129643,0.45382,0.9321
281.597,35.82038,-0.0333704,0.45028,0.93014
284.197,36.05618,-0.02931847,0.44539,0.92817
286.797,36.29201,-0.03315043,0.44401,0.92619
289.397,36.52817,-0.03591695,0.43804,0.9242
291.997,36.76481,-0.03637074,0.43307,0.9222
294.597,37.00137,-0.0377702,0.42512,0.92019
297.197,37.23815,-0.04167218,0.41793,0.91817
299.797,37.47525,-0.04431,0.40906,0.91614
302.397,37.7126,-0.04431964,0.40157,0.9141
304.997,37.9499,-0.04814996,0.39542,0.91205
307.597,38.18783,-0.04815039,0.38369,0.91
310.197,38.42505,-0.05068059,0.37294,0.90793
312.797,38.66361,-0.05229677,0.36425,0.90586
315.397,38.9019,-0.05580803,0.35373,0.90378
317.997,39.14073,-0.05462988,0.34643,0.90169
320.597,39.37924,-0.05765424,0.3373,0.8996
323.197,39.61808,-0.06131688,0.32581,0.8975
325.797,39.85641,-0.06096485,0.3179,0.89539
328.397,40.09507,-0.06509582,0.30785,0.89327
330.997,40.33385,-0.06515714,0.29733,0.89115
333.597,40.5732,-0.07042049,0.28354,0.88902
336.197,40.81329,-0.07172316,0.27304,0.88688
338.797,41.0535,-0.07568935,0.25651,0.88474
341.397,41.29327,-0.07831789,0.24641,0.88259
343.997,41.53414,-0.07810042,0.23325,0.88044
346.597,41.77369,-0.08675885,0.22268,0.87828
349.197,42.0155,-0.08907591,0.21028,0.87612
351.797,42.25687,-0.08934931,0.19261,0.87395
354.397,42.49832,-0.09904442,0.1888,0.87178
356.997,42.74035,-0.11712,0.187,0.8696
359.597,42.98285,-0.10845,0.17675,0.86742
362.197,43.22534,-0.11322,0.17175,0.86523
364.797,43.46799,-0.12302,0.17662,0.86304
367.397,43.71053,-0.14503,0.18511,0.86085
369.997,43.95347,-0.15516,0.20234,0.85865
372.597,44.1959,-0.15749,0.21879,0.85645
375.197,44.44,-0.16398,0.24444,0.85425
377.797,44.68416,-0.18727,0.28198,0.85204
380.397,44.92828,-0.20127,0.32852,0.84983
382.997,45.17306,-0.22002,0.38642,0.84762
385.597,45.41747,-0.24039,0.45396,0.84541
388.197,45.66343,-0.27154,0.53371,0.8432
390.797,45.90854,-0.29997,0.62229,0.84098
393.397,46.1539,-0.33256,0.72828,0.83876
395.997,46.40063,-0.37137,0.84569,0.83654
398.597,46.64696,-0.42045,0.97812,0.83432
401.197,46.8936,-0.47083,1.12244,0.8321
403.797,47.14056,-0.53165,1.28441,0.82987
406.397,47.38777,-0.60208,1.4625,0.82765
408.997,47.63556,-0.68316,1.66219,0.82543
411.597,47.88369,-0.77561,1.87692,0.8232
414.197,48.13283,-0.88854,2.10364,0.82098
416.797,48.38162,-1.01347,2.33718,0.81875
419.397,48.63043,-1.15576,2.56471,0.81653
421.997,48.88093,-1.3151,2.76758,0.8143
424.597,49.12973,-1.48865,2.91973,0.81208
427.197,49.3795,-1.67407,3.01974,0.80986
429.797,49.6282,-1.86469,3.04185,0.80764
432.397,49.87707,-2.06062,2.98271,0.80542
434.997,50.12549,-2.24687,2.83873,0.8032
437.597,50.37366,-2.43215,2.62922,0.80098
440.197,50.62226,-2.60766,2.37878,0.79876
442.797,50.86974,-2.75387,2.10988,0.79655
445.397,51.11742,-2.89588,1.86071,0.79434
447.997,51.36489,-3.02008,1.63071,0.79213
450.597,51.61245,-3.14007,1.43276,0.78992
453.197,51.85967,-3.24526,1.20056,0.78771
455.797,52.10784,-3.33241,0.99973,0.78551
458.397,52.3569,-3.4182,0.83064,0.78331
460.997,52.60572,-3.47817,0.68975,0.78111
463.597,52.85471,-3.54634,0.5699,0.77892
466.197,53.1042,-3.58847,0.4764,0.77673
468.797,53.3544,-3.63997,0.40608,0.77454
471.397,53.60471,-3.67503,0.3546,0.77235
473.997,53.85566,-3.70307,0.31481,0.77017
476.597,54.107,-3.73522,0.27855,0.768
479.197,54.3583,-3.76128,0.24448,0.76582
481.797,54.6097,-3.7802,0.21521,0.76366
484.397,54.8609,-3.80359,0.1876,0.76149
486.997,55.11325,-3.81383,0.15688,0.75933
489.597,55.3655,-3.81994,0.12896,0.75718
492.197,55.6169,-3.83229,0.10113,0.75502
494.797,55.8703,-3.83572,0.08045872,0.75288
497.397,56.12216,-3.839,0.06491012,0.75074
499.997,56.3747,-3.83772,0.05649753,0.7486
502.597,56.6273,-3.84448,0.05191474,0.74647
505.197,56.88032,-3.84611,0.04626394,0.74434
507.797,57.13383,-3.84516,0.04199647,0.74222
510.397,57.38669,-3.8456,0.04246602,0.74011
512.997,57.64055,-3.84483,0.04887488,0.738
515.597,57.8949,-3.84733,0.05132492,0.73589
518.197,58.1503,-3.84867,0.05419255,0.7338
520.797,58.40521,-3.84866,0.06272087,0.7317
523.397,58.66007,-3.85141,0.06434773,0.72962
525.997,58.9152,-3.84581,0.05747109,0.72754
528.597,59.17,-3.84845,0.05533567,0.72546
531.197,59.4253,-3.85011,0.0590619,0.7234
533.797,59.6813,-3.85031,0.05183053,0.72134
536.397,59.9366,-3.84692,0.04870358,0.71928
538.997,60.19235,-3.84944,0.04708516,0.71724
541.597,60.44785,-3.84681,0.04149141,0.7152
544.197,60.703,-3.84965,0.03461715,0.71316
546.797,60.9589,-3.84759,0.03032235,0.71114
549.397,61.2151,-3.85054,0.02918218,0.70912
551.997,61.47204,-3.84947,0.03231707,0.70711
554.597,61.7284,-3.85055,0.03863655,0.7051
557.197,61.98591,-3.84967,0.03953538,0.7031
559.797,62.243,-3.85097,0.0401561,0.70111
562.397,62.4995,-3.84965,0.04622914,0.69913
564.997,62.75669,-3.85108,0.04540232,0.69716
567.597,63.0139,-3.84933,0.04776445,0.69519
570.197,63.27166,-3.85173,0.0552941,0.69323
572.797,63.52984,-3.8525,0.06105363,0.69128
575.397,63.7882,-3.85093,0.06614627,0.68933
577.997,64.04649,-3.85097,0.07563691,0.6874
580.597,64.30507,-3.85382,0.07958989,0.68547
583.197,64.56362,-3.84935,0.08489846,0.68355
585.797,64.82215,-3.85213,0.08456409,0.68164
588.397,65.08111,-3.85076,0.08787714,0.67974
590.997,65.3393,-3.85339,0.09200287,0.67784
593.597,65.59804,-3.85385,0.08775786,0.67596
596.197,65.85552,-3.84573,0.08859918,0.67408
598.797,66.11317,-3.85112,0.09256516,0.67221
601.397,66.37263,-3.85192,0.09504245,0.67035
603.997,66.63166,-3.85167,0.09587998,0.6685
606.597,66.89086,-3.85153,0.09880277,0.66666
609.197,67.14964,-3.85257,0.10338,0.66482
611.797,67.40924,-3.85105,0.10353,0.663
614.397,67.6688,-3.85097,0.11262,0.66118
616.997,67.92849,-3.85248,0.11554,0.65937
619.597,68.18854,-3.85131,0.11733,0.65757
622.197,68.4482,-3.84999,0.1224,0.65578
624.797,68.70815,-3.84999,0.13161,0.654
627.397,68.96738,-3.85057,0.13476,0.65223
629.997,69.2278,-3.85477,0.13728,0.65047
632.597,69.48874,-3.84814,0.13914,0.64871
635.197,69.7501,-3.85404,0.14805,0.64697
637.597,69.99022,-3.85218,0.15109,0.64536