File: 01_Data/ABS/STA/N2/10K_min/ABS_STA_N2_10KData_211013_R1.csv
##Temp./Â°C,Time/min,Mass loss(subtr.2)/mg,DSC(subtr.2)/(mW/mg),Sensit./(uV/mW)
49.912,10.01,-0.00065,0.01054803,1.03584
52.912,12.50549,0.000964519,0.07663155,1.03568
55.912,13.2549,-8.4324e-05,0.11003,1.03548
58.912,13.8635,-0.0003438095,0.12836,1.03524
61.912,14.39916,0.001171699,0.14828,1.03496
64.912,14.88235,-0.000368457,0.16474,1.03465
67.912,15.3306,-0.000296135,0.18004,1.03429
70.912,15.7518,-0.0006777878,0.19277,1.0339
73.912,16.1519,-0.001080578,0.20658,1.03347
76.912,16.53507,-0.0002639166,0.21955,1.033
79.912,16.90365,-0.00191528,0.2322,1.0325
82.912,17.26241,-0.001950991,0.23258,1.03196
85.912,17.6099,-0.00120996,0.23471,1.03138
88.912,17.94881,-0.001224842,0.24089,1.03077
91.912,18.27974,-0.001201263,0.24669,1.03012
94.912,18.60247,-0.001755083,0.25698,1.02944
97.912,18.91955,-0.003275265,0.26535,1.02872
100.912,19.23208,-0.000816297,0.27622,1.02796
103.912,19.54018,-0.00207938,0.28722,1.02717
106.912,19.84575,-0.0008806243,0.30242,1.02635
109.912,20.1491,-0.000865455,0.32231,1.02549
112.912,20.44993,-0.002190063,0.33462,1.0246
115.912,20.74706,-0.00218412,0.33939,1.02367
118.912,21.0426,-0.002231753,0.33798,1.02271
121.912,21.3358,-0.0024632,0.34427,1.02172
124.912,21.62642,-0.002382314,0.3515,1.02069
127.912,21.91445,-0.00242515,0.358,1.01964
130.912,22.20109,-0.002410272,0.36485,1.01855
133.912,22.48479,-0.0009503978,0.36626,1.01742
136.912,22.7669,-0.002310017,0.36102,1.01627
139.912,23.04711,-0.001670662,0.36383,1.01509
142.912,23.32623,-0.003405611,0.36787,1.01387
145.912,23.6031,-0.003490728,0.37011,1.01263
148.912,23.8788,-0.004154042,0.37325,1.01135
151.912,24.1543,-0.00328992,0.37736,1.01005
154.912,24.42793,-0.004610015,0.3821,1.00871
157.912,24.70156,-0.003279152,0.3877,1.00735
160.912,24.97492,-0.00538003,0.38961,1.00596
163.912,25.2479,-0.0051773,0.39483,1.00454
166.912,25.52061,-0.0034,0.39838,1.00309
169.912,25.79285,-0.004695192,0.39922,1.00161
172.912,26.06416,-0.00610977,0.40244,1.00011
175.912,26.33615,-0.006039975,0.4044,0.99858
178.912,26.6068,-0.00606671,0.40844,0.99702
181.912,26.8769,-0.007680061,0.41037,0.99544
184.912,27.14681,-0.007666384,0.41316,0.99383
187.912,27.41593,-0.00907763,0.41582,0.99219
190.912,27.68393,-0.008997091,0.42128,0.99053
193.912,27.95239,-0.008463156,0.42424,0.98884
196.912,28.22,-0.01163005,0.42499,0.98713
199.912,28.4883,-0.01113916,0.42789,0.9854
202.912,28.7559,-0.01163,0.42902,0.98364
205.912,29.0237,-0.01295,0.43273,0.98185
208.912,29.2911,-0.0135973,0.43697,0.98005
211.912,29.55885,-0.0136961,0.44091,0.97822
214.912,29.8265,-0.01304966,0.44254,0.97637
217.912,30.0946,-0.01513476,0.44291,0.97449
220.912,30.36215,-0.01578845,0.44763,0.9726
223.912,30.6304,-0.01733,0.451,0.97068
226.912,30.89872,-0.01733009,0.45252,0.96874
229.912,31.1674,-0.01963174,0.45423,0.96678
232.912,31.43572,-0.02073706,0.45399,0.96481
235.912,31.70324,-0.02097821,0.45675,0.96281
238.912,31.97157,-0.02237977,0.4602,0.96079
241.912,32.24003,-0.02238,0.46056,0.95875
244.912,32.50923,-0.02599997,0.46468,0.95669
247.912,32.77799,-0.02633079,0.46457,0.95462
250.912,33.04613,-0.02796835,0.46747,0.95252
253.912,33.3157,-0.03229181,0.46869,0.95041
256.912,33.58498,-0.03224951,0.46654,0.94828
259.912,33.8544,-0.03553989,0.46959,0.94613
262.912,34.124,-0.03619997,0.47081,0.94397
265.912,34.3938,-0.03896867,0.47259,0.94179
268.912,34.66348,-0.04277332,0.46992,0.9396
271.912,34.93407,-0.04311451,0.47013,0.93738
274.912,35.2042,-0.04507589,0.46722,0.93516
277.912,35.47455,-0.04836984,0.46117,0.93292
280.912,35.74535,-0.04926248,0.46146,0.93066
283.912,36.0165,-0.05201704,0.4544,0.92839
286.912,36.2881,-0.05423455,0.44784,0.9261
289.912,36.5599,-0.05627009,0.4423,0.92381
292.912,36.83188,-0.05908608,0.43385,0.92149
295.912,37.10347,-0.06100912,0.42687,0.91917
298.912,37.37642,-0.06296,0.41525,0.91683
301.912,37.64891,-0.06426996,0.40601,0.91448
304.912,37.92157,-0.06658414,0.39369,0.91212
307.912,38.19397,-0.06920997,0.38382,0.90975
310.912,38.46739,-0.07315907,0.37319,0.90737
313.912,38.74133,-0.07273661,0.36282,0.90497
316.912,39.01498,-0.07413606,0.35297,0.90257
319.912,39.2888,-0.07980314,0.34407,0.90015
322.912,39.56239,-0.08223178,0.33396,0.89773
325.912,39.83815,-0.08281974,0.32,0.89529
328.912,40.1133,-0.08424,0.30816,0.89285
331.912,40.38858,-0.08818996,0.29625,0.8904
334.912,40.66427,-0.08787342,0.28539,0.88794
337.912,40.9402,-0.09182781,0.26674,0.88547
340.912,41.21606,-0.094771,0.25305,0.88299
343.912,41.49262,-0.09483444,0.23566,0.88051
346.912,41.76964,-0.10364,0.22083,0.87802
349.912,42.0462,-0.10891,0.207,0.87552
352.912,42.32347,-0.11388,0.19408,0.87302
355.912,42.6012,-0.12043,0.18436,0.87051
358.912,42.87962,-0.12734,0.17445,0.86799
361.912,43.15821,-0.13577,0.17684,0.86547
364.912,43.43708,-0.14475,0.17828,0.86294
367.912,43.7166,-0.15619,0.18744,0.86041
370.912,43.9958,-0.16681,0.20369,0.85788
373.912,44.276,-0.18044,0.22708,0.85534
376.912,44.55624,-0.20025,0.26365,0.85279
379.912,44.83658,-0.21899,0.31424,0.85025
382.912,45.1172,-0.24178,0.37859,0.8477
385.912,45.3984,-0.26914,0.45551,0.84514
388.912,45.68027,-0.29872,0.55008,0.84259
391.912,45.9627,-0.33432,0.66043,0.84003
394.912,46.24586,-0.378,0.78596,0.83747
397.912,46.52935,-0.4271,0.93282,0.8349
400.912,46.813,-0.48701,1.09394,0.83234
403.912,47.09652,-0.5586,1.28281,0.82978
406.912,47.38084,-0.64203,1.49106,0.82721
409.912,47.66559,-0.7396,1.7227,0.82464
412.912,47.95085,-0.85785,1.98033,0.82208
415.912,48.23644,-0.9984,2.2452,0.81951
418.912,48.52217,-1.15855,2.50951,0.81694
421.912,48.8076,-1.34175,2.74773,0.81438
424.912,49.09342,-1.54354,2.92784,0.81181
427.912,49.37984,-1.76156,3.02759,0.80925
430.912,49.6659,-1.9869,3.0157,0.80668
433.912,49.95185,-2.21099,2.9008,0.80412
436.912,50.2369,-2.42718,2.68493,0.80156
439.912,50.5215,-2.62619,2.40226,0.79901
442.912,50.8063,-2.80732,2.09395,0.79645
445.912,51.09117,-2.96578,1.80364,0.7939
448.912,51.37562,-3.11172,1.56257,0.79135
451.912,51.6603,-3.24277,1.29933,0.7888
454.912,51.94558,-3.35441,1.05581,0.78626
457.912,52.2315,-3.44879,0.86997,0.78372
460.912,52.51726,-3.52982,0.69643,0.78118
463.912,52.8031,-3.59609,0.5572,0.77865
466.912,53.08928,-3.65226,0.45872,0.77612
469.912,53.37746,-3.69804,0.38329,0.7736
472.912,53.66581,-3.73975,0.33153,0.77108
475.912,53.9542,-3.77246,0.2896,0.76857
478.912,54.2436,-3.80466,0.25363,0.76606
481.912,54.5333,-3.82951,0.21256,0.76356
484.912,54.8229,-3.84645,0.1817,0.76106
487.912,55.11374,-3.86104,0.14431,0.75857
490.912,55.4045,-3.87047,0.11181,0.75609
493.912,55.695,-3.87676,0.08470364,0.75361
496.912,55.98554,-3.8807,0.07282051,0.75114
499.912,56.2766,-3.88267,0.06032387,0.74867
502.912,56.5673,-3.8839,0.05412256,0.74621
505.912,56.85858,-3.88507,0.05247586,0.74376
508.912,57.1495,-3.88662,0.04807838,0.74131
511.912,57.44155,-3.88618,0.04728391,0.73888
514.912,57.7326,-3.8889,0.04432566,0.73645
517.912,58.0236,-3.88781,0.04270644,0.73403
520.912,58.3155,-3.88981,0.04871981,0.73161
523.912,58.6083,-3.88979,0.04838227,0.72921
526.912,58.9005,-3.88969,0.04562997,0.72681
529.912,59.19335,-3.88081,0.04310162,0.72442
532.912,59.48672,-3.89061,0.04196329,0.72204
535.912,59.7805,-3.8915,0.04112308,0.71967
538.912,60.07459,-3.89131,0.03889893,0.7173
541.912,60.36772,-3.88927,0.03586485,0.71495
544.912,60.6626,-3.89002,0.03758093,0.7126
547.912,60.95769,-3.89068,0.04205019,0.71027
550.912,61.25232,-3.89266,0.04423703,0.70794
553.912,61.5476,-3.89078,0.04849388,0.70563
556.912,61.84275,-3.89188,0.04678349,0.70332
559.912,62.13775,-3.88947,0.04913617,0.70103
562.912,62.43379,-3.89144,0.05658439,0.69874
565.912,62.72974,-3.89177,0.06383756,0.69646
568.912,63.0259,-3.88923,0.07398231,0.6942
571.912,63.3221,-3.89145,0.0813781,0.69194
574.912,63.6183,-3.89275,0.09332581,0.6897
577.912,63.91529,-3.89242,0.10441,0.68746
580.912,64.21152,-3.8911,0.11696,0.68524
583.912,64.50851,-3.89111,0.12327,0.68303
586.912,64.80547,-3.89079,0.13419,0.68082
589.912,65.1028,-3.89377,0.14164,0.67863
592.912,65.40004,-3.89309,0.15205,0.67645
595.912,65.69728,-3.8932,0.16363,0.67429
598.912,65.9948,-3.89183,0.17679,0.67213
601.912,66.2932,-3.8933,0.1896,0.66998
604.912,66.5921,-3.89265,0.19522,0.66785
607.912,66.8912,-3.89462,0.20365,0.66573
610.912,67.18871,-3.89188,0.20943,0.66362
613.912,67.48836,-3.89332,0.22422,0.66152
616.912,67.78692,-3.89056,0.23376,0.65943
619.912,68.08584,-3.89441,0.23467,0.65735
622.912,68.38508,-3.89309,0.25067,0.65529
625.912,68.68463,-3.89189,0.25793,0.65324
628.912,68.98406,-3.89123,0.2586,0.6512
631.912,69.28454,-3.8909,0.27059,0.64917
634.912,69.58507,-3.89122,0.27698,0.64716
637.912,69.8859,-3.89264,0.28278,0.64515
640.912,70.18571,-3.89109,0.28136,0.64316
643.912,70.48501,-3.8907,0.28874,0.64119
646.912,70.7854,-3.89188,0.29609,0.63922
649.912,71.0892,-3.89056,0.30391,0.63727
652.912,71.3921,-3.89121,0.31539,0.63532
655.912,71.69428,-3.89022,0.31923,0.6334
658.912,71.99634,-3.89114,0.31415,0.63148
661.912,72.29756,-3.88971,0.31793,0.62958
664.912,72.59873,-3.89224,0.32337,0.62768
667.912,72.90044,-3.8909,0.32812,0.62581
670.912,73.2028,-3.89089,0.32897,0.62394
673.912,73.50479,-3.8923,0.33638,0.62209
676.912,73.80725,-3.89142,0.34732,0.62024
679.912,74.10954,-3.89013,0.34947,0.61842
682.912,74.41314,-3.89276,0.35068,0.6166
685.912,74.71636,-3.89122,0.35035,0.6148
688.912,75.01957,-3.8921,0.35339,0.61301
691.912,75.32353,-3.8921,0.34643,0.61123
694.912,75.62708,-3.89352,0.34734,0.60946
697.912,75.93109,-3.89079,0.34018,0.60771
700.912,76.23392,-3.8908,0.33671,0.60597
703.912,76.5369,-3.89134,0.33587,0.60424
706.912,76.84039,-3.89145,0.32983,0.60252
709.912,77.14502,-3.89135,0.33079,0.60082
712.912,77.44925,-3.88983,0.33819,0.59913
715.912,77.75361,-3.89134,0.32461,0.59745
718.912,78.0586,-3.89024,0.32287,0.59579
721.912,78.36371,-3.89094,0.3206,0.59413
724.912,78.6695,-3.89023,0.33229,0.59249
727.912,78.9752,-3.89112,0.31721,0.59086
730.912,79.28069,-3.89112,0.3197,0.58925
733.912,79.58678,-3.89055,0.31773,0.58764
736.912,79.8922,-3.89122,0.31827,0.58605
737.912,79.9942,-3.88991,0.31902,0.58552