File: 01_Data/ABS/STA/N2/10K_min/ABS_STA_N2_10KData_211018_R2.csv
##Temp./Â°C,Time/min,Mass loss(subtr.2)/mg,DSC(subtr.2)/(mW/mg),Sensit./(uV/mW)
50.127,10.00917,0.04189,-0.04460535,1.03583
52.727,12.3736,0.05647996,0.01416218,1.03569
55.327,13.07227,0.05634218,0.0418968,1.03552
57.927,13.6288,0.05579245,0.05775045,1.03532
60.527,14.11617,0.05310932,0.07117546,1.03509
63.127,14.55949,0.05998686,0.08472946,1.03484
65.727,14.96923,0.05691511,0.09326229,1.03455
68.327,15.35488,0.05702987,0.10648,1.03424
70.927,15.72039,0.06467245,0.11946,1.0339
73.527,16.0702,0.05652202,0.12724,1.03353
76.127,16.40577,0.05089683,0.1364,1.03313
78.727,16.73114,0.06590854,0.14306,1.0327
81.327,17.0467,0.0638933,0.14508,1.03225
83.927,17.35396,0.0647203,0.14882,1.03177
86.527,17.65438,0.05852041,0.14986,1.03126
89.127,17.94653,0.06526112,0.15076,1.03073
91.727,18.2337,0.06340528,0.15725,1.03016
94.327,18.51549,0.06023414,0.16239,1.02957
96.927,18.79283,0.06792273,0.16935,1.02896
99.527,19.06505,0.06409176,0.17569,1.02831
102.127,19.33584,0.0600515,0.18282,1.02765
104.727,19.60332,0.06828815,0.19225,1.02695
107.327,19.86906,0.06712079,0.20297,1.02623
109.927,20.13225,0.0705449,0.21991,1.02548
112.527,20.39343,0.07027714,0.23121,1.02471
115.127,20.65287,0.05996592,0.23195,1.02392
117.727,20.90939,0.06835771,0.23132,1.02309
120.327,21.16529,0.06471627,0.23235,1.02225
122.927,21.41904,0.072146,0.23646,1.02137
125.527,21.67043,0.06943809,0.23922,1.02048
128.127,21.92062,0.06983699,0.2418,1.01956
130.727,22.16862,0.06896537,0.24627,1.01861
133.327,22.41583,0.06207733,0.24755,1.01765
135.927,22.66056,0.07231124,0.24197,1.01665
138.527,22.9043,0.06720938,0.24051,1.01564
141.127,23.14705,0.06185641,0.24487,1.0146
143.727,23.38863,0.0668878,0.24768,1.01354
146.327,23.6292,0.06832996,0.24907,1.01245
148.927,23.8688,0.07270289,0.25188,1.01135
151.527,24.10768,0.06735211,0.25516,1.01022
154.127,24.34625,0.07395657,0.25982,1.00907
156.727,24.58472,0.05972196,0.25932,1.00789
159.327,24.8225,0.06917571,0.26571,1.0067
161.927,25.05978,0.06914226,0.26675,1.00548
164.527,25.29717,0.06521189,0.26774,1.00424
167.127,25.53314,0.07312566,0.26918,1.00298
169.727,25.77024,0.07405102,0.27099,1.0017
172.327,26.00649,0.07111519,0.2754,1.0004
174.927,26.24192,0.0736318,0.27608,0.99908
177.527,26.4765,0.06583348,0.27491,0.99774
180.127,26.71167,0.06692502,0.27915,0.99638
182.727,26.94609,0.07110774,0.27793,0.995
185.327,27.17963,0.06795599,0.28181,0.9936
187.927,27.4132,0.07407169,0.28478,0.99218
190.527,27.64645,0.07227239,0.28493,0.99074
193.127,27.87875,0.07062896,0.29027,0.98929
195.727,28.1113,0.07564247,0.29025,0.98781
198.327,28.34338,0.06311818,0.29363,0.98632
200.927,28.57534,0.0719368,0.29597,0.9848
203.527,28.8076,0.06654975,0.29571,0.98327
206.127,29.0404,0.07056913,0.29818,0.98173
208.727,29.27348,0.07905493,0.29728,0.98016
211.327,29.5056,0.07182502,0.29984,0.97858
213.927,29.73858,0.06427354,0.29965,0.97698
216.527,29.9718,0.06926755,0.30134,0.97536
219.127,30.2046,0.07156738,0.30012,0.97373
221.727,30.43733,0.06617468,0.30339,0.97208
224.327,30.6708,0.06832607,0.30384,0.97041
226.927,30.90359,0.06797093,0.30614,0.96873
229.527,31.13617,0.06344139,0.30919,0.96704
232.127,31.3688,0.05484525,0.30786,0.96533
234.727,31.6025,0.06784634,0.30786,0.9636
237.327,31.8358,0.06681955,0.30719,0.96186
239.927,32.06919,0.0596637,0.30997,0.9601
242.527,32.30237,0.06010693,0.31075,0.95833
245.127,32.5362,0.06604081,0.31055,0.95654
247.727,32.77015,0.06615045,0.3115,0.95474
250.327,33.00356,0.06304056,0.31124,0.95293
252.927,33.23733,0.05831566,0.30986,0.95111
255.527,33.47103,0.05860209,0.31045,0.94927
258.127,33.70516,0.06036354,0.31344,0.94741
260.727,33.9394,0.0534966,0.31351,0.94555
263.327,34.1733,0.05141359,0.31066,0.94367
265.927,34.40747,0.04940682,0.31281,0.94178
268.527,34.64178,0.0525321,0.31013,0.93988
271.127,34.8764,0.05003104,0.30856,0.93796
273.727,35.11136,0.04814926,0.30748,0.93604
276.327,35.34599,0.04144765,0.3076,0.9341
278.927,35.58153,0.03933959,0.30665,0.93215
281.527,35.817,0.04267315,0.30453,0.93019
284.127,36.052,0.03795052,0.29818,0.92823
286.727,36.2881,0.0368382,0.2927,0.92624
289.327,36.52337,0.034751,0.28777,0.92425
291.927,36.75995,0.0331909,0.28006,0.92225
294.527,36.99642,0.02875077,0.27053,0.92024
297.127,37.23264,0.02608807,0.26549,0.91822
299.727,37.4699,0.03132468,0.25577,0.9162
302.327,37.70714,0.02971364,0.24707,0.91416
304.927,37.94419,0.03192832,0.23764,0.91211
307.527,38.18173,0.02189678,0.22995,0.91005
310.127,38.41952,0.02031287,0.22359,0.90799
312.727,38.65722,0.02018071,0.2149,0.90592
315.327,38.89515,0.01613282,0.20749,0.90384
317.927,39.13347,0.01248249,0.19795,0.90175
320.527,39.37164,0.0196681,0.18641,0.89966
323.127,39.61063,0.02028823,0.17759,0.89755
325.727,39.84898,0.01317711,0.16872,0.89544
328.327,40.0881,0.01043379,0.15933,0.89333
330.927,40.32757,0.003285493,0.15342,0.8912
333.527,40.56637,0.00347626,0.14048,0.88907
336.127,40.8059,0.000518861,0.12817,0.88694
338.727,41.0457,0.004400515,0.11376,0.8848
341.327,41.28501,-0.00393821,0.10404,0.88265
343.927,41.5252,-0.008434198,0.09145814,0.8805
346.527,41.76592,-0.007870013,0.08006567,0.87834
349.127,42.00675,-0.01386348,0.06685375,0.87617
351.727,42.24685,-0.01701913,0.05196911,0.87401
354.327,42.48827,-0.02289995,0.04449745,0.87183
356.927,42.7294,-0.02854575,0.03815452,0.86966
359.527,42.97063,-0.03273061,0.03379743,0.86747
362.127,43.21209,-0.04123673,0.03297264,0.86529
364.727,43.45434,-0.04630007,0.03750227,0.8631
367.327,43.69721,-0.05734446,0.05003192,0.86091
369.927,43.94025,-0.05792094,0.06471371,0.85871
372.527,44.18326,-0.07602485,0.08325567,0.85651
375.127,44.426,-0.0883443,0.1114,0.85431
377.727,44.67003,-0.10829,0.14618,0.8521
380.327,44.91415,-0.12167,0.1906,0.84989
382.927,45.15842,-0.1401,0.24932,0.84768
385.527,45.40315,-0.16535,0.31585,0.84547
388.127,45.6486,-0.18295,0.39319,0.84326
390.727,45.8939,-0.21114,0.48398,0.84104
393.327,46.13987,-0.24592,0.58705,0.83882
395.927,46.3855,-0.28844,0.69842,0.8366
398.527,46.63157,-0.3284,0.82685,0.83438
401.127,46.87788,-0.37508,0.96454,0.83216
403.727,47.12493,-0.44358,1.12686,0.82993
406.327,47.372,-0.50648,1.30388,0.82771
408.927,47.6198,-0.57945,1.49942,0.82549
411.527,47.86785,-0.67388,1.71199,0.82326
414.127,48.1154,-0.78801,1.93845,0.82104
416.727,48.36397,-0.89741,2.16425,0.81881
419.327,48.612,-1.0434,2.38844,0.81659
421.927,48.86133,-1.19517,2.59083,0.81436
424.527,49.1109,-1.3524,2.75597,0.81214
427.127,49.3604,-1.54161,2.85787,0.80992
429.727,49.60966,-1.7255,2.88703,0.8077
432.327,49.85825,-1.91266,2.8349,0.80548
434.927,50.10682,-2.104,2.69814,0.80326
437.527,50.35455,-2.26837,2.49456,0.80104
440.127,50.60167,-2.44181,2.2482,0.79882
442.727,50.8491,-2.59996,1.98085,0.79661
445.327,51.09693,-2.7214,1.72304,0.7944
447.927,51.34409,-2.85948,1.4918,0.79219
450.527,51.59179,-2.9643,1.28874,0.78998
453.127,51.8407,-3.07485,1.04266,0.78777
455.727,52.08931,-3.16536,0.83741,0.78557
458.327,52.33811,-3.2411,0.68269,0.78337
460.927,52.5874,-3.30214,0.52888,0.78117
463.527,52.83685,-3.35028,0.4001,0.77898
466.127,53.08619,-3.41893,0.30388,0.77679
468.727,53.33668,-3.44874,0.2341,0.7746
471.327,53.58647,-3.49235,0.1741,0.77241
473.927,53.83655,-3.52066,0.13068,0.77023
476.527,54.08654,-3.55254,0.08981316,0.76806
479.127,54.33705,-3.57183,0.05052556,0.76588
481.727,54.58791,-3.5928,0.01791857,0.76371
484.327,54.8384,-3.61697,-0.01593464,0.76155
486.927,55.08985,-3.62411,-0.04992739,0.75939
489.527,55.34131,-3.63481,-0.07704209,0.75723
492.127,55.59463,-3.63754,-0.10198,0.75508
494.727,55.8479,-3.64378,-0.12133,0.75294
497.327,56.10046,-3.65772,-0.14165,0.75079
499.927,56.35408,-3.64984,-0.15033,0.74866
502.527,56.6073,-3.65598,-0.15497,0.74653
505.127,56.8611,-3.65342,-0.15881,0.7444
507.727,57.11518,-3.65603,-0.16931,0.74228
510.327,57.3688,-3.65995,-0.16783,0.74016
512.927,57.62393,-3.66178,-0.16875,0.73805
515.527,57.87766,-3.65506,-0.16564,0.73595
518.127,58.13267,-3.65788,-0.16782,0.73385
520.727,58.38709,-3.65243,-0.17305,0.73176
523.327,58.64213,-3.65664,-0.17775,0.72967
525.927,58.89655,-3.65479,-0.1832,0.72759
528.527,59.15149,-3.65997,-0.18847,0.72552
531.127,59.40695,-3.64701,-0.19922,0.72345
533.727,59.6622,-3.66254,-0.19822,0.72139
536.327,59.9179,-3.66101,-0.19844,0.71934
538.927,60.17346,-3.65925,-0.19925,0.71729
541.527,60.4293,-3.66211,-0.19519,0.71525
544.127,60.68524,-3.65897,-0.19228,0.71322
546.727,60.9411,-3.66328,-0.19071,0.71119
549.327,61.19673,-3.6527,-0.18961,0.70917
551.927,61.4532,-3.65612,-0.19287,0.70716
554.527,61.71034,-3.65198,-0.19639,0.70515
557.127,61.9668,-3.65833,-0.19365,0.70316
559.727,62.2239,-3.65981,-0.19059,0.70117
562.327,62.48132,-3.65767,-0.18937,0.69918
564.927,62.7387,-3.66078,-0.19114,0.69721
567.527,62.99514,-3.67583,-0.18942,0.69524
570.127,63.25274,-3.66418,-0.18816,0.69328
572.727,63.5109,-3.65255,-0.18961,0.69133
575.327,63.76752,-3.67069,-0.18548,0.68939
577.927,64.02538,-3.65663,-0.18903,0.68745
580.527,64.28368,-3.64815,-0.18698,0.68552
583.127,64.5404,-3.65884,-0.18801,0.6836
585.727,64.79915,-3.66122,-0.18995,0.68169
588.327,65.05677,-3.64765,-0.193,0.67979
590.927,65.31501,-3.65729,-0.19265,0.67789
593.527,65.57255,-3.65463,-0.19428,0.67601
596.127,65.83075,-3.65223,-0.19996,0.67413
598.727,66.08951,-3.65024,-0.18957,0.67226
601.327,66.34766,-3.6562,-0.18095,0.6704
603.927,66.60792,-3.65125,-0.18286,0.66855
606.527,66.86661,-3.65618,-0.17535,0.66671
609.127,67.12601,-3.65322,-0.17363,0.66487
611.727,67.38638,-3.65176,-0.17136,0.66304
614.327,67.6463,-3.66592,-0.17101,0.66123
616.927,67.9062,-3.66017,-0.16816,0.65942
619.527,68.16598,-3.64648,-0.16706,0.65762
622.127,68.42534,-3.66153,-0.17084,0.65583
624.727,68.68574,-3.64987,-0.16672,0.65405
627.327,68.94578,-3.65711,-0.169,0.65228
629.927,69.20651,-3.65328,-0.16943,0.65051
632.527,69.46695,-3.65321,-0.16697,0.64876
635.127,69.72742,-3.65909,-0.16772,0.64701
637.727,69.98852,-3.65947,-0.16831,0.64528
637.827,69.99804,-3.65945,-0.16608,0.64521