File: 01_Data/ABS/STA/N2/10K_min/ABS_STA_N2_10KData_220701_R4.csv
##Temp./Â°C,Time/min,Mass loss(subtr.2)/mg,DSC(subtr.2)/(mW/mg),Sensit./(uV/mW)
49.73,10.01,0.00989,0.009697105,1.07017
52.23,11.20733,0.01032217,0.13064,1.06948
54.73,11.5951,0.01027258,0.1906,1.06879
57.23,11.91888,0.01056247,0.22379,1.06808
59.73,12.21562,0.01216816,0.25036,1.06738
62.23,12.4986,0.01183883,0.26729,1.06666
64.73,12.7736,0.01066042,0.28026,1.06594
67.23,13.0442,0.01218321,0.29116,1.06521
69.73,13.312,0.01055125,0.30171,1.06448
72.23,13.57646,0.01167374,0.30941,1.06373
74.73,13.83886,0.0105404,0.31799,1.06299
77.23,14.0992,0.01185927,0.32648,1.06223
79.73,14.3573,0.0120153,0.33274,1.06147
82.23,14.61444,0.01186923,0.33744,1.0607
84.73,14.86829,0.01184938,0.33949,1.05993
87.23,15.12101,0.01292793,0.33795,1.05915
89.73,15.37243,0.01054797,0.3367,1.05836
92.23,15.6221,0.009220101,0.33758,1.05757
94.73,15.87019,0.01186305,0.34478,1.05677
97.23,16.1181,0.01127985,0.35326,1.05596
99.73,16.36486,0.01052558,0.36089,1.05515
102.23,16.6105,0.01186523,0.36784,1.05433
104.73,16.85582,0.01120156,0.37916,1.0535
107.23,17.1004,0.01186886,0.39216,1.05267
109.73,17.34476,0.00992826,0.40685,1.05183
112.23,17.58845,0.0112012,0.42146,1.05098
114.73,17.8335,0.00922218,0.42464,1.05013
117.23,18.07726,0.01009871,0.42567,1.04927
119.73,18.3208,0.01143445,0.4274,1.0484
122.23,18.56454,0.01142,0.43109,1.04752
124.73,18.80745,0.01142004,0.43895,1.04664
127.23,19.04951,0.01142001,0.4427,1.04576
129.73,19.29233,0.0104318,0.44628,1.04486
132.23,19.53511,0.01175404,0.45133,1.04396
134.73,19.77652,0.01273693,0.44604,1.04305
137.23,20.0184,0.01174999,0.4442,1.04214
139.73,20.2588,0.01043997,0.44557,1.04121
142.23,20.5004,0.01040885,0.45134,1.04029
144.73,20.7413,0.01174995,0.45578,1.03935
147.23,20.98179,0.009115685,0.45956,1.03841
149.73,21.22208,0.00911,0.46332,1.03746
152.23,21.46165,0.009120007,0.4695,1.0365
154.73,21.70155,0.009337398,0.47108,1.03554
157.23,21.94076,0.009128719,0.47417,1.03457
159.73,22.18028,0.009442219,0.48008,1.03359
162.23,22.4198,0.00944,0.48371,1.0326
164.73,22.6588,0.01009998,0.48605,1.03161
167.23,22.89865,0.00911963,0.48927,1.03061
169.73,23.13766,0.009854611,0.49278,1.02961
172.23,23.37685,0.007078926,0.49718,1.02859
174.73,23.6158,0.008465907,0.50064,1.02757
177.23,23.8555,0.008824264,0.50272,1.02655
179.73,24.09388,0.008172153,0.50648,1.02551
182.23,24.3331,0.00733265,0.51014,1.02447
184.73,24.57055,0.007790065,0.51391,1.02342
187.23,24.80931,0.007455069,0.51478,1.02237
189.73,25.04714,0.00747,0.51961,1.0213
192.23,25.28475,0.007446714,0.51988,1.02023
194.73,25.52231,0.00615,0.52486,1.01916
197.23,25.76013,0.005489806,0.52458,1.01807
199.73,25.99805,0.004839718,0.52672,1.01698
202.23,26.2356,0.004186165,0.52903,1.01588
204.73,26.4733,0.005296508,0.53174,1.01478
207.23,26.71205,0.004370052,0.53278,1.01366
209.73,26.95007,0.003850002,0.53484,1.01254
212.23,27.1881,0.001209574,0.53814,1.01141
214.73,27.4263,0.00253003,0.54025,1.01028
217.23,27.66442,0.002532184,0.54373,1.00914
219.73,27.90195,0.0002209409,0.54675,1.00799
222.23,28.1399,0.000223624,0.54971,1.00683
224.73,28.37783,-0.001085152,0.55375,1.00567
227.23,28.6157,0.0002892162,0.55427,1.00449
229.73,28.85395,-0.0024199,0.55587,1.00331
232.23,29.09175,-0.00274504,0.55762,1.00213
234.73,29.32947,-0.004346174,0.56028,1.00093
237.23,29.56778,-0.004873139,0.56159,0.99973
239.73,29.80593,-0.006363532,0.56228,0.99852
242.23,30.04382,-0.00735002,0.56398,0.99731
244.73,30.28224,-0.00768,0.56371,0.99608
247.23,30.5207,-0.00899995,0.56486,0.99485
249.73,30.75903,-0.01032,0.56576,0.99361
252.23,30.99748,-0.01293733,0.56704,0.99237
254.73,31.23589,-0.01397029,0.5699,0.99111
257.23,31.47433,-0.01452834,0.56943,0.98985
259.73,31.71299,-0.01822,0.56815,0.98858
262.23,31.95065,-0.01953,0.56792,0.98731
264.73,32.18857,-0.02084816,0.56854,0.98602
267.23,32.42795,-0.02217093,0.56638,0.98473
269.73,32.66682,-0.02481186,0.56707,0.98343
272.23,32.9056,-0.02627941,0.56578,0.98213
274.73,33.1439,-0.02875986,0.56537,0.98081
277.23,33.38329,-0.03073,0.56098,0.97949
279.73,33.62166,-0.03204778,0.56012,0.97816
282.23,33.86128,-0.03336994,0.55539,0.97683
284.73,34.0997,-0.03633409,0.55418,0.97548
287.23,34.3393,-0.03758712,0.54844,0.97413
289.73,34.57809,-0.04062197,0.5462,0.97277
292.23,34.81722,-0.04019795,0.53836,0.9714
294.73,35.05636,-0.04358369,0.53067,0.97003
297.23,35.2962,-0.04450478,0.5247,0.96865
299.73,35.53556,-0.04622,0.51819,0.96726
302.23,35.77511,-0.04753011,0.51055,0.96586
304.73,36.0148,-0.05017048,0.50544,0.96445
307.23,36.255,-0.05149085,0.49894,0.96304
309.73,36.49534,-0.05378895,0.49197,0.96162
312.23,36.73514,-0.05557746,0.48231,0.96019
314.73,36.97503,-0.05874301,0.47419,0.95876
317.23,37.21455,-0.05873695,0.47189,0.95732
319.73,37.45556,-0.05999848,0.4633,0.95586
322.23,37.6959,-0.06267949,0.45633,0.95441
324.73,37.93586,-0.06561894,0.448,0.95294
327.23,38.17635,-0.06696,0.43645,0.95147
329.73,38.41642,-0.06832494,0.42637,0.94999
332.23,38.6572,-0.07156975,0.41235,0.9485
334.73,38.89833,-0.07289989,0.40144,0.947
337.23,39.1398,-0.07781253,0.39068,0.9455
339.73,39.38064,-0.07947354,0.37931,0.94398
342.23,39.62234,-0.08207719,0.36657,0.94246
344.73,39.8636,-0.0850316,0.35571,0.94094
347.23,40.10525,-0.09067816,0.34381,0.9394
349.73,40.34633,-0.09323127,0.33321,0.93786
352.23,40.5878,-0.0974831,0.32242,0.93631
354.73,40.82995,-0.10275,0.31374,0.93475
357.23,41.07132,-0.11069,0.30897,0.93319
359.73,41.31234,-0.1149,0.30619,0.93161
362.23,41.5544,-0.123,0.30263,0.93003
364.73,41.79593,-0.13151,0.30726,0.92844
367.23,42.03785,-0.14088,0.31481,0.92685
369.73,42.28052,-0.15023,0.3299,0.92525
372.23,42.52255,-0.16177,0.34995,0.92363
374.73,42.76509,-0.17478,0.37381,0.92202
377.23,43.0079,-0.18896,0.40063,0.92039
379.73,43.25116,-0.2062,0.43728,0.91876
382.23,43.4942,-0.22615,0.48122,0.91712
384.73,43.73837,-0.24511,0.53082,0.91547
387.23,43.9825,-0.26888,0.58664,0.91381
389.73,44.22663,-0.29608,0.65041,0.91215
392.23,44.4703,-0.32753,0.72259,0.91048
394.73,44.71461,-0.36189,0.80161,0.9088
397.23,44.95909,-0.40052,0.88927,0.90711
399.73,45.20426,-0.44662,0.98744,0.90542
402.23,45.44927,-0.4987,1.09875,0.90372
404.73,45.694,-0.5596,1.21985,0.90201
407.23,45.93911,-0.62981,1.35727,0.90029
409.73,46.1858,-0.71147,1.50607,0.89857
412.23,46.43187,-0.80403,1.66398,0.89684
414.73,46.67821,-0.91327,1.83691,0.8951
417.23,46.92418,-1.03719,2.00648,0.89335
419.73,47.1715,-1.17487,2.16956,0.8916
422.23,47.4179,-1.3254,2.31004,0.88984
424.73,47.66393,-1.48974,2.41455,0.88807
427.23,47.90979,-1.66151,2.46799,0.88629
429.73,48.15489,-1.83957,2.46102,0.88451
432.23,48.40025,-2.0189,2.39647,0.88272
434.73,48.6449,-2.19126,2.26884,0.88093
437.23,48.88861,-2.35639,2.10208,0.87912
439.73,49.13304,-2.50836,1.9037,0.87731
442.23,49.37638,-2.64488,1.69659,0.87549
444.73,49.61953,-2.76942,1.51252,0.87366
447.23,49.8624,-2.884,1.35219,0.87183
449.73,50.1057,-2.989,1.2013,0.86999
452.23,50.3487,-3.08332,1.04677,0.86814
454.73,50.59244,-3.16598,0.90378,0.86629
457.23,50.83587,-3.23808,0.78466,0.86443
459.73,51.081,-3.30062,0.67931,0.86256
462.23,51.32588,-3.35567,0.595,0.86068
464.73,51.57105,-3.40312,0.5301,0.8588
467.23,51.8163,-3.44385,0.48085,0.85691
469.73,52.06188,-3.47812,0.44642,0.85501
472.23,52.30766,-3.50903,0.41711,0.85311
474.73,52.5528,-3.53536,0.39681,0.8512
477.23,52.7993,-3.56171,0.37436,0.84928
479.73,53.04554,-3.58144,0.35698,0.84736
482.23,53.29121,-3.60026,0.33798,0.84542
484.73,53.5373,-3.6147,0.32167,0.84349
487.23,53.7833,-3.6259,0.30575,0.84154
489.73,54.0297,-3.63316,0.29299,0.83959
492.23,54.2756,-3.63855,0.2826,0.83763
494.73,54.52265,-3.64309,0.27687,0.83567
497.23,54.769,-3.6448,0.27489,0.83369
499.73,55.0159,-3.64513,0.27196,0.83172
502.23,55.2631,-3.64776,0.27173,0.82973
504.73,55.5103,-3.64776,0.27464,0.82774
507.23,55.7573,-3.64908,0.27448,0.82574
509.73,56.005,-3.65008,0.27392,0.82374
512.23,56.25232,-3.6504,0.27268,0.82173
514.73,56.49958,-3.6504,0.26751,0.81971
517.23,56.7477,-3.6504,0.26234,0.81768
519.73,56.996,-3.65172,0.25752,0.81565
522.23,57.2445,-3.65172,0.2565,0.81362
524.73,57.4932,-3.65172,0.25939,0.81158
527.23,57.74149,-3.65107,0.2597,0.80953
529.73,57.98992,-3.65106,0.26084,0.80747
532.23,58.23893,-3.65139,0.26537,0.80541
534.73,58.48795,-3.65337,0.26471,0.80334
537.23,58.7369,-3.65246,0.26771,0.80127
539.73,58.9855,-3.65205,0.26904,0.79919
542.23,59.23352,-3.65292,0.27148,0.7971
544.73,59.48175,-3.65336,0.2718,0.79501
547.23,59.72922,-3.65336,0.27294,0.79291
549.73,59.9774,-3.65271,0.27363,0.79081
552.23,60.22636,-3.65336,0.27567,0.7887
554.73,60.4753,-3.65468,0.27623,0.78658
557.23,60.7249,-3.65402,0.27347,0.78446
559.73,60.97444,-3.65534,0.28119,0.78234
562.23,61.2239,-3.65462,0.28203,0.7802
564.73,61.47282,-3.65567,0.28459,0.77806
567.23,61.72243,-3.65668,0.28367,0.77592
569.73,61.97184,-3.65502,0.28582,0.77377
572.23,62.22155,-3.65633,0.28794,0.77162
574.73,62.4704,-3.65633,0.28873,0.76946
577.23,62.72047,-3.65468,0.2888,0.76729
579.73,62.96951,-3.65632,0.29115,0.76512
582.23,63.2193,-3.65501,0.29244,0.76294
584.73,63.46836,-3.65731,0.2895,0.76076
587.23,63.7188,-3.656,0.28915,0.75857
589.73,63.9689,-3.656,0.2918,0.75638
592.23,64.21936,-3.65466,0.29307,0.75418
594.73,64.46974,-3.65468,0.29184,0.75198
597.23,64.71959,-3.65666,0.29445,0.74977
599.73,64.96941,-3.65793,0.29544,0.74756
602.23,65.21978,-3.65666,0.29393,0.74534
604.73,65.46993,-3.65797,0.29585,0.74312
607.23,65.7208,-3.65795,0.29516,0.74089
609.73,65.9713,-3.65633,0.29747,0.73866
612.23,66.22216,-3.65633,0.29941,0.73642
614.73,66.4725,-3.65501,0.29665,0.73418
617.23,66.7234,-3.65633,0.2966,0.73194
619.73,66.97385,-3.65735,0.29532,0.72969
622.23,67.2243,-3.6573,0.29647,0.72743
624.73,67.47471,-3.65765,0.29512,0.72517
627.23,67.7247,-3.65633,0.29385,0.72291
629.73,67.97539,-3.65765,0.29649,0.72064
632.23,68.22638,-3.65702,0.29616,0.71836
634.73,68.4773,-3.65764,0.29604,0.71609
637.23,68.7286,-3.65666,0.29595,0.71381
639.73,68.98018,-3.65633,0.29794,0.71152
642.23,69.23175,-3.65732,0.29886,0.70923
644.73,69.48315,-3.65732,0.30099,0.70694
647.23,69.7341,-3.65765,0.29735,0.70464
649.73,69.98648,-3.65591,0.30206,0.70234
649.83,69.99651,-3.65603,0.30147,0.70225