File: 01_Data/Polyester_Bed_Skirt/Cone/Polyester_Bed_Skirt_HRRPUA_25.csv
Time after Ignition,Polyester_Bed_Skirt_R1,Polyester_Bed_Skirt_R2,Polyester_Bed_Skirt_R3,Mean,Std. Dev.
0.0,0.0,6.6,3.2,3.3,3.3
0.25,0.3,7.0,3.7,3.6,3.3
0.5,0.5,7.4,4.4,4.1,3.5
0.75,1.5,9.1,4.4,5.0,3.9
1.0,2.4,10.3,5.4,6.0,4.0
1.25,3.2,11.6,5.9,6.9,4.3
1.5,3.9,12.7,6.7,7.8,4.5
1.75,7.1,15.9,7.3,10.1,5.0
2.0,9.8,18.5,8.8,12.4,5.4
2.25,12.4,20.8,10.2,14.5,5.6
2.5,14.9,23.3,11.3,16.5,6.1
2.75,19.3,30.3,13.7,21.1,8.5
3.0,23.8,37.3,15.8,25.6,10.8
3.25,27.8,43.6,17.9,29.8,12.9
3.5,34.0,49.1,19.5,34.2,14.8
3.75,40.8,58.1,21.1,40.0,18.5
4.0,45.4,66.5,22.5,44.8,22.0
4.25,50.7,72.9,25.6,49.7,23.7
4.5,54.8,79.4,28.7,54.3,25.4
4.75,59.6,90.3,31.6,60.5,29.4
5.0,65.7,99.5,34.0,66.4,32.8
5.25,72.6,108.3,38.6,73.2,34.8
5.5,78.0,115.3,42.6,78.6,36.4
5.75,82.2,121.0,46.2,83.1,37.4
6.0,83.5,126.2,49.6,86.5,38.3
6.25,92.9,134.8,54.1,93.9,40.3
6.5,100.4,141.1,59.4,100.3,40.9
6.75,107.2,152.8,63.7,107.9,44.6
7.0,112.2,158.2,67.1,112.5,45.5
7.25,118.9,168.0,70.0,119.0,49.0
7.5,128.3,174.6,79.9,127.6,47.4
7.75,137.1,185.0,85.2,135.8,49.9
8.0,140.4,184.9,90.2,138.5,47.4
8.25,154.7,199.2,100.8,151.6,49.3
8.5,166.0,209.2,97.8,157.7,56.2
8.75,171.9,213.6,105.2,163.5,54.7
9.0,179.3,223.7,111.5,171.5,56.5
9.25,193.6,222.9,123.9,180.1,50.8
9.5,197.7,234.5,133.1,188.4,51.4
9.75,204.7,241.2,131.1,192.4,56.1
10.0,213.2,247.3,140.5,200.4,54.5
10.25,218.8,254.9,145.0,206.2,56.0
10.5,225.9,262.7,158.0,215.5,53.1
10.75,236.1,261.3,156.4,217.9,54.8
11.0,241.2,271.5,166.3,226.3,54.2
11.25,250.4,278.0,173.4,233.9,54.2
11.5,256.6,277.8,183.6,239.3,49.4
11.75,257.9,285.8,186.5,243.4,51.2
12.0,267.8,285.1,195.6,249.5,47.5
12.25,267.9,298.5,205.3,257.2,47.5
12.5,267.4,292.7,205.5,255.2,44.9
12.75,276.0,296.1,220.6,264.3,39.1
13.0,278.4,297.7,221.9,266.0,39.4
13.25,284.9,300.7,227.6,271.1,38.5
13.5,289.1,297.4,234.7,273.7,34.1
13.75,297.1,305.8,243.9,282.3,33.5
14.0,302.5,301.7,247.9,284.1,31.3
14.25,306.2,308.7,254.8,289.9,30.4
14.5,303.0,305.7,258.8,289.2,26.3
14.75,303.3,306.1,265.3,291.6,22.8
15.0,308.0,303.1,264.9,292.0,23.6
15.25,311.3,309.7,275.5,298.8,20.2
15.5,313.2,309.2,276.1,299.5,20.3
15.75,316.1,305.5,280.6,300.7,18.2
16.0,324.8,302.3,284.9,304.0,20.0
16.25,319.7,307.6,287.2,304.8,16.5
16.5,320.1,306.9,289.9,305.7,15.1
16.75,319.9,304.1,291.5,305.1,14.2
17.0,323.6,302.6,289.8,305.3,17.1
17.25,316.1,293.1,299.6,302.9,11.8
17.5,312.3,290.8,296.0,299.7,11.2
17.75,317.6,291.1,298.4,302.4,13.7
18.0,321.7,287.4,295.6,301.5,17.9
18.25,311.4,286.5,294.1,297.3,12.8
18.5,313.9,280.5,295.6,296.6,16.7
18.75,317.2,274.2,293.6,295.0,21.5
19.0,308.7,270.6,299.1,292.8,19.8
19.25,306.1,271.7,298.6,292.2,18.1
19.5,308.3,265.9,291.0,288.4,21.3
19.75,305.3,265.4,294.9,288.5,20.7
20.0,307.5,262.3,302.0,290.6,24.7
20.25,302.7,259.0,289.9,283.9,22.4
20.5,303.6,255.4,296.0,285.0,25.9
20.75,298.8,251.1,292.7,280.9,26.0
21.0,295.1,246.9,293.9,278.7,27.5
21.25,295.1,246.7,287.0,276.2,25.9
21.5,294.3,240.9,289.8,275.0,29.6
21.75,288.9,241.2,299.3,276.5,31.0
22.0,277.8,232.7,288.6,266.4,29.6
22.25,278.6,233.6,293.8,268.7,31.3
22.5,276.2,232.6,286.9,265.2,28.8
22.75,274.9,224.7,288.0,262.5,33.4
23.0,270.2,222.7,287.4,260.1,33.5
23.25,262.0,221.1,289.5,257.5,34.4
23.5,257.7,217.4,286.6,253.9,34.7
23.75,255.9,210.6,286.0,250.8,38.0
24.0,255.1,208.1,282.8,248.6,37.8
24.25,243.0,203.8,286.4,244.4,41.3
24.5,240.5,199.6,283.7,241.3,42.1
24.75,239.2,196.8,281.4,239.1,42.3
25.0,233.6,193.0,281.0,235.9,44.0
25.25,224.6,186.6,279.9,230.4,46.9
25.5,220.4,180.7,278.9,226.7,49.4
25.75,213.6,177.2,273.2,221.3,48.5
26.0,213.2,169.8,275.2,219.4,53.0
26.25,210.8,168.4,267.8,215.7,49.8
26.5,207.5,162.4,264.0,211.3,50.9
26.75,200.0,160.8,260.8,207.2,50.4
27.0,198.8,155.0,258.7,204.2,52.1
27.25,191.7,153.7,259.5,201.6,53.6
27.5,187.5,150.5,252.5,196.8,51.7
27.75,187.3,148.4,248.9,194.9,50.6
28.0,180.9,143.2,243.6,189.2,50.7
28.25,175.7,140.8,238.1,184.9,49.3
28.5,174.6,141.0,238.5,184.7,49.5
28.75,169.0,136.0,231.5,178.8,48.5
29.0,168.6,133.4,228.3,176.8,48.0
29.25,161.4,132.1,226.6,173.4,48.4
29.5,160.4,128.2,221.5,170.0,47.4
29.75,154.1,124.5,218.4,165.7,48.0
30.0,152.7,124.6,211.5,162.9,44.4
30.25,151.8,120.2,213.0,161.7,47.2
30.5,148.0,115.5,207.4,157.0,46.6
30.75,143.2,116.2,204.6,154.7,45.3
31.0,141.2,112.3,198.6,150.7,43.9
31.25,138.7,109.5,194.2,147.5,43.0
31.5,134.3,106.6,194.3,145.1,44.8
31.75,133.3,104.4,186.8,141.5,41.8
32.0,130.1,102.6,183.8,138.8,41.3
32.25,128.0,100.0,180.5,136.2,40.9
32.5,123.0,99.0,176.1,132.7,39.4
32.75,121.7,96.6,176.0,131.4,40.6
33.0,121.0,94.6,171.4,129.0,39.0
33.25,115.8,92.6,168.7,125.7,39.0
33.5,115.0,90.8,163.3,123.0,36.9
33.75,113.3,88.9,159.2,120.5,35.7
34.0,112.4,87.4,157.3,119.0,35.4
34.25,110.0,86.7,153.4,116.7,33.9
34.5,106.1,85.8,151.6,114.5,33.7
34.75,105.5,83.0,151.7,113.4,35.0
35.0,101.3,82.1,145.4,109.6,32.5
35.25,97.5,79.6,142.8,106.6,32.6
35.5,98.1,77.6,141.4,105.7,32.6
35.75,95.4,77.0,136.4,102.9,30.4
36.0,93.6,74.7,132.6,100.3,29.5
36.25,93.5,72.4,128.7,98.2,28.4
36.5,90.2,72.0,125.6,95.9,27.2
36.75,87.9,69.8,127.5,95.0,29.5
37.0,84.8,67.5,123.7,92.0,28.8
37.25,83.8,66.5,121.3,90.5,28.0
37.5,81.0,64.9,116.4,87.5,26.3
37.75,80.9,63.0,113.9,86.0,25.8
38.0,77.9,60.8,112.2,83.6,26.2
38.25,75.6,59.1,110.0,81.6,26.0
38.5,75.2,57.4,108.5,80.4,25.9
38.75,72.9,56.2,107.5,78.9,26.2
39.0,70.9,53.9,105.5,76.8,26.3
39.25,70.4,52.5,103.9,75.6,26.1
39.5,68.1,51.1,100.8,73.3,25.2
39.75,67.2,50.5,100.0,72.5,25.2
40.0,66.0,49.5,98.0,71.2,24.6
40.25,64.7,47.5,94.6,68.9,23.9
40.5,63.2,45.9,92.0,67.0,23.3
40.75,62.8,45.0,92.7,66.8,24.1
41.0,60.5,45.2,88.2,64.6,21.8
41.25,59.9,43.5,87.1,63.5,22.0
41.5,59.0,41.8,85.4,62.1,22.0
41.75,57.6,41.4,83.1,60.7,21.0
42.0,56.3,40.1,81.5,59.3,20.9
42.25,55.7,39.2,79.5,58.1,20.3
42.5,54.7,38.7,78.3,57.2,19.9
42.75,53.9,37.6,77.0,56.2,19.8
43.0,52.4,36.6,74.1,54.4,18.8
43.25,51.0,35.6,72.5,53.0,18.5
43.5,50.9,34.7,71.0,52.2,18.2
43.75,50.4,34.1,68.9,51.1,17.4
44.0,49.6,33.4,67.5,50.2,17.0
44.25,47.6,32.3,65.5,48.5,16.7
44.5,46.9,30.8,63.2,47.0,16.2
44.75,46.5,30.1,63.0,46.5,16.5
45.0,45.8,29.7,60.8,45.4,15.6
45.25,44.7,28.4,60.2,44.4,15.9
45.5,43.7,27.6,58.8,43.4,15.6
45.75,43.2,27.1,57.3,42.5,15.1
46.0,42.8,26.7,57.0,42.2,15.2
46.25,41.4,25.7,55.5,40.9,14.9
46.5,40.5,24.9,54.3,39.9,14.7
46.75,39.7,24.0,53.4,39.0,14.7
47.0,39.3,23.5,52.4,38.4,14.5
47.25,39.4,23.0,51.7,38.0,14.4
47.5,37.0,22.2,49.8,36.4,13.8
47.75,36.5,21.4,49.1,35.7,13.9
48.0,35.6,20.8,48.9,35.1,14.1
48.25,34.8,20.3,46.8,34.0,13.3
48.5,34.3,19.9,46.1,33.4,13.1
48.75,32.7,19.3,45.0,32.3,12.9
49.0,32.3,18.8,44.4,31.8,12.8
49.25,31.2,18.4,42.8,30.8,12.2
49.5,30.3,17.8,41.9,30.0,12.0
49.75,29.8,17.6,40.8,29.4,11.6
50.0,29.0,17.2,40.2,28.8,11.5
50.25,28.3,16.6,39.5,28.1,11.5
50.5,27.0,16.2,37.7,27.0,10.7
50.75,26.4,15.8,37.0,26.4,10.6
51.0,25.8,15.2,35.3,25.4,10.1
51.25,25.0,14.9,34.5,24.8,9.8
51.5,24.4,14.3,33.4,24.0,9.5
51.75,23.8,13.9,32.2,23.3,9.2
52.0,22.9,13.3,31.2,22.5,9.0
52.25,22.5,13.0,30.1,21.8,8.6
52.5,21.6,12.5,29.2,21.1,8.4
52.75,20.9,12.4,27.9,20.4,7.8
53.0,20.2,11.7,27.2,19.7,7.7
53.25,19.5,11.7,26.3,19.2,7.3
53.5,18.8,11.4,25.3,18.5,7.0
53.75,18.0,11.0,24.7,17.9,6.9
54.0,17.7,10.8,24.3,17.6,6.8
54.25,17.0,10.7,22.8,16.9,6.0
54.5,16.8,10.6,22.5,16.6,6.0
54.75,16.2,10.1,21.8,16.1,5.9
55.0,15.6,10.0,21.2,15.6,5.6
55.25,14.9,9.8,20.3,15.0,5.2
55.5,14.2,9.6,19.6,14.5,5.0
55.75,14.0,9.1,18.8,14.0,4.9
56.0,13.4,8.9,18.4,13.6,4.7
56.25,12.6,8.6,17.9,13.0,4.6
56.5,12.9,8.3,17.2,12.8,4.4
56.75,12.1,8.0,16.6,12.2,4.3
57.0,11.7,7.8,15.7,11.7,3.9
57.25,11.4,7.5,15.3,11.4,3.9
57.5,10.9,7.3,14.8,11.0,3.7
57.75,10.3,6.8,14.0,10.4,3.6
58.0,9.7,6.5,13.6,9.9,3.6
58.25,9.1,6.2,13.0,9.5,3.4
58.5,8.8,6.0,12.5,9.1,3.3
58.75,8.5,5.8,12.2,8.8,3.2
59.0,8.1,5.5,11.8,8.5,3.2
59.25,7.9,5.3,11.6,8.3,3.2
59.5,7.4,5.2,11.2,7.9,3.0
59.75,7.1,4.9,11.3,7.8,3.2