File: 01_Data/Nylon/HFM/Deprecated/Nylon_Density_Dry_R2.csv
,Nylon_Carpet_High_Pile_DRY_2
Sample Mass [g],109.4
Sample Volume [cm3],579.4
Sample Density [kg/m3],189