File: 01_Data/Nylon/HFM/Deprecated/Nylon_Density_Dry_R3.csv
,Nylon_Carpet_High_Pile_DRY_3
Sample Mass [g],104.8
Sample Volume [cm3],583.6
Sample Density [kg/m3],180