File: 01_Data/Nylon/HFM/Deprecated/Nylon_Density_Dry_R1.csv
,Nylon_Carpet_High_Pile_DRY_1
Sample Mass [g],108.5
Sample Volume [cm3],572.7
Sample Density [kg/m3],189