File: 01_Data/Barrel_Chair/Furniture_Calorimeter/Barrel_Chair_R2.csv
Time (s),Convective HRR,TCPlume1,TCPlume2,TCPlume3,DPPlume1,DPPlume2,DPPlume3,HF1,HF2,HF3,HF4,HF5,HF6,RAD2,RAD1,Load Cell,Heat Release Rate,Total Heat Released
-119,0.0,-12.3447,-11.5062,11.2951,0.0817506,0.0319899,-0.0556792,0.639171,1.72123,-0.814304,0.182679,0.0857942,-0.0527335,0.613177,2.88169,9.49961,0.0,0.0
-98,3.24921,-12.2042,-11.6416,11.011,0.00579335,-0.0211764,-0.192399,0.639171,-0.0761606,-0.814304,-0.679564,0.0857942,-0.0527335,0.613177,3.8402,9.35425,0.0,0.0
-77,2.1158,-11.7539,-11.4281,11.027,-0.0169938,-0.00598604,-0.0177015,0.639171,-0.0761606,-1.81659e-13,0.182679,0.460747,-0.194155,0.779224,2.88169,9.66574,0.0,0.0
-56,2.84319,-12.7294,-11.575,10.9227,-0.0701639,0.00920434,0.445627,-0.163193,-1.87355,0.814304,-0.679564,-0.289158,0.0886882,0.779224,3.8402,9.54115,0.0,0.0
-35,1.55871,-12.3463,-11.6259,11.1027,-0.0321853,-0.0363668,-0.0101059,1.44153,-0.974856,-1.81659e-13,0.182679,-0.289158,0.23011,0.779224,2.88169,9.66574,0.0,0.0
-14,2.2245,-11.9863,-11.5027,10.6107,-0.0169938,-0.0287716,0.0202762,-0.965556,0.822535,-0.814304,-0.679564,-0.664111,0.0886882,0.447131,3.8402,9.52038,0.0,0.0
7,2.35876,-11.519,-11.272,10.7198,0.0589634,0.0167995,-0.116444,-0.163193,-0.974856,-0.814304,-0.679564,0.460747,0.0886882,0.779224,0.964651,9.62421,0.0,0.0
28,0.14207,-11.7333,-11.4862,10.7031,0.0361762,0.0167995,-0.124039,-0.965556,0.822535,-1.81659e-13,0.182679,-0.289158,-0.194155,0.447131,3.8402,9.64498,0.0,0.0
49,0.0,-11.9591,-11.3967,10.5606,0.0133891,0.0699659,-0.199995,-0.163193,-0.0761606,-1.81659e-13,-0.679564,0.460747,-0.0527335,0.613177,2.88169,9.64498,0.0,0.0
70,0.0,-9.88393,-10.1486,12.154,-0.0245895,-0.00598604,-0.177208,0.639171,0.822535,-1.81659e-13,0.182679,0.0857942,0.0886882,0.447131,2.88169,9.47885,0.0,0.0
91,3.80882,-7.50801,-6.75405,15.418,0.788153,0.183894,0.69628,0.639171,-0.0761606,-1.81659e-13,-0.679564,0.460747,0.0886882,0.779224,3.8402,9.49961,16.2222,0.0477695
112,17.6269,-1.07636,0.394564,24.0164,1.31226,0.594034,0.0278718,3.04626,0.822535,1.62861,1.90716,-0.289158,0.371532,0.945271,5.75724,9.52038,102.528,1.11952
133,54.1051,11.119,15.7454,38.4687,1.53253,0.958603,3.17243,7.86044,2.61993,3.25722,2.76941,1.21065,0.795797,1.44341,9.5913,9.12582,173.538,4.14785
154,95.4577,22.2461,33.9759,64.2591,1.20592,2.28017,1.6913,17.4888,4.41732,4.07152,4.49389,2.33551,1.64433,1.7755,15.3424,9.14659,351.538,9.97752
175,169.006,32.18,42.9857,75.0981,2.09462,2.97892,2.54959,20.6983,7.1134,8.14304,7.08062,3.46037,2.21001,2.60574,19.1765,8.81433,620.442,19.9049
196,280.769,54.5486,75.3866,114.753,2.70987,4.04225,2.45845,25.5124,8.0121,8.95735,7.94286,4.96018,3.05855,3.60202,27.8031,8.31595,591.233,32.8692
217,324.857,62.4869,85.3516,134.799,2.98332,4.50556,5.30678,31.9313,11.6069,11.4003,9.66735,5.33513,3.62423,3.60202,29.7202,7.6722,647.173,46.0913
238,373.296,58.0951,85.8128,148.225,0.0133891,0.328202,0.521582,38.3503,11.6069,13.0289,13.9786,7.58484,5.03845,5.42853,37.3883,7.21534,823.238,62.0751
259,435.705,78.9769,112.565,172.722,10.4727,5.27267,6.44611,35.1408,11.6069,13.0289,13.1163,7.20989,5.03845,4.93039,32.5957,6.48853,766.952,78.6953
280,410.454,70.89,105.537,175.906,3.24157,6.15371,2.17741,27.1172,9.80949,10.586,12.2541,5.71008,4.33134,4.26621,26.8446,5.84478,612.07,92.254
301,325.483,68.0186,97.2911,172.46,6.90271,3.39666,5.35235,25.5124,8.0121,8.95735,10.5296,4.96018,3.34139,3.26993,23.9691,5.20103,522.046,104.171
322,317.667,53.1454,78.7214,156.105,6.26467,3.87516,5.4283,19.8959,6.21471,7.32874,9.66735,3.83532,2.91712,2.77179,19.1765,4.51575,436.72,114.804
343,283.46,47.4094,66.5784,134.991,1.90472,2.12067,0.924146,12.6746,2.61993,4.88583,5.35614,2.71046,1.92717,2.60574,13.4254,4.20426,341.973,122.795
364,264.622,39.0839,56.1385,122.315,3.16561,2.2194,7.6462,11.0699,1.72123,4.07152,4.49389,1.96056,2.21001,1.94155,14.3839,3.85123,274.226,128.85
385,209.118,35.6308,50.5133,110.865,7.99649,3.90554,1.96474,10.2675,3.51862,2.44291,4.49389,1.5856,1.36148,1.94155,10.5498,3.49821,300.086,134.53
406,202.942,28.0948,40.3574,99.9205,-0.0853553,3.31311,7.44872,7.86044,2.61993,3.25722,3.63165,1.96056,1.07864,1.60946,8.63279,3.18672,274.475,140.453
427,174.53,25.9228,38.8071,94.7745,0.932472,2.10548,2.67112,8.66281,1.72123,3.25722,5.35614,1.5856,1.50291,1.44341,9.5913,2.87523,255.784,145.875
448,165.256,23.7306,34.5832,88.4109,1.43379,0.434535,2.11665,8.66281,2.61993,3.25722,4.49389,1.96056,1.36148,1.44341,7.67427,2.5222,233.644,150.995
469,153.346,26.3758,38.0233,89.3297,2.99091,2.82702,6.65878,7.86044,2.61993,4.88583,4.49389,1.96056,1.07864,1.7755,8.63279,2.35607,249.415,156.147
490,185.168,29.724,43.3443,94.3272,3.05168,4.64227,3.47625,9.46517,2.61993,3.25722,4.49389,1.96056,1.22006,1.7755,10.5498,2.02381,234.26,161.136
511,175.394,24.5571,34.8773,84.1456,0.780557,2.26498,1.37988,7.86044,1.72123,4.07152,4.49389,1.96056,1.22006,1.7755,8.63279,1.54619,222.5,166.292
532,151.966,18.1657,27.9436,76.1272,1.84396,1.79407,0.719066,6.25572,0.822535,4.07152,4.49389,1.21065,1.07864,1.7755,7.67427,1.33853,223.905,170.924
553,155.522,15.8828,25.4533,71.91,0.871706,0.63201,1.09125,6.25572,1.72123,2.44291,4.49389,1.5856,0.937219,1.27736,7.67427,1.02704,220.636,175.703
574,153.173,18.0461,27.2218,69.447,1.054,0.783914,2.7015,7.05808,0.822535,2.44291,2.76941,0.835699,0.795797,1.27736,7.67427,0.840147,176.642,179.622
595,139.472,13.8575,23.0274,66.1809,1.00843,0.867461,2.13184,6.25572,1.72123,1.62861,4.49389,1.21065,0.795797,1.44341,6.71575,0.71555,153.664,182.958
616,117.197,12.4077,20.6777,61.736,0.75777,2.05991,2.72429,4.65099,2.61993,1.62861,2.76941,1.21065,0.654375,1.27736,6.71575,0.383292,125.31,186.004
637,99.6303,9.99591,16.5299,55.8416,2.45162,2.79664,2.07867,3.84863,2.61993,0.814304,2.76941,0.460747,0.795797,0.945271,6.71575,0.34176,104.722,188.608
658,88.5321,8.0348,14.1568,54.9091,0.142516,1.55103,-0.329119,4.65099,0.822535,1.62861,1.04492,-0.289158,0.371532,1.27736,5.75724,0.196398,72.3282,190.587
679,68.8432,4.82031,9.95743,50.3671,0.112133,0.244655,0.058254,2.2439,1.72123,-1.81659e-13,1.90716,0.835699,0.0886882,0.945271,4.79872,0.196398,66.0118,192.084
700,63.0247,2.78558,7.69578,45.2122,0.826131,0.669986,0.650707,1.44153,0.822535,0.814304,2.76941,1.21065,0.23011,1.11132,3.8402,0.0510348,56.0755,193.259
721,60.7166,-0.0915669,4.05419,40.2973,0.362792,0.183894,1.0001,2.2439,0.822535,-1.81659e-13,1.90716,0.460747,0.23011,0.945271,4.79872,0.0718009,50.2238,194.324
742,51.5184,-1.18073,3.35384,37.936,1.11477,1.42191,0.643111,3.04626,1.72123,0.814304,-0.679564,0.835699,0.23011,0.945271,2.88169,0.0302687,39.8849,195.196
763,52.4016,0.187058,3.49024,36.5369,0.317218,0.662391,0.430436,3.04626,1.72123,0.814304,0.182679,0.0857942,0.371532,0.945271,3.8402,0.0302687,37.542,196.073
784,38.2747,-2.93215,0.203242,33.3216,-0.0701639,0.0167995,0.0962317,1.44153,-0.0761606,0.814304,2.76941,0.460747,0.371532,0.779224,2.88169,-0.094328,53.8132,197.071
805,47.2602,-1.84834,1.3517,31.9705,0.75777,1.62698,1.509,3.04626,-0.0761606,-1.81659e-13,1.04492,0.835699,0.23011,0.945271,4.79872,-0.094328,49.0412,198.16
826,39.0483,-3.16482,0.586033,31.407,0.142516,0.981389,0.384862,0.639171,0.822535,-1.81659e-13,1.04492,0.460747,0.23011,0.945271,3.8402,-0.115094,35.3381,198.987
847,31.6056,-2.63346,0.9194,30.3058,0.613451,0.161108,0.316503,2.2439,2.61993,0.814304,1.04492,0.0857942,0.371532,0.613177,4.79872,-0.115094,31.5934,199.77
868,35.3368,-3.10988,-1.08816,28.1863,0.347601,-0.203461,0.0810406,1.44153,-0.974856,1.62861,0.182679,-0.289158,0.23011,0.613177,3.8402,-0.13586,37.5435,200.514
889,31.767,-4.58637,-2.01489,26.9795,-0.0093981,0.0699659,0.119018,0.639171,-0.0761606,1.62861,1.04492,-0.289158,0.0886882,0.613177,3.8402,-0.260457,29.7594,201.286
910,33.5488,-5.05937,-3.18248,25.577,0.0665591,0.0927514,0.453222,0.639171,1.72123,-0.814304,0.182679,0.460747,0.0886882,0.945271,2.88169,-0.281223,43.4652,201.987
931,32.2296,-6.11824,-2.29696,24.929,0.00579335,0.153513,0.156996,2.2439,0.822535,-0.814304,1.04492,-0.664111,0.0886882,0.613177,2.88169,-0.322755,38.1925,202.831
952,28.3965,-5.54423,-3.62643,23.6697,-0.0701639,-0.043962,0.0126807,2.2439,0.822535,-1.81659e-13,1.04492,-0.289158,0.23011,0.613177,3.8402,-0.260457,47.4173,203.689
973,31.151,-4.9985,-3.66526,23.2912,-0.0245895,0.0319899,-0.0404881,3.04626,0.822535,-0.814304,0.182679,0.0857942,0.0886882,0.613177,3.8402,-0.301989,38.304,204.514
994,25.5927,-6.16869,-4.01497,21.9273,0.112133,0.0851562,-0.025297,1.44153,1.72123,0.814304,0.182679,0.0857942,0.23011,0.613177,1.92317,-0.301989,44.2584,205.382
1015,20.8479,-5.84011,-4.77691,21.4502,0.172899,0.191489,-0.0556792,0.639171,-0.974856,0.814304,1.90716,0.460747,0.0886882,0.779224,3.8402,-0.281223,47.242,206.391
1036,21.7409,-6.53739,-5.08285,20.6591,0.195686,0.107942,0.0962317,0.639171,0.822535,1.62861,0.182679,0.460747,0.0886882,0.779224,3.8402,-0.281223,61.2089,207.63
1057,22.9053,-6.35342,-5.1332,19.8888,-0.0169938,0.556058,-0.0404881,2.2439,0.822535,-1.81659e-13,0.182679,0.0857942,0.0886882,0.613177,3.8402,-0.281223,59.2744,208.936
1078,20.4047,-6.82814,-5.33378,19.5035,-0.0473767,0.123132,0.460818,0.639171,0.822535,1.62861,0.182679,0.835699,0.371532,0.613177,3.8402,-0.301989,59.2048,210.128
1099,20.2953,-7.89064,-5.22252,19.308,0.096942,0.411749,0.164592,1.44153,-0.0761606,-1.81659e-13,-0.679564,0.0857942,0.23011,0.945271,4.79872,-0.301989,53.8841,211.303
1120,16.2397,-7.14676,-5.76853,18.738,0.180495,0.487701,-0.169612,1.44153,0.822535,0.814304,1.04492,-0.289158,0.23011,0.613177,5.75724,-0.426586,48.1663,212.384
1141,16.0256,-8.30544,-6.1036,18.8298,-0.0169938,0.0167995,0.103827,-0.163193,-1.87355,-1.81659e-13,0.182679,0.0857942,-0.0527335,0.779224,3.8402,-0.447352,44.3059,213.394
1162,14.1398,-8.16008,-5.91979,18.0203,0.0817506,0.00160915,-0.131635,0.639171,-0.0761606,0.814304,0.182679,0.0857942,0.23011,0.779224,4.79872,-0.468118,46.2237,214.347
1183,16.0708,-7.44928,-6.07026,17.5314,-0.039781,0.100347,-0.0860614,0.639171,1.72123,-1.81659e-13,0.182679,0.0857942,0.23011,0.447131,5.75724,-0.301989,0.0,214.686
1184,15.8297,-7.60589,-6.07026,17.6075,-0.0701639,0.00920434,-0.245568,1.44153,-0.0761606,-1.81659e-13,1.04492,-0.289158,0.0886882,0.779224,2.88169,-0.260457,0.0,214.686