File: 01_Data/Barrel_Chair/Furniture_Calorimeter/Barrel_Chair_R1.csv
Time (s),Convective HRR,TCPlume1,TCPlume2,TCPlume3,DPPlume1,DPPlume2,DPPlume3,HF1,HF2,HF3,HF4,HF5,HF6,RAD2,RAD1,Load Cell,Heat Release Rate,Total Heat Released
-119,0.0,-13.9485,-13.5822,10.8895,0.0346957,-0.0753726,0.363363,-0.87716,-0.175169,0.973025,-0.518807,0.152523,-0.195354,0.613177,3.8402,9.64498,0.0,0.0
-98,3.73907,-14.2201,-13.5374,11.3149,-0.0716444,-0.0222063,0.24943,-0.0747966,-1.97256,0.973025,-2.24329,0.152523,0.0874897,0.447131,1.92317,9.64498,8.00321,0.0
-77,3.56212,-13.4877,-13.7752,10.9967,0.0337466,0.029256,-0.0854498,0.0809851,-0.845578,-0.876257,-1.33672,-0.240567,0.0913491,0.500673,2.5277,9.45599,15.5986,0.0
-56,3.08096,-13.5941,-13.5442,11.0027,-0.0488572,-0.0298015,-0.0392007,-0.0747966,0.723526,-0.655584,-0.518807,0.152523,-0.053932,0.447131,2.88169,9.47885,30.1445,0.0
-35,0.0,-15.5682,-13.0648,11.1606,-0.0336658,0.0765312,0.0519458,-0.0747966,0.723526,-0.655584,0.343436,0.527475,-0.195354,0.447131,2.88169,9.47885,16.2944,0.0
-14,3.24291,-13.8662,-13.5395,10.7398,-0.0184743,0.068936,0.0139681,-0.0747966,0.723526,-0.655584,-0.518807,0.527475,-0.053932,0.613177,4.79872,9.62421,0.22419,0.0
7,0.49398,-13.3923,-13.2634,10.5864,-0.0032829,-0.0753726,-0.175921,-0.0747966,-0.175169,0.973025,0.343436,0.152523,0.0874897,0.447131,1.92317,9.66574,0.0,0.0
28,0.97941,-13.7881,-13.3429,10.8153,-0.0488572,-0.0373967,-0.0999651,-0.87716,-1.07386,-0.655584,0.343436,-0.222429,0.228912,0.613177,3.8402,9.62421,0.0,0.0
49,1.97684,-14.0598,-13.5353,11.0878,0.0119085,-0.0677774,0.143092,-0.0747966,-1.07386,-0.655584,-0.518807,-0.222429,-0.053932,0.779224,1.92317,9.47885,9.76725,0.03125533
70,0.0,-11.6911,-10.696,13.073,0.277759,0.349958,0.31779,1.52993,0.723526,0.15872,0.343436,0.152523,-0.195354,0.447131,3.8402,9.64498,33.7639,0.433514
91,7.39173,-9.6002,-9.03989,17.3844,0.270163,0.182864,0.8115,2.33229,1.62222,1.78733,2.06792,0.902428,0.370333,1.11132,3.8402,9.64498,133.794,2.02942
112,49.8235,0.584017,3.69579,33.9668,0.672736,0.0309601,3.05219,7.94884,1.62222,2.60163,2.93016,2.02728,0.794599,1.27736,7.67427,9.66574,244.7,5.80185
133,123.636,21.9573,29.8223,58.7576,2.30582,1.20062,2.19389,18.3796,5.217,5.85885,4.65465,3.52709,2.06739,2.27365,16.3009,9.14659,445.255,14.1765
154,212.988,35.8984,49.7054,75.5096,6.76451,4.31465,1.8369,20.7867,6.1157,6.67316,6.37914,4.277,2.35024,2.77179,19.1765,8.79357,637.551,24.8676
175,266.497,50.5436,67.1178,104.089,2.36658,3.61589,1.3204,19.9843,7.91309,7.48746,6.37914,3.52709,2.63308,2.77179,20.135,8.14982,570.071,37.1352
196,277.7,56.5678,80.4385,132.169,2.55648,6.71473,5.55872,24.7985,8.81178,9.93037,8.10362,5.40186,3.34019,3.76807,23.9691,7.6722,840.843,51.3307
217,445.161,79.1474,106.878,165.882,1.99439,8.37048,4.40419,29.6127,8.81178,11.559,11.5526,6.90167,4.61299,4.93039,29.7202,7.13228,840.587,69.7718
238,475.652,72.5952,101.268,172.642,3.53632,3.81336,2.80153,31.2174,11.5079,11.559,12.4148,6.52671,5.17867,5.26249,33.5542,6.17704,776.676,88.1086
259,428.965,64.561,86.2867,162.845,2.77675,6.79068,7.89055,27.2056,7.01439,8.30176,10.6903,5.77681,4.33014,4.26621,25.8861,5.65788,664.729,103.127
280,394.486,56.0612,79.9342,155.499,1.16646,6.4489,3.76617,21.589,6.1157,7.48746,9.82811,4.65195,3.62303,3.43597,19.1765,4.82724,581.078,116.613
301,358.788,46.9301,66.6175,139.817,3.96168,1.37531,4.0472,17.5772,5.217,5.85885,7.24138,3.15214,2.49166,2.77179,16.3009,4.32885,479.557,127.219
322,268.027,34.6281,49.0418,118.201,0.839842,2.59054,2.3458,11.9607,2.52092,5.85885,5.51689,2.02728,1.92597,2.43969,11.5083,3.9966,362.494,135.882
343,228.972,33.8571,47.6505,112.968,5.22257,0.896812,1.17609,8.7512,2.52092,3.41594,5.51689,2.02728,1.78455,2.27365,10.5498,3.66434,317.317,143.218
364,201.68,26.0868,39.4167,103.088,3.27807,3.54753,2.09515,8.7512,2.52092,4.23024,5.51689,2.02728,1.50171,1.7755,10.5498,3.35285,305.826,149.882
385,196.972,27.2723,36.9313,95.3546,0.695524,-0.0373967,2.3382,7.14648,2.52092,1.78733,4.65465,1.65233,1.36029,1.44341,9.5913,3.02059,263.79,155.849
406,173.659,21.3081,29.366,84.8127,2.38937,1.51962,5.86254,7.14648,2.52092,2.60163,5.51689,2.02728,1.07744,1.60946,8.63279,2.87523,275.399,161.754
427,173.683,25.8756,35.5846,86.5645,2.08554,4.20831,2.11793,7.14648,2.52092,2.60163,4.65465,1.65233,1.36029,1.60946,6.71575,2.48067,271.442,167.256
448,166.684,22.8232,29.0267,77.2913,0.277759,0.775289,3.5459,7.14648,1.62222,3.41594,2.93016,1.27738,0.93602,1.60946,8.63279,2.23148,287.048,173.114
469,175.516,18.0258,30.7032,79.916,2.45773,1.28417,3.2041,7.14648,2.52092,2.60163,3.79241,1.27738,0.93602,1.44341,7.67427,1.87845,279.497,179.127
490,159.572,15.3016,25.9344,72.4134,1.48548,3.11461,0.644398,6.34411,2.52092,2.60163,4.65465,0.902428,0.93602,1.27736,7.67427,1.67079,285.256,185.331
511,155.026,18.8828,26.3168,72.9316,0.763885,2.40825,1.29002,7.94884,0.723526,3.41594,4.65465,1.65233,1.07744,1.60946,9.5913,1.3593,248.984,191.126
532,132.909,16.215,27.1037,71.1659,2.00958,2.16521,1.50269,7.94884,1.62222,2.60163,3.79241,0.902428,1.07744,1.27736,6.71575,1.19317,241.699,196.317
553,126.309,14.5493,20.835,64.2396,2.10073,0.714527,3.91048,5.54175,1.62222,1.78733,2.93016,0.902428,0.794599,1.27736,5.75724,1.02704,203.589,200.753
574,127.264,11.0276,17.1389,60.7743,2.01718,4.93745,2.08755,5.54175,1.62222,1.78733,3.79241,0.902428,0.511755,1.11132,7.67427,0.694784,209.143,204.918
595,115.364,7.18225,13.1924,56.8148,0.125844,0.722122,1.35838,3.93702,0.723526,1.78733,2.06792,0.902428,0.653177,1.11132,6.71575,0.694784,177.828,208.821
616,93.6176,5.82623,8.70644,50.0072,0.634758,0.729717,0.279812,3.93702,0.723526,0.973025,2.06792,0.527475,0.511755,0.945271,4.79872,0.507889,147.507,212.176
637,86.8589,2.58265,6.30676,45.6459,0.665141,0.251221,0.553252,2.33229,-0.175169,0.973025,2.06792,0.527475,0.794599,1.27736,4.79872,0.487123,157.777,215.549
658,82.0275,2.60428,6.17529,43.2527,0.330929,0.182864,0.279812,3.93702,0.723526,1.78733,2.06792,1.27738,0.511755,0.945271,5.75724,0.362526,126.411,218.455
679,72.6424,3.73069,7.10978,43.3799,0.23978,2.23356,0.378554,3.13466,0.723526,0.15872,2.06792,0.527475,0.0874897,0.779224,4.79872,0.23793,111.633,220.949
700,65.3189,0.771562,4.26626,39.5714,0.771481,0.106912,-0.0543918,2.33229,-0.175169,0.973025,1.20568,1.27738,0.228912,0.779224,5.75724,0.196398,112.862,223.284
721,59.3155,-0.989428,1.82079,35.5038,0.0878658,0.00817448,0.0519458,3.93702,0.723526,0.973025,0.343436,0.152523,0.370333,0.779224,4.79872,0.217164,94.7662,225.337
742,44.5888,-2.8173,-0.297015,32.4567,0.0878658,0.198054,-0.0164141,2.33229,-0.175169,1.78733,1.20568,0.527475,0.228912,0.613177,4.79872,0.23793,98.2195,227.352
763,41.281,-4.03744,-1.74005,31.1633,0.171419,0.22084,-0.122752,2.33229,1.62222,1.78733,0.343436,0.527475,0.511755,0.613177,3.8402,0.175631,83.7809,229.254
784,43.429,-4.28768,-2.53051,29.7178,0.558801,2.40825,0.188666,3.13466,-0.175169,0.15872,1.20568,0.527475,0.370333,0.945271,3.8402,0.217164,93.4683,231.019
805,37.623,-5.71843,-2.63607,27.9201,0.0346957,0.387934,0.735545,1.52993,-0.175169,0.15872,1.20568,0.527475,0.228912,0.945271,2.88169,0.0302687,80.5781,232.652
826,39.8033,-5.26176,-3.19002,26.3246,-0.056453,-0.0753726,-0.107561,2.33229,0.723526,1.78733,-0.518807,0.902428,0.228912,0.945271,4.79872,0.0302687,89.5036,234.62
847,39.9975,-6.29898,-4.10583,25.434,0.0726743,0.0537456,-0.0316052,2.33229,1.62222,0.973025,1.20568,-0.222429,0.370333,0.447131,3.8402,-0.0112635,77.1187,236.353
868,36.9792,-6.19314,-4.35047,24.7048,0.201802,0.874026,0.910242,2.33229,0.723526,1.78733,1.20568,0.902428,0.370333,0.779224,3.8402,0.0510348,60.1062,237.908
889,31.7377,-5.32399,-4.41761,24.1479,-0.0260701,-0.105753,-0.168325,1.52993,-0.175169,0.973025,0.343436,0.152523,0.511755,0.613177,5.75724,0.0302687,63.9733,239.281
910,28.0601,-6.54538,-5.83182,22.7362,-0.056453,-0.0146111,0.727949,1.52993,0.723526,0.973025,0.343436,-0.222429,-0.053932,0.779224,3.8402,0.00950257,78.1671,240.738
931,25.856,-6.6185,-6.41253,22.1349,-0.056453,0.228435,-0.0240096,0.727567,0.723526,0.973025,1.20568,0.527475,0.228912,0.779224,3.8402,0.0302687,78.1709,242.391
952,25.8982,-8.08371,-7.17247,20.7911,-0.0488572,-0.0753726,-0.251876,1.52993,0.723526,-1.46989,2.06792,0.152523,0.370333,0.779224,2.88169,0.0510348,71.849,244
973,22.1949,-8.59491,-7.50587,19.8618,0.0601698,0.0332573,-0.131159,1.32029,0.644617,1.21795,0.802534,0.510349,0.178892,0.585554,4.66124,0.0465825,71.3912,245.449
994,17.0985,-8.59404,-7.68201,19.0438,-0.0412615,-0.0298015,0.0595414,1.52993,0.723526,-0.655584,0.343436,0.527475,0.228912,0.779224,3.8402,0.0302687,85.2065,246.992
1015,21.0735,-8.22469,-7.58727,19.2117,-0.0108786,0.160078,-0.115156,0.727567,-0.175169,1.78733,0.343436,-0.222429,0.370333,0.779224,4.79872,-0.13586,71.7366,248.576
1036,16.7193,-8.90857,-8.15282,18.321,-0.0792401,-0.0753726,-0.525316,0.727567,-0.175169,0.15872,2.06792,0.527475,0.228912,0.613177,3.8402,-0.13586,62.246,249.99
1057,14.8946,-8.46058,-7.39216,18.7931,0.194206,0.160078,0.424128,1.52993,0.723526,0.15872,0.343436,0.527475,0.0874897,0.447131,2.88169,-0.13586,72.1409,251.398
1078,15.8718,-8.1754,-7.49888,18.3093,0.216993,-0.0449918,-0.130347,1.52993,-1.07386,-0.655584,-0.518807,0.152523,0.228912,0.779224,3.8402,-0.156626,82.1224,253.034
1099,19.9658,-8.93771,-7.86842,18.1026,0.0271,0.182864,0.477296,0.727567,-0.175169,0.15872,1.20568,0.902428,0.0874897,0.613177,3.8402,-0.156626,62.2268,254.56
1120,19.1391,-9.47096,-7.42123,18.3467,-0.0716444,0.144888,0.598825,1.52993,-0.175169,0.15872,1.20568,-0.222429,0.0874897,0.945271,3.8402,-0.13586,58.7412,255.926
1141,18.7604,-9.37024,-7.94743,17.4553,-0.0336658,-0.105753,0.188666,2.33229,1.62222,1.78733,-0.518807,0.527475,0.228912,0.779224,3.8402,-0.156626,86.0168,257.273
1162,20.2695,-9.00042,-8.20535,17.6995,-0.0640487,0.486671,0.52287,0.727567,-2.87126,0.973025,-0.518807,-0.972334,0.0874897,0.945271,2.88169,-0.115094,112.299,259.534
1183,19.0001,-8.1211,-7.60124,17.2589,-0.0868359,-0.0298015,-0.221494,0.727567,-1.07386,0.15872,0.343436,0.527475,0.228912,0.447131,3.8402,-0.115094,126.672,262.013
1200,19.1184,-10.1797,-8.12762,17.775,0.0726743,0.0537456,0.469701,1.52993,0.723526,0.15872,0.343436,0.152523,0.0874897,0.779224,3.8402,-0.0735619,117.901,264.186