File: 01_Data/Window_Screen/HFM/Window_Screen_Density_Wet_R3.csv
,Wool_Rug_WET_3
Sample Mass [g],3.8
Sample Volume [cm3],10.2
Sample Density [kg/m3],371