File: 01_Data/Window_Screen/HFM/Window_Screen_Density_Wet_R1.csv
,Wool_Rug_WET_1
Sample Mass [g],3.7
Sample Volume [cm3],11.1
Sample Density [kg/m3],335