File: 01_Data/Cotton_Raw/Cone/Cotton_Raw_HRRPUA_35.csv
Time after Ignition,Cotton_Raw_R1,Cotton_Raw_R2,Cotton_Raw_R3,Mean,Std. Dev.
0.0,24.9,23.3,27.1,25.1,1.9
0.5,30.6,28.4,33.4,30.8,2.5
1.0,36.1,32.6,39.7,36.1,3.6
1.5,40.6,36.7,43.9,40.4,3.7
2.0,42.9,39.9,46.6,43.1,3.3
2.5,46.6,43.0,49.8,46.4,3.4
3.0,49.1,46.8,52.2,49.4,2.7
3.5,50.4,48.7,53.8,51.0,2.6
4.0,51.7,50.5,54.8,52.3,2.2
4.5,52.7,52.8,56.5,54.0,2.1
5.0,53.6,53.8,57.3,54.9,2.1
5.5,54.1,55.2,56.0,55.1,1.0
6.0,55.3,57.1,58.2,56.9,1.4
6.5,56.4,59.4,57.1,57.7,1.6
7.0,55.5,59.5,58.1,57.7,2.0
7.5,56.3,62.7,57.7,58.9,3.3
8.0,56.1,64.1,56.9,59.0,4.4
8.5,56.7,64.7,57.5,59.6,4.4
9.0,57.5,67.1,57.8,60.8,5.4
9.5,58.0,67.8,56.8,60.9,6.0
10.0,57.8,68.8,57.3,61.3,6.5
10.5,59.7,69.2,57.7,62.2,6.2
11.0,59.0,70.2,57.1,62.1,7.1
11.5,59.5,71.2,57.7,62.8,7.3
12.0,61.3,70.8,57.3,63.1,6.9
12.5,62.1,71.0,58.7,63.9,6.4
13.0,62.7,70.9,58.2,63.9,6.4
13.5,63.2,71.3,58.8,64.4,6.3
14.0,64.1,72.5,59.9,65.5,6.4
14.5,64.3,71.9,61.9,66.0,5.2
15.0,65.9,71.2,63.3,66.8,4.0
15.5,66.1,71.8,64.1,67.3,4.0
16.0,66.6,72.4,65.8,68.3,3.6
16.5,65.9,71.6,68.0,68.5,2.9
17.0,66.0,74.0,70.1,70.0,4.0
17.5,67.0,71.8,72.8,70.5,3.1
18.0,66.6,72.5,74.7,71.3,4.2
18.5,66.8,72.4,75.2,71.5,4.3
19.0,67.2,72.1,78.0,72.5,5.4
19.5,66.2,71.8,77.2,71.7,5.5
20.0,66.5,71.8,78.9,72.4,6.2
20.5,66.4,71.3,80.9,72.9,7.4
21.0,66.7,71.4,81.6,73.2,7.6
21.5,64.7,70.9,82.6,72.8,9.1
22.0,65.3,70.9,81.6,72.6,8.3
22.5,66.4,71.9,83.4,73.9,8.7
23.0,65.5,71.3,81.7,72.8,8.2
23.5,65.0,69.1,82.5,72.2,9.2
24.0,65.3,70.2,81.8,72.4,8.5
24.5,64.7,70.3,84.2,73.1,10.0
25.0,65.2,69.5,82.9,72.5,9.2
25.5,63.5,69.3,81.3,71.4,9.1
26.0,63.5,68.1,82.8,71.5,10.1
26.5,63.4,68.0,83.4,71.6,10.5
27.0,63.3,68.3,82.2,71.3,9.7
27.5,61.9,67.9,84.2,71.3,11.5
28.0,62.9,67.2,83.7,71.3,11.0
28.5,61.3,67.1,81.8,70.1,10.6
29.0,61.6,67.1,83.2,70.6,11.2
29.5,59.9,66.3,82.2,69.5,11.5
30.0,60.5,67.3,83.1,70.3,11.6
30.5,60.4,66.7,83.2,70.1,11.8
31.0,59.5,67.0,82.8,69.8,11.9
31.5,58.2,65.9,82.2,68.8,12.2
32.0,59.1,65.0,82.4,68.8,12.1
32.5,57.9,65.1,82.6,68.5,12.7
33.0,58.2,65.8,81.5,68.5,11.9
33.5,57.3,64.2,82.0,67.8,12.7
34.0,56.2,65.2,81.6,67.7,12.9
34.5,55.2,63.7,81.8,66.9,13.6
35.0,55.3,64.4,81.7,67.1,13.4
35.5,55.5,62.4,81.4,66.4,13.4
36.0,55.8,62.0,81.8,66.6,13.6
36.5,56.1,63.1,81.1,66.7,12.9
37.0,55.0,62.7,81.0,66.2,13.4
37.5,55.6,61.5,81.4,66.2,13.5
38.0,54.4,62.0,80.5,65.6,13.4
38.5,55.1,62.5,80.6,66.1,13.2
39.0,54.5,61.8,80.3,65.5,13.3
39.5,54.9,60.8,80.3,65.4,13.3
40.0,55.4,60.1,79.2,64.9,12.6
40.5,54.6,61.0,79.5,65.1,12.9
41.0,54.8,61.3,80.2,65.4,13.2
41.5,54.8,60.3,78.2,64.4,12.2
42.0,54.2,60.1,79.8,64.7,13.4
42.5,53.7,59.5,78.6,63.9,13.1
43.0,54.2,60.5,79.0,64.6,12.9
43.5,53.5,60.3,77.5,63.8,12.4
44.0,54.0,59.6,79.4,64.3,13.4
44.5,52.5,59.5,78.1,63.4,13.2
45.0,52.7,59.8,78.1,63.5,13.1
45.5,51.6,59.5,78.8,63.3,14.0
46.0,52.0,58.4,77.9,62.8,13.5
46.5,51.3,59.0,77.3,62.5,13.3
47.0,51.5,58.9,77.0,62.5,13.1
47.5,51.4,58.0,76.8,62.1,13.2
48.0,51.0,59.7,76.8,62.5,13.1
48.5,50.8,59.6,76.4,62.3,13.0
49.0,49.5,59.6,77.4,62.2,14.1
49.5,49.7,58.9,77.8,62.1,14.3
50.0,49.7,58.6,76.9,61.7,13.9
50.5,49.7,57.7,77.2,61.5,14.1
51.0,48.6,58.0,75.7,60.7,13.7
51.5,49.3,57.8,76.4,61.2,13.9
52.0,49.1,57.6,77.7,61.5,14.7
52.5,49.0,57.7,76.4,61.0,14.0
53.0,49.6,57.1,78.0,61.6,14.7
53.5,49.4,56.7,76.5,60.9,14.0
54.0,48.3,56.3,76.8,60.4,14.7
54.5,48.3,56.1,75.9,60.1,14.2
55.0,48.5,57.2,74.2,59.9,13.1
55.5,47.6,55.6,76.8,60.0,15.1
56.0,46.8,56.2,76.3,59.8,15.1
56.5,46.6,55.7,76.3,59.5,15.2
57.0,46.2,55.0,75.8,59.0,15.2
57.5,46.1,55.2,75.8,59.1,15.2
58.0,45.7,54.8,75.4,58.6,15.2
58.5,45.5,55.3,76.3,59.0,15.8
59.0,44.6,54.2,75.9,58.2,16.1
59.5,44.5,54.4,75.6,58.1,15.9
60.0,43.3,54.8,75.9,58.0,16.5
60.5,43.1,53.8,75.7,57.5,16.6
61.0,42.6,54.3,76.3,57.7,17.1
61.5,42.7,53.6,75.9,57.4,16.9
62.0,42.1,52.6,76.4,57.0,17.6
62.5,41.6,52.5,75.4,56.5,17.2
63.0,41.3,52.4,77.1,56.9,18.3
63.5,41.8,50.6,75.0,55.8,17.2
64.0,41.0,51.1,75.5,55.9,17.7
64.5,41.3,50.5,74.2,55.3,17.0
65.0,41.3,50.4,73.4,55.0,16.5
65.5,40.5,50.1,72.3,54.3,16.3
66.0,39.8,48.9,72.8,53.9,17.0
66.5,39.9,49.2,73.0,54.0,17.1
67.0,40.1,48.9,72.4,53.8,16.7
67.5,40.1,48.6,72.9,53.9,17.0
68.0,39.8,49.2,71.1,53.4,16.1
68.5,39.0,49.0,72.0,53.3,16.9
69.0,39.6,48.0,72.7,53.4,17.2
69.5,39.0,47.9,71.6,52.8,16.9
70.0,39.1,47.6,72.1,52.9,17.1
70.5,38.8,47.9,70.6,52.4,16.4
71.0,39.0,48.4,70.9,52.8,16.4
71.5,38.3,47.4,70.0,51.9,16.3
72.0,38.1,47.3,69.5,51.6,16.1
72.5,37.9,47.7,70.0,51.9,16.5
73.0,38.1,46.1,69.7,51.3,16.4
73.5,37.2,46.4,68.7,50.8,16.2
74.0,37.2,45.4,68.2,50.2,16.0
74.5,38.0,45.5,68.2,50.5,15.7
75.0,37.4,45.6,67.9,50.3,15.8
75.5,37.3,44.4,67.8,49.9,15.9
76.0,37.1,44.3,66.2,49.2,15.1
76.5,37.3,43.7,66.7,49.2,15.4
77.0,36.8,44.5,65.9,49.0,15.1
77.5,36.9,43.8,66.9,49.2,15.7
78.0,36.8,42.8,65.6,48.4,15.2
78.5,37.0,42.5,66.9,48.8,15.9
79.0,37.2,42.0,66.1,48.4,15.4
79.5,37.2,42.0,65.5,48.2,15.1
80.0,37.2,41.6,65.4,48.0,15.2
80.5,37.3,41.0,65.1,47.8,15.1
81.0,37.1,41.4,64.3,47.6,14.6
81.5,37.3,40.3,64.8,47.4,15.1
82.0,37.2,40.2,63.7,47.0,14.5
82.5,37.0,39.7,63.9,46.9,14.8
83.0,37.3,38.9,62.7,46.3,14.2
83.5,37.7,39.0,62.7,46.5,14.1
84.0,36.9,38.8,63.9,46.5,15.1
84.5,36.8,37.9,63.2,46.0,14.9
85.0,37.0,38.3,63.5,46.3,14.9
85.5,37.4,37.2,63.0,45.9,14.8
86.0,37.7,37.5,62.7,46.0,14.5
86.5,36.4,36.7,62.6,45.2,15.0
87.0,37.2,36.4,63.0,45.5,15.1
87.5,36.6,36.6,62.8,45.4,15.1
88.0,37.1,35.9,62.5,45.2,15.0
88.5,37.2,35.7,63.2,45.3,15.5
89.0,37.7,35.0,62.7,45.1,15.3
89.5,37.4,34.7,62.5,44.9,15.3
90.0,37.2,33.8,62.1,44.4,15.5
90.5,37.3,33.9,62.1,44.5,15.4
91.0,36.9,33.0,61.8,43.9,15.6
91.5,37.0,32.7,62.1,43.9,15.8
92.0,37.1,31.9,62.1,43.7,16.2
92.5,36.7,31.1,62.4,43.4,16.7
93.0,37.6,30.3,61.1,43.0,16.1
93.5,37.6,30.0,62.6,43.4,17.0
94.0,37.2,29.2,60.8,42.4,16.4
94.5,36.7,29.5,61.3,42.5,16.7
95.0,37.1,29.2,59.8,42.0,15.9
95.5,36.9,28.9,60.9,42.3,16.7
96.0,37.8,28.5,59.9,42.0,16.1
96.5,37.3,28.0,58.9,41.4,15.8
97.0,36.9,28.2,58.9,41.3,15.8
97.5,37.1,28.4,59.3,41.6,15.9
98.0,36.3,27.9,57.5,40.6,15.3
98.5,36.7,27.7,58.5,41.0,15.8
99.0,36.7,,57.9,47.3,15.0
99.5,36.1,,56.7,46.4,14.6
100.0,36.1,,56.6,46.4,14.5
100.5,36.2,,56.4,46.3,14.3
101.0,36.3,,56.6,46.5,14.3
101.5,36.2,,55.1,45.7,13.3
102.0,37.1,,54.7,45.9,12.5
102.5,37.3,,55.0,46.1,12.6
103.0,37.1,,54.7,45.9,12.5
103.5,37.3,,54.6,45.9,12.2
104.0,37.2,,53.3,45.3,11.4
104.5,37.4,,53.2,45.3,11.2
105.0,37.6,,52.3,44.9,10.4
105.5,37.9,,52.1,45.0,10.1
106.0,37.1,,51.8,44.4,10.4
106.5,37.7,,52.8,45.2,10.7
107.0,37.8,,52.1,44.9,10.1
107.5,37.4,,50.9,44.2,9.6
108.0,37.6,,51.8,44.7,10.1
108.5,37.0,,52.0,44.5,10.6
109.0,36.9,,52.0,44.4,10.7
109.5,36.8,,51.4,44.1,10.3
110.0,36.9,,51.0,43.9,10.0
110.5,37.0,,50.9,44.0,9.8
111.0,36.6,,50.9,43.8,10.1
111.5,36.7,,50.6,43.7,9.8
112.0,36.7,,50.3,43.5,9.6
112.5,36.2,,50.1,43.1,9.8
113.0,36.8,,50.4,43.6,9.6
113.5,36.2,,49.2,42.7,9.1
114.0,35.9,,49.2,42.6,9.4
114.5,36.7,,48.6,42.6,8.4
115.0,35.8,,48.2,42.0,8.8
115.5,35.5,,47.2,41.3,8.3
116.0,35.2,,47.6,41.4,8.7
116.5,35.5,,47.0,41.2,8.1
117.0,35.4,,47.5,41.5,8.5
117.5,34.6,,46.7,40.7,8.6
118.0,34.6,,46.4,40.5,8.4
118.5,34.7,,45.7,40.2,7.8
119.0,34.8,,45.8,40.3,7.8
119.5,34.2,,45.2,39.7,7.8
120.0,34.0,,45.3,39.7,8.0
120.5,34.7,,44.2,39.4,6.7
121.0,34.0,,44.7,39.3,7.6
121.5,33.5,,43.7,38.6,7.2
122.0,33.9,,43.5,38.7,6.8
122.5,33.8,,43.8,38.8,7.1
123.0,34.1,,43.7,38.9,6.9
123.5,33.3,,43.4,38.4,7.1
124.0,33.5,,43.1,38.3,6.8
124.5,33.5,,42.2,37.9,6.1
125.0,33.3,,41.6,37.5,5.9
125.5,32.8,,42.0,37.4,6.5
126.0,32.7,,41.7,37.2,6.4
126.5,32.9,,40.5,36.7,5.4
127.0,32.3,,40.6,36.5,5.9
127.5,32.0,,40.4,36.2,5.9
128.0,32.1,,39.5,35.8,5.2
128.5,31.7,,39.3,35.5,5.4
129.0,31.2,,39.0,35.1,5.5
129.5,31.4,,38.4,34.9,5.0
130.0,31.2,,38.2,34.7,4.9
130.5,30.4,,38.5,34.5,5.8
131.0,29.9,,38.1,34.0,5.8
131.5,30.1,,38.1,34.1,5.7
132.0,29.6,,37.7,33.7,5.8
132.5,30.0,,38.3,34.1,5.9
133.0,28.9,,38.1,33.5,6.5
133.5,28.9,,37.8,33.4,6.3
134.0,29.2,,37.4,33.3,5.8
134.5,28.9,,37.3,33.1,6.0
135.0,28.2,,37.0,32.6,6.2
135.5,28.4,,36.5,32.5,5.8
136.0,28.3,,36.1,32.2,5.5
136.5,27.9,,36.2,32.0,5.9
137.0,27.4,,35.4,31.4,5.6
137.5,27.7,,35.3,31.5,5.4
138.0,27.4,,34.8,31.1,5.2
138.5,26.9,,34.1,30.5,5.1
139.0,27.1,,33.8,30.4,4.7
139.5,26.6,,33.4,30.0,4.8
140.0,26.2,,,26.2,
140.5,26.3,,,26.3,
141.0,26.1,,,26.1,
141.5,25.9,,,25.9,
142.0,25.3,,,25.3,
142.5,25.6,,,25.6,
143.0,25.4,,,25.4,
143.5,25.3,,,25.3,
144.0,25.6,,,25.6,
144.5,25.2,,,25.2,
144.75,25.2,,,25.2,