File: 01_Data/Cotton_Raw/Cone/Cotton_Raw_HRRPUA_25.csv
Time after Ignition,Cotton_Raw_R1,Cotton_Raw_R2,Cotton_Raw_R3,Mean,Std. Dev.
0.0,15.1,24.9,17.1,19.0,5.2
0.5,22.8,30.3,23.2,25.4,4.3
1.0,29.0,35.4,26.4,30.3,4.7
1.5,34.9,39.3,31.6,35.2,3.8
2.0,39.3,42.0,35.8,39.0,3.1
2.5,42.7,44.9,38.4,42.0,3.3
3.0,46.2,47.7,42.3,45.4,2.8
3.5,48.8,48.8,44.0,47.2,2.7
4.0,50.0,51.7,46.0,49.2,2.9
4.5,52.3,53.3,47.7,51.1,3.0
5.0,53.5,53.6,48.9,52.0,2.7
5.5,53.1,55.1,49.6,52.6,2.8
6.0,54.4,57.1,50.2,53.9,3.5
6.5,55.4,58.0,51.4,54.9,3.4
7.0,54.4,58.5,51.6,54.8,3.4
7.5,56.0,60.0,51.3,55.7,4.4
8.0,55.8,59.5,52.1,55.8,3.7
8.5,56.0,60.9,52.1,56.4,4.4
9.0,57.3,61.0,53.3,57.2,3.9
9.5,57.4,62.1,53.9,57.8,4.1
10.0,56.2,61.7,53.6,57.2,4.1
10.5,56.9,60.9,53.5,57.1,3.7
11.0,57.5,62.7,55.7,58.7,3.6
11.5,58.2,62.2,54.5,58.3,3.8
12.0,58.5,61.6,55.0,58.4,3.3
12.5,59.2,63.0,54.9,59.0,4.0
13.0,58.4,62.8,56.1,59.1,3.4
13.5,59.8,62.8,56.8,59.8,3.0
14.0,59.0,61.6,57.6,59.4,2.0
14.5,60.1,62.4,57.5,60.0,2.4
15.0,60.6,62.4,57.5,60.2,2.5
15.5,60.5,61.1,57.8,59.8,1.8
16.0,59.1,61.6,58.5,59.7,1.7
16.5,61.7,61.8,57.5,60.3,2.5
17.0,60.2,62.1,58.0,60.1,2.1
17.5,60.1,60.7,58.5,59.8,1.2
18.0,59.9,61.9,59.2,60.3,1.4
18.5,59.9,61.9,59.0,60.2,1.5
19.0,59.9,61.3,59.3,60.2,1.0
19.5,60.3,61.0,59.6,60.3,0.7
20.0,59.8,60.7,59.1,59.9,0.8
20.5,59.0,61.2,59.4,59.9,1.2
21.0,57.4,62.2,58.7,59.5,2.5
21.5,57.6,61.1,59.0,59.2,1.8
22.0,57.0,60.2,58.2,58.4,1.6
22.5,57.9,61.7,57.6,59.0,2.3
23.0,56.7,61.5,58.0,58.8,2.5
23.5,56.0,62.7,58.1,58.9,3.4
24.0,56.2,62.3,57.5,58.6,3.2
24.5,56.8,61.7,57.9,58.8,2.5
25.0,55.3,62.2,57.6,58.4,3.5
25.5,55.1,62.3,57.5,58.3,3.7
26.0,54.7,61.9,56.9,57.9,3.7
26.5,54.8,62.0,56.4,57.7,3.8
27.0,53.8,61.6,57.0,57.4,3.9
27.5,53.3,61.9,57.0,57.4,4.3
28.0,53.6,61.1,57.0,57.2,3.8
28.5,52.1,61.2,56.6,56.6,4.5
29.0,52.1,61.1,56.1,56.4,4.5
29.5,52.0,60.7,55.8,56.2,4.4
30.0,52.0,61.4,55.6,56.3,4.8
30.5,50.2,60.6,56.3,55.7,5.2
31.0,49.6,60.6,56.1,55.4,5.5
31.5,49.5,59.8,55.1,54.8,5.2
32.0,50.1,59.5,55.1,54.9,4.7
32.5,50.0,59.5,55.8,55.1,4.8
33.0,49.2,59.1,54.5,54.3,5.0
33.5,49.2,59.5,54.2,54.3,5.2
34.0,48.8,60.4,54.3,54.5,5.8
34.5,49.0,60.4,53.9,54.4,5.7
35.0,49.1,60.1,53.2,54.2,5.6
35.5,49.1,59.3,53.3,53.9,5.2
36.0,48.2,59.0,53.7,53.6,5.4
36.5,47.8,59.5,53.3,53.5,5.9
37.0,47.7,59.5,54.1,53.8,5.9
37.5,47.9,59.2,54.5,53.9,5.7
38.0,47.0,58.6,54.1,53.2,5.9
38.5,47.4,59.1,53.9,53.5,5.9
39.0,47.2,59.1,54.2,53.5,6.0
39.5,46.8,58.4,54.6,53.3,5.9
40.0,46.8,58.4,54.7,53.3,5.9
40.5,45.4,58.4,55.6,53.1,6.9
41.0,45.2,58.4,54.1,52.5,6.7
41.5,44.9,58.3,54.2,52.5,6.9
42.0,44.5,56.9,54.3,51.9,6.6
42.5,44.5,58.1,54.4,52.3,7.0
43.0,44.2,57.2,53.2,51.5,6.7
43.5,44.5,57.3,53.8,51.9,6.7
44.0,43.4,57.6,53.1,51.4,7.3
44.5,43.1,56.9,53.7,51.2,7.2
45.0,42.8,55.8,54.0,50.9,7.0
45.5,42.8,55.6,53.1,50.5,6.8
46.0,42.2,56.1,53.7,50.7,7.4
46.5,41.8,56.9,52.1,50.3,7.7
47.0,41.6,55.7,52.4,49.9,7.3
47.5,41.1,56.4,52.3,49.9,7.9
48.0,40.8,56.1,51.2,49.4,7.8
48.5,40.3,56.7,51.4,49.4,8.4
49.0,40.2,55.4,50.0,48.5,7.7
49.5,39.1,55.2,49.6,48.0,8.1
50.0,38.8,55.3,49.6,47.9,8.4
50.5,39.0,56.2,48.9,48.0,8.6
51.0,38.4,55.2,48.1,47.2,8.4
51.5,38.0,55.6,48.2,47.3,8.8
52.0,38.3,54.1,48.3,46.9,8.0
52.5,37.4,54.9,47.2,46.5,8.7
53.0,38.1,54.1,47.6,46.6,8.1
53.5,38.1,53.1,46.8,46.0,7.5
54.0,37.3,53.8,46.5,45.9,8.3
54.5,37.8,53.6,45.8,45.8,7.9
55.0,37.4,52.5,45.0,45.0,7.5
55.5,37.4,52.9,44.5,44.9,7.7
56.0,38.1,52.6,44.8,45.1,7.3
56.5,38.2,52.3,44.4,45.0,7.1
57.0,38.6,51.8,44.4,44.9,6.6
57.5,38.3,52.1,43.1,44.5,7.0
58.0,38.2,51.6,42.8,44.2,6.8
58.5,37.7,51.8,42.4,44.0,7.2
59.0,38.0,52.8,42.3,44.4,7.6
59.5,37.4,51.9,41.6,43.6,7.5
60.0,37.2,51.5,42.1,43.6,7.3
60.5,37.3,50.9,41.7,43.3,6.9
61.0,36.6,50.3,41.3,42.7,6.9
61.5,36.0,49.6,41.8,42.5,6.8
62.0,35.4,50.1,40.8,42.1,7.4
62.5,34.8,49.3,40.9,41.7,7.3
63.0,34.2,49.4,40.7,41.5,7.6
63.5,34.3,49.1,40.2,41.2,7.4
64.0,33.7,48.7,40.2,40.9,7.5
64.5,33.2,48.4,39.8,40.4,7.6
65.0,33.2,49.0,39.5,40.6,7.9
65.5,33.4,48.0,39.2,40.2,7.3
66.0,32.4,48.3,39.2,40.0,8.0
66.5,32.2,47.6,38.9,39.6,7.7
67.0,32.0,47.4,38.4,39.3,7.7
67.5,32.2,47.5,38.4,39.4,7.7
68.0,32.0,47.1,38.5,39.2,7.6
68.5,31.7,47.5,38.5,39.2,7.9
69.0,31.4,46.7,39.0,39.1,7.7
69.5,30.5,45.9,38.1,38.2,7.7
70.0,30.7,45.5,38.5,38.2,7.4
70.5,31.0,45.0,38.5,38.2,7.0
71.0,30.7,45.4,38.5,38.2,7.3
71.5,29.9,45.1,38.7,37.9,7.6
72.0,30.3,44.4,39.2,37.9,7.1
72.5,30.0,44.7,39.2,38.0,7.4
73.0,30.1,43.8,38.7,37.6,6.9
73.5,29.7,43.1,39.4,37.4,6.9
74.0,29.8,42.5,38.9,37.1,6.6
74.5,29.5,41.8,38.4,36.6,6.4
75.0,29.1,41.0,38.4,36.2,6.2
75.5,29.1,40.4,38.3,35.9,6.0
76.0,28.8,40.1,38.3,35.7,6.1
76.5,29.0,40.3,38.2,35.8,6.0
77.0,29.1,39.5,37.9,35.5,5.6
77.5,29.3,39.7,38.4,35.8,5.7
78.0,29.0,39.7,38.4,35.7,5.9
78.5,29.1,38.9,38.2,35.4,5.5
79.0,28.7,38.7,38.4,35.3,5.7
79.5,29.0,38.7,37.1,35.0,5.2
80.0,28.6,39.6,36.8,35.0,5.7
80.5,29.1,39.3,36.1,34.8,5.2
81.0,29.1,38.8,35.5,34.4,4.9
81.5,29.2,38.7,35.3,34.4,4.8
82.0,28.9,39.1,34.6,34.2,5.1
82.5,29.7,37.7,34.5,34.0,4.0
83.0,28.5,37.7,34.2,33.5,4.6
83.5,29.0,37.6,33.7,33.4,4.3
84.0,29.0,37.1,33.1,33.1,4.1
84.5,29.3,36.9,32.7,32.9,3.8
85.0,28.9,36.9,32.4,32.7,4.0
85.5,28.9,37.1,32.4,32.8,4.1
86.0,29.1,36.1,31.4,32.2,3.6
86.5,29.0,36.4,31.6,32.3,3.7
87.0,29.0,36.5,31.4,32.3,3.8
87.5,28.9,36.2,31.0,32.0,3.8
88.0,28.9,36.0,30.3,31.7,3.8
88.5,29.6,37.1,30.6,32.4,4.1
89.0,29.3,36.3,30.3,32.0,3.8
89.5,29.1,36.1,30.6,31.9,3.7
90.0,29.4,36.3,30.0,31.9,3.8
90.5,29.8,36.0,30.1,32.0,3.5
91.0,29.6,35.6,30.1,31.8,3.4
91.5,29.7,36.0,30.1,31.9,3.5
92.0,29.7,36.1,30.2,32.0,3.6
92.5,30.0,35.8,30.1,32.0,3.3
93.0,30.1,35.7,29.9,31.9,3.3
93.5,30.1,35.8,29.4,31.8,3.5
94.0,29.7,35.8,29.8,31.7,3.5
94.5,29.8,35.3,29.0,31.4,3.4
95.0,29.7,36.1,28.6,31.5,4.1
95.5,29.7,35.6,28.3,31.2,3.9
96.0,29.6,34.9,28.4,31.0,3.4
96.5,29.6,35.1,28.0,30.9,3.7
97.0,29.4,35.5,27.4,30.8,4.2
97.5,29.4,35.2,27.5,30.7,4.0
98.0,28.9,35.3,26.7,30.3,4.5
98.5,29.2,34.7,26.3,30.1,4.2
99.0,28.5,35.0,25.8,29.8,4.7
99.5,29.3,34.9,25.9,30.0,4.5
100.0,28.4,34.7,25.6,29.6,4.6
100.5,28.5,35.0,25.2,29.6,5.0
101.0,28.5,34.5,25.6,29.6,4.5
101.5,28.4,34.1,,31.2,4.0
102.0,28.0,33.7,,30.8,4.1
102.5,27.8,33.1,,30.5,3.7
103.0,27.3,32.2,,29.7,3.5
103.5,27.6,31.2,,29.4,2.6
104.0,26.8,,,26.8,
104.5,26.2,,,26.2,
105.0,26.1,,,26.1,
105.5,25.7,,,25.7,
106.0,25.4,,,25.4,