File: 01_Data/Masonite_Board/HFM/Masonite_Board_Density_Dry_R3.csv
,Luan_Panel_WET_3
Sample Mass [g],130.3
Sample Volume [cm3],124.1
Sample Density [kg/m3],1051