File: 01_Data/Masonite_Board/HFM/Masonite_Board_Density_Dry_R1.csv
,Luan_Panel_WET_1
Sample Mass [g],129.4
Sample Volume [cm3],119.9
Sample Density [kg/m3],1080