File: 01_Data/Masonite_Board/HFM/Masonite_Board_Density_Dry_R2.csv
,Luan_Panel_WET_2
Sample Mass [g],128
Sample Volume [cm3],119.2
Sample Density [kg/m3],1075