File: 01_Data/Masonite_Board/HFM/Masonite_Board_Density_Wet_R1.csv
,Masonite_Board_WET_1
Sample Mass [g],136.5
Sample Volume [cm3],119.9
Sample Density [kg/m3],1138