File: 01_Data/Masonite_Board/HFM/Masonite_Board_Density_Wet_R2.csv
,Luan_Panel_WET_2
Sample Mass [g],135.1
Sample Volume [cm3],119.2
Sample Density [kg/m3],1134