File: 01_Data/Masonite_Board/HFM/Masonite_Board_Density_Wet_R3.csv
,Luan_Panel_WET_3
Sample Mass [g],137.7
Sample Volume [cm3],124.1
Sample Density [kg/m3],1110