File: 01_Data/Rug_Pad/Cone/Rug_Pad_HRRPUA_50.csv
Time after Ignition,Rug_Pad_R1,Rug_Pad_R2,Rug_Pad_R3,Mean,Std. Dev.
0.0,4.4,-0.4,2.3,2.1,2.4
0.75,9.5,0.9,9.6,6.7,5.0
1.5,17.3,6.1,20.8,14.8,7.7
2.25,28.5,16.0,34.1,26.2,9.2
3.0,43.9,30.1,49.7,41.2,10.1
3.75,58.4,52.2,58.8,56.4,3.7
4.5,73.8,74.8,76.6,75.1,1.4
5.25,89.4,97.7,93.7,93.6,4.1
6.0,104.6,110.7,110.2,108.5,3.4
6.75,117.8,128.9,125.8,124.2,5.8
7.5,133.5,143.9,142.0,139.8,5.5
8.25,150.8,161.0,158.2,156.7,5.2
9.0,165.2,175.5,166.0,168.9,5.7
9.75,183.3,191.2,182.5,185.7,4.8
10.5,201.1,207.2,195.0,201.1,6.1
11.25,216.8,226.6,200.8,214.7,13.0
12.0,234.4,241.5,214.5,230.2,14.0
12.75,252.0,252.2,228.7,244.3,13.5
13.5,261.0,274.7,244.3,260.0,15.3
14.25,281.3,278.2,256.1,271.9,13.7
15.0,295.1,298.6,274.6,289.4,13.0
15.75,317.6,311.3,284.5,304.5,17.5
16.5,323.7,321.2,286.0,310.3,21.1
17.25,334.9,327.0,291.8,317.9,22.9
18.0,342.8,328.9,299.5,323.8,22.1
18.75,343.3,338.4,310.8,330.9,17.5
19.5,349.3,345.3,315.8,336.8,18.3
20.25,347.9,346.7,322.0,338.9,14.6
21.0,348.7,336.3,324.1,336.4,12.3
21.75,354.3,339.1,319.6,337.7,17.4
22.5,349.3,334.0,309.8,331.0,19.9
23.25,333.7,323.8,309.6,322.4,12.1
24.0,319.6,317.3,306.2,314.3,7.2
24.75,302.4,301.5,295.1,299.7,4.0
25.5,280.5,278.9,286.3,281.9,3.9
26.25,266.9,263.6,279.2,269.9,8.2
27.0,256.6,248.1,269.4,258.0,10.7
27.75,241.9,230.8,251.5,241.4,10.3
28.5,228.9,220.9,240.0,230.0,9.6
29.25,216.2,204.5,225.8,215.5,10.6
30.0,204.1,189.9,216.4,203.5,13.2
30.75,185.9,180.7,213.4,193.3,17.6
31.5,179.1,166.4,197.5,181.0,15.6
32.25,162.3,152.8,186.7,167.2,17.5
33.0,152.8,141.5,176.9,157.1,18.1
33.75,143.9,133.1,167.7,148.2,17.7
34.5,133.5,122.8,158.7,138.4,18.4
35.25,124.9,114.7,150.6,130.1,18.5
36.0,116.8,109.2,137.5,121.1,14.7
36.75,109.9,100.2,131.3,113.8,15.9
37.5,104.1,94.2,123.3,107.2,14.8
38.25,99.1,88.6,119.0,102.3,15.4
39.0,93.7,81.8,112.2,95.9,15.3
39.75,87.5,77.3,106.8,90.5,15.0
40.5,83.5,72.5,103.5,86.5,15.7
41.25,81.6,69.2,95.5,82.1,13.1
42.0,79.1,65.8,92.9,79.3,13.5
42.75,74.6,62.5,88.0,75.0,12.7
43.5,71.6,60.1,84.2,71.9,12.0
44.25,68.3,57.9,81.3,69.1,11.7
45.0,65.8,56.1,77.7,66.5,10.9
45.75,63.1,55.0,75.3,64.5,10.3
46.5,61.8,52.0,73.4,62.4,10.7
47.25,60.5,50.2,71.1,60.6,10.4
48.0,58.7,48.4,68.8,58.6,10.2
48.75,56.6,47.2,67.6,57.1,10.2
49.5,55.8,46.4,65.2,55.8,9.4
50.25,55.3,45.1,64.4,54.9,9.7
51.0,53.7,43.7,65.8,54.4,11.1
51.75,53.0,42.4,62.8,52.7,10.2
52.5,51.6,42.9,61.9,52.1,9.5
53.25,50.5,41.8,59.7,50.7,8.9
54.0,49.7,41.6,60.1,50.5,9.3
54.75,49.1,40.6,59.8,49.8,9.6
55.5,47.9,41.3,58.6,49.3,8.7
56.25,47.6,39.4,57.5,48.2,9.1
57.0,46.8,38.8,57.4,47.6,9.4
57.75,45.6,38.9,55.5,46.7,8.3
58.5,45.3,38.0,54.9,46.1,8.5
59.25,44.2,37.6,54.4,45.4,8.4
60.0,43.7,36.3,53.8,44.6,8.8
60.75,43.1,35.5,53.4,44.0,9.0
61.5,42.8,36.0,53.0,44.0,8.6
62.25,41.9,34.9,51.9,42.9,8.5
63.0,41.3,34.4,51.5,42.4,8.6
63.75,41.2,34.3,51.4,42.3,8.6
64.5,40.3,33.6,50.2,41.4,8.4
65.25,40.3,33.3,49.4,41.0,8.1
66.0,39.2,33.1,49.7,40.7,8.4
66.75,39.1,32.9,49.2,40.4,8.2
67.5,39.0,32.7,49.3,40.3,8.4
68.25,37.6,32.8,48.2,39.5,7.9
69.0,37.1,32.2,47.9,39.1,8.0
69.75,36.8,32.6,47.0,38.8,7.4
70.5,36.2,32.3,46.5,38.3,7.3
71.25,35.4,32.1,46.4,38.0,7.5
72.0,35.2,32.0,46.2,37.8,7.5
72.75,34.3,31.3,46.3,37.3,7.9
73.5,33.9,31.5,45.3,36.9,7.4
74.25,33.5,30.7,45.3,36.5,7.7
75.0,32.8,30.9,44.8,36.2,7.5
75.75,32.4,30.5,44.1,35.6,7.3
76.5,31.5,30.2,43.5,35.1,7.3
77.25,30.9,30.0,43.4,34.8,7.5
78.0,30.3,29.9,42.6,34.3,7.2
78.75,29.9,29.6,41.8,33.7,6.9
79.5,29.5,29.3,41.4,33.4,6.9
80.25,29.3,29.1,40.7,33.0,6.7
81.0,28.9,28.8,40.9,32.8,7.0
81.75,28.7,28.9,39.8,32.5,6.4
82.5,28.8,28.2,39.5,32.1,6.4
83.25,28.2,28.1,38.3,31.5,5.9
84.0,27.7,28.0,37.8,31.2,5.8
84.75,27.5,27.7,37.1,30.8,5.5
85.5,27.3,27.3,37.0,30.5,5.6
86.25,27.1,27.6,36.8,30.5,5.5
87.0,27.5,27.4,36.3,30.4,5.1
87.75,26.8,26.8,35.5,29.7,5.0
88.5,26.9,26.4,35.0,29.4,4.9
89.25,26.3,26.5,34.2,29.0,4.5
90.0,26.4,26.3,33.1,28.6,3.9
90.75,26.0,26.0,32.2,28.1,3.5
91.5,26.5,25.6,31.7,27.9,3.3
92.25,25.9,25.3,31.8,27.7,3.6
93.0,25.3,25.4,31.2,27.3,3.4
93.75,24.9,25.4,30.5,26.9,3.1
94.5,24.7,25.0,29.5,26.4,2.7
95.25,24.4,25.3,28.9,26.2,2.4
96.0,24.1,25.3,28.6,26.0,2.4
96.75,23.9,25.3,27.9,25.7,2.0
97.5,23.8,24.6,27.0,25.1,1.7
98.25,24.3,24.5,26.2,25.0,1.1
99.0,24.3,24.4,26.0,24.9,1.0
99.75,24.6,24.3,25.7,24.9,0.8
100.5,24.5,24.0,25.4,24.6,0.7
101.25,24.0,24.3,24.7,24.3,0.4
102.0,24.1,24.6,24.0,24.3,0.3
102.75,24.1,24.4,23.8,24.1,0.3
103.5,23.7,24.5,22.9,23.7,0.8
104.25,24.0,24.9,22.0,23.6,1.5
105.0,23.9,25.1,21.5,23.5,1.8
105.75,23.6,24.8,21.2,23.2,1.8
106.5,23.4,24.9,20.7,23.0,2.1
107.25,23.2,24.8,20.6,22.8,2.1
108.0,23.0,24.6,20.2,22.6,2.2
108.75,22.6,24.4,19.7,22.3,2.4
109.5,22.6,24.0,19.2,22.0,2.5
110.25,22.3,23.7,18.7,21.6,2.6
111.0,22.2,23.5,18.5,21.4,2.6
111.75,21.9,23.5,18.5,21.3,2.6
112.5,21.5,23.4,18.1,21.0,2.7
113.25,21.1,23.2,17.6,20.6,2.8
114.0,20.9,23.4,17.3,20.5,3.1
114.75,20.8,23.6,17.2,20.5,3.2
115.5,20.5,23.6,17.0,20.4,3.3
116.25,20.7,23.6,16.8,20.4,3.4
117.0,20.8,23.6,16.7,20.3,3.5
117.75,20.7,23.3,16.3,20.1,3.6
118.5,20.4,22.8,16.4,19.9,3.2
119.25,20.3,22.4,16.2,19.6,3.1
120.0,20.1,22.1,15.7,19.3,3.3
120.75,19.6,22.0,15.5,19.0,3.3
121.5,19.7,21.6,15.1,18.8,3.4
122.25,19.2,21.4,14.7,18.4,3.4
123.0,19.2,20.6,14.6,18.1,3.2
123.75,19.3,20.9,14.6,18.2,3.3
124.5,19.3,20.9,14.2,18.1,3.5
125.25,19.0,20.5,14.2,17.9,3.3
126.0,18.6,20.4,14.0,17.7,3.3
126.75,18.6,20.0,14.2,17.6,3.0
127.5,18.1,19.7,14.0,17.3,2.9
128.25,17.9,19.4,13.9,17.1,2.9
129.0,17.7,18.8,13.8,16.7,2.6
129.75,17.8,18.9,13.5,16.7,2.8
130.5,17.5,18.6,13.3,16.5,2.8
131.25,17.7,18.3,13.2,16.4,2.8
132.0,17.4,18.4,13.2,16.4,2.8
132.75,17.6,17.7,12.9,16.0,2.8
133.5,17.0,17.8,12.8,15.9,2.7
134.25,16.7,17.3,13.0,15.7,2.4
135.0,16.8,17.3,12.9,15.7,2.4
135.75,16.6,17.0,13.0,15.5,2.2
136.5,17.1,16.7,13.4,15.7,2.0
137.25,16.5,16.5,13.6,15.5,1.7
138.0,16.9,16.2,13.6,15.6,1.8
138.75,16.3,16.3,13.7,15.4,1.5
139.5,15.9,16.0,13.8,15.2,1.2
140.25,15.8,15.7,13.8,15.1,1.1
141.0,15.2,15.2,13.9,14.8,0.8
141.75,15.0,14.7,13.8,14.5,0.6
142.5,14.6,14.4,13.4,14.2,0.6
143.25,14.6,14.1,13.4,14.0,0.6
144.0,14.7,13.9,13.1,13.9,0.8
144.75,14.5,14.0,13.0,13.8,0.7
145.5,14.2,13.8,13.1,13.7,0.5
146.25,13.7,13.6,13.0,13.4,0.4
147.0,13.1,13.6,13.1,13.3,0.3
147.75,13.0,13.3,12.9,13.1,0.2
148.5,12.6,13.2,12.9,12.9,0.3
149.25,12.5,13.0,12.9,12.8,0.3
150.0,12.4,12.8,13.2,12.8,0.4
150.75,12.2,12.4,12.7,12.4,0.2
151.5,12.1,12.1,12.4,12.2,0.2
152.25,12.2,11.9,12.2,12.1,0.2
153.0,12.1,11.7,12.3,12.0,0.3
153.75,11.6,11.6,12.0,11.8,0.2
154.5,11.4,11.6,12.0,11.7,0.3
155.25,11.2,11.3,11.8,11.5,0.3
156.0,11.0,11.2,11.9,11.4,0.4
156.75,10.9,11.1,11.8,11.3,0.5
157.5,10.9,10.7,11.7,11.1,0.6
158.25,10.8,10.7,11.9,11.1,0.7
159.0,10.9,10.4,11.6,11.0,0.6
159.75,10.7,10.3,11.4,10.8,0.6
160.5,10.8,10.1,11.2,10.7,0.6
161.25,10.6,10.0,11.0,10.5,0.5
162.0,10.3,9.6,10.9,10.3,0.7
162.75,10.1,9.4,10.9,10.1,0.8
163.5,10.0,9.2,10.8,10.0,0.8
164.25,10.0,8.6,10.9,9.8,1.1
165.0,9.9,8.2,10.7,9.6,1.3
165.75,9.8,8.0,10.8,9.5,1.4
166.5,9.4,7.8,10.6,9.3,1.4
167.25,9.1,7.7,10.7,9.2,1.5
168.0,9.1,7.4,10.7,9.1,1.6
168.75,9.0,7.2,10.6,8.9,1.7
169.5,8.9,7.1,10.7,8.9,1.8
170.25,8.9,6.7,10.4,8.6,1.9
171.0,8.8,,10.0,9.4,0.9
171.75,8.9,,9.8,9.3,0.6
172.5,8.8,,9.8,9.3,0.7
173.25,8.8,,9.7,9.3,0.6
174.0,8.8,,9.7,9.3,0.6
174.75,8.7,,9.5,9.1,0.5
175.5,8.7,,9.5,9.1,0.6
176.25,8.8,,9.6,9.2,0.5
177.0,8.7,,9.3,9.0,0.4
177.75,8.4,,9.2,8.8,0.5
178.5,8.2,,8.8,8.5,0.4
179.25,7.8,,8.7,8.2,0.6
180.0,7.6,,8.5,8.1,0.6
180.75,7.5,,8.5,8.0,0.7
181.5,7.4,,8.5,7.9,0.8
182.25,7.2,,8.4,7.8,0.9
183.0,6.9,,8.2,7.5,1.0
183.75,6.7,,8.1,7.4,1.0
184.5,6.5,,8.0,7.2,1.1
185.25,6.1,,7.9,7.0,1.2
186.0,5.8,,7.8,6.8,1.5
186.75,5.6,,7.8,6.7,1.5
187.5,5.4,,7.9,6.6,1.7