File: 01_Data/Rug_Pad/Cone/Rug_Pad_HRRPUA_75.csv
Time after Ignition,Rug_Pad_R1,Rug_Pad_R2,Rug_Pad_R3,Mean,Std. Dev.
0.0,6.3,0.6,10.1,5.7,4.8
0.5,11.5,4.2,14.9,10.2,5.5
1.0,18.9,7.2,30.9,19.0,11.9
1.5,24.5,15.7,43.5,27.9,14.2
2.0,33.1,22.3,64.1,39.8,21.7
2.5,43.4,38.5,79.6,53.9,22.4
3.0,56.6,50.9,98.5,68.7,26.0
3.5,70.2,70.7,112.2,84.4,24.1
4.0,82.6,84.4,126.9,98.0,25.0
4.5,98.7,100.7,144.4,114.6,25.8
5.0,117.4,116.2,154.9,129.5,22.0
5.5,137.6,134.0,172.3,148.0,21.1
6.0,159.8,145.4,189.1,164.7,22.3
6.5,169.8,159.1,206.3,178.4,24.8
7.0,186.8,175.5,210.8,191.0,18.0
7.5,209.7,190.9,231.5,210.7,20.3
8.0,219.9,201.8,233.3,218.3,15.9
8.5,241.6,220.1,257.8,239.8,18.9
9.0,259.0,241.9,269.5,256.8,13.9
9.5,272.8,262.2,281.5,272.2,9.7
10.0,287.9,277.5,287.0,284.1,5.8
10.5,291.7,300.6,310.1,300.8,9.2
11.0,314.9,328.5,321.7,321.7,6.8
11.5,338.4,350.0,330.7,339.7,9.7
12.0,344.4,343.7,344.7,344.3,0.5
12.5,365.0,364.5,365.6,365.0,0.5
13.0,374.3,386.8,361.7,374.3,12.5
13.5,387.6,389.0,377.7,384.8,6.1
14.0,398.1,416.1,380.8,398.3,17.6
14.5,411.0,411.4,387.7,403.4,13.6
15.0,418.8,430.4,396.3,415.2,17.3
15.5,428.2,435.2,403.7,422.4,16.5
16.0,443.3,439.8,410.6,431.2,18.0
16.5,433.6,463.2,404.4,433.8,29.4
17.0,436.9,444.7,396.7,426.1,25.8
17.5,436.1,445.2,396.4,425.9,25.9
18.0,438.4,436.9,395.2,423.5,24.5
18.5,433.2,432.5,381.3,415.7,29.8
19.0,416.8,431.5,381.3,409.9,25.8
19.5,408.3,432.7,366.8,402.6,33.3
20.0,392.7,418.4,355.9,389.0,31.4
20.5,384.3,418.5,341.4,381.4,38.6
21.0,369.9,396.7,334.4,367.0,31.3
21.5,353.4,381.6,316.0,350.3,32.9
22.0,337.2,363.3,308.8,336.4,27.3
22.5,323.9,357.0,286.7,322.5,35.2
23.0,300.9,343.2,278.6,307.5,32.8
23.5,288.0,328.4,263.8,293.4,32.7
24.0,273.0,310.4,249.1,277.5,30.9
24.5,254.5,295.6,231.3,260.5,32.6
25.0,238.8,276.6,220.3,245.2,28.7
25.5,223.5,265.1,208.7,232.4,29.2
26.0,210.7,247.4,197.8,218.6,25.7
26.5,195.9,235.3,184.9,205.3,26.5
27.0,182.2,223.3,178.0,194.5,25.1
27.5,171.1,206.6,164.7,180.8,22.6
28.0,157.6,198.6,156.0,170.7,24.2
28.5,150.1,181.8,148.0,160.0,18.9
29.0,144.1,172.2,137.7,151.3,18.4
29.5,132.6,158.5,131.0,140.7,15.4
30.0,126.3,148.9,123.7,132.9,13.9
30.5,119.3,139.2,120.5,126.3,11.1
31.0,115.9,132.3,114.3,120.8,10.0
31.5,109.9,121.5,109.4,113.6,6.8
32.0,104.9,114.3,107.1,108.8,4.9
32.5,99.8,107.8,103.7,103.8,4.0
33.0,97.2,102.2,100.0,99.8,2.5
33.5,91.8,96.5,97.4,95.2,3.0
34.0,88.3,90.6,95.2,91.4,3.5
34.5,83.9,87.5,92.9,88.1,4.5
35.0,81.4,81.7,90.2,84.4,5.0
35.5,78.2,78.9,87.5,81.5,5.2
36.0,74.9,76.0,86.0,79.0,6.1
36.5,73.3,72.8,83.8,76.6,6.2
37.0,71.0,70.9,82.3,74.7,6.6
37.5,68.1,68.1,80.6,72.2,7.2
38.0,67.8,65.4,80.1,71.1,7.9
38.5,65.9,64.5,78.9,69.8,7.9
39.0,64.6,62.5,78.4,68.5,8.7
39.5,61.9,60.7,76.7,66.5,8.9
40.0,61.0,59.2,77.8,66.0,10.2
40.5,60.3,58.7,76.9,65.3,10.1
41.0,58.4,56.2,76.3,63.6,11.0
41.5,58.5,55.2,75.2,63.0,10.7
42.0,56.7,54.5,75.4,62.2,11.5
42.5,57.4,53.6,74.9,61.9,11.3
43.0,57.1,51.8,75.2,61.4,12.3
43.5,56.3,51.0,73.6,60.3,11.8
44.0,56.1,50.3,74.7,60.4,12.7
44.5,55.2,50.3,73.9,59.8,12.4
45.0,54.6,50.0,74.9,59.9,13.2
45.5,53.8,48.9,74.1,59.0,13.4
46.0,53.0,48.4,75.3,58.9,14.4
46.5,52.0,48.1,74.3,58.2,14.1
47.0,51.9,48.1,74.9,58.3,14.5
47.5,51.3,48.2,74.7,58.1,14.5
48.0,51.4,47.3,76.2,58.3,15.6
48.5,50.4,46.7,76.2,57.8,16.0
49.0,50.0,47.6,74.8,57.5,15.1
49.5,50.0,47.3,75.8,57.7,15.7
50.0,49.9,48.0,73.8,57.2,14.4
50.5,49.2,47.5,74.0,56.9,14.9
51.0,48.7,47.4,74.2,56.8,15.1
51.5,47.7,47.0,73.1,55.9,14.9
52.0,48.8,47.1,73.1,56.3,14.5
52.5,48.3,47.1,72.7,56.0,14.5
53.0,47.8,47.0,72.0,55.6,14.2
53.5,48.4,47.3,72.3,56.0,14.1
54.0,48.3,46.9,72.7,56.0,14.5
54.5,48.8,46.3,73.2,56.1,14.9
55.0,48.5,46.5,72.6,55.8,14.5
55.5,48.1,46.5,71.8,55.5,14.2
56.0,47.4,46.5,72.1,55.3,14.5
56.5,47.7,46.4,71.1,55.1,13.9
57.0,47.8,46.5,70.5,54.9,13.5
57.5,47.9,47.0,70.7,55.2,13.4
58.0,47.5,46.9,70.7,55.1,13.6
58.5,48.0,46.7,69.2,54.6,12.6
59.0,48.1,46.3,70.2,54.9,13.3
59.5,48.4,46.7,68.4,54.5,12.1
60.0,48.0,46.8,69.5,54.8,12.8
60.5,47.5,47.2,68.7,54.5,12.3
61.0,47.7,46.9,67.2,53.9,11.5
61.5,47.8,46.4,66.2,53.5,11.1
62.0,47.1,46.8,66.0,53.3,11.0
62.5,47.4,46.7,65.0,53.0,10.4
63.0,46.7,47.4,64.5,52.9,10.1
63.5,46.4,47.1,63.0,52.2,9.4
64.0,46.3,46.9,63.4,52.2,9.7
64.5,47.2,46.8,62.2,52.1,8.7
65.0,46.3,46.2,61.2,51.2,8.6
65.5,45.8,46.4,60.9,51.0,8.5
66.0,45.7,47.0,60.0,50.9,7.9
66.5,45.8,46.5,59.3,50.5,7.6
67.0,45.0,46.4,58.6,50.0,7.4
67.5,44.4,47.0,58.3,49.9,7.4
68.0,44.8,46.5,56.8,49.4,6.5
68.5,44.2,46.8,56.0,49.0,6.2
69.0,44.9,46.2,55.6,48.9,5.9
69.5,44.2,45.8,54.5,48.2,5.6
70.0,44.7,46.1,53.9,48.2,5.0
70.5,43.6,46.1,53.1,47.6,4.9
71.0,43.7,46.7,53.0,47.8,4.7
71.5,44.0,45.9,51.6,47.2,4.0
72.0,43.5,45.7,51.7,46.9,4.2
72.5,43.1,44.8,50.4,46.1,3.9
73.0,43.5,43.9,49.6,45.7,3.4
73.5,43.5,43.9,48.5,45.3,2.8
74.0,43.2,43.6,48.1,44.9,2.7
74.5,42.6,43.0,47.7,44.4,2.8
75.0,42.7,42.0,47.2,44.0,2.8
75.5,41.9,42.2,45.6,43.2,2.1
76.0,42.3,42.0,45.5,43.3,1.9
76.5,41.8,42.1,44.7,42.9,1.6
77.0,42.4,41.5,43.7,42.6,1.1
77.5,41.8,41.7,42.8,42.1,0.6
78.0,41.6,41.2,41.5,41.4,0.2
78.5,41.5,40.6,41.7,41.3,0.6
79.0,41.0,41.1,40.5,40.8,0.3
79.5,40.3,41.3,40.0,40.5,0.7
80.0,40.2,40.7,38.9,39.9,0.9
80.5,39.9,41.0,38.6,39.8,1.2
81.0,39.3,40.6,36.9,38.9,1.8
81.5,39.8,40.1,37.0,39.0,1.7
82.0,39.0,40.4,36.9,38.8,1.8
82.5,39.7,40.0,35.4,38.4,2.6
83.0,39.2,39.6,34.6,37.8,2.8
83.5,39.2,39.9,33.8,37.6,3.3
84.0,39.2,39.4,33.6,37.4,3.3
84.5,38.4,39.1,33.0,36.8,3.4
85.0,37.8,38.7,32.4,36.3,3.4
85.5,37.3,38.3,32.0,35.9,3.4
86.0,37.8,37.9,30.6,35.5,4.2
86.5,36.9,38.1,30.2,35.1,4.2
87.0,36.3,37.1,30.2,34.6,3.8
87.5,36.2,36.8,29.6,34.2,4.0
88.0,35.2,36.5,29.0,33.6,4.0
88.5,35.4,36.7,28.9,33.7,4.2
89.0,34.4,36.9,28.3,33.2,4.4
89.5,34.5,36.1,27.9,32.9,4.4
90.0,34.1,35.0,27.3,32.1,4.2
90.5,33.4,35.2,26.8,31.8,4.4
91.0,33.3,34.4,26.0,31.2,4.6
91.5,33.1,34.8,24.9,31.0,5.3
92.0,32.6,33.7,24.5,30.2,5.0
92.5,32.8,34.1,24.5,30.4,5.2
93.0,31.6,34.1,23.8,29.9,5.4
93.5,31.2,33.6,23.3,29.4,5.4
94.0,31.1,33.7,23.2,29.3,5.5
94.5,30.4,33.5,22.5,28.8,5.7
95.0,30.3,33.0,22.0,28.5,5.8
95.5,29.9,32.8,21.5,28.1,5.8
96.0,29.3,32.6,20.9,27.6,6.0
96.5,29.5,31.4,20.7,27.2,5.7
97.0,29.3,31.5,20.0,26.9,6.1
97.5,28.3,30.8,19.4,26.1,6.0
98.0,27.8,30.5,19.0,25.8,6.0
98.5,28.0,30.2,18.7,25.7,6.1
99.0,27.7,29.7,18.2,25.2,6.2
99.5,27.5,29.2,17.8,24.8,6.1
100.0,27.0,28.8,17.7,24.5,6.0
100.5,26.5,28.2,17.2,24.0,5.9
101.0,25.8,27.5,16.7,23.3,5.8
101.5,25.5,27.7,16.6,23.3,5.9
102.0,24.7,27.4,16.2,22.8,5.8
102.5,24.0,27.2,15.7,22.3,5.9
103.0,23.2,27.0,15.7,22.0,5.7
103.5,22.9,26.5,15.7,21.7,5.5
104.0,22.7,26.4,15.2,21.5,5.7
104.5,22.3,26.3,14.9,21.1,5.8
105.0,21.9,25.5,15.1,20.8,5.3
105.5,21.8,25.1,14.5,20.5,5.4
106.0,21.7,24.9,14.4,20.3,5.4
106.5,21.7,24.6,14.2,20.2,5.4
107.0,20.7,24.0,14.2,19.6,5.0
107.5,20.0,23.8,14.2,19.3,4.8
108.0,19.9,22.9,14.0,18.9,4.5
108.5,19.6,23.0,13.8,18.8,4.6
109.0,19.4,22.8,13.5,18.6,4.7
109.5,19.1,22.4,13.3,18.3,4.6
110.0,18.5,22.4,13.3,18.1,4.6
110.5,18.5,22.2,13.3,18.0,4.5
111.0,18.6,22.1,13.2,18.0,4.5
111.5,18.3,21.7,12.9,17.6,4.4
112.0,18.4,22.0,12.8,17.7,4.6
112.5,18.5,21.2,12.4,17.4,4.5
113.0,18.2,20.9,,19.5,1.9
113.5,17.9,20.3,,19.1,1.7
114.0,17.8,19.6,,18.7,1.3
114.5,17.3,19.6,,18.5,1.6
115.0,17.2,18.9,,18.1,1.2
115.5,17.0,18.6,,17.8,1.2
116.0,16.5,18.4,,17.5,1.4
116.5,15.7,18.2,,17.0,1.8
117.0,15.4,17.7,,16.5,1.6
117.5,15.2,17.5,,16.3,1.6
118.0,15.0,17.1,,16.0,1.5
118.5,14.8,16.7,,15.8,1.4
119.0,14.7,16.7,,15.7,1.4
119.5,14.6,16.3,,15.5,1.2
120.0,13.9,16.3,,15.1,1.7
120.5,13.7,15.7,,14.7,1.4
121.0,13.6,15.4,,14.5,1.2
121.5,13.5,14.7,,14.1,0.9
122.0,13.1,14.8,,14.0,1.2
122.5,12.8,14.4,,13.6,1.1
123.0,12.4,14.4,,13.4,1.4
123.5,12.1,14.2,,13.1,1.5
124.0,11.6,14.2,,12.9,1.8
124.5,11.6,13.8,,12.7,1.6
125.0,11.5,13.7,,12.6,1.6
125.5,11.1,13.5,,12.3,1.7
126.0,11.1,13.2,,12.2,1.5
126.5,11.0,12.9,,12.0,1.3
127.0,10.9,12.7,,11.8,1.3
127.5,10.8,12.4,,11.6,1.1
128.0,10.6,11.9,,11.2,0.9
128.5,10.3,11.7,,11.0,1.0
129.0,10.0,11.5,,10.7,1.0