File: 01_Data/Rug_Pad/Cone/Rug_Pad_HRRPUA_25.csv
Time after Ignition,Rug_Pad_R1,Rug_Pad_R2,Rug_Pad_R3,Mean,Std. Dev.
0.0,1.1,4.1,3.4,2.9,1.5
0.5,2.0,5.9,6.1,4.7,2.3
1.0,3.2,8.9,8.2,6.8,3.1
1.5,3.8,12.8,12.8,9.8,5.2
2.0,6.7,16.0,16.5,13.0,5.5
2.5,9.0,19.9,25.4,18.1,8.3
3.0,12.9,24.8,32.2,23.3,9.7
3.5,17.9,30.7,42.4,30.3,12.2
4.0,23.7,37.9,50.0,37.2,13.2
4.5,30.3,43.2,58.3,44.0,14.0
5.0,37.5,51.9,65.8,51.8,14.2
5.5,45.5,58.0,71.2,58.2,12.9
6.0,50.3,70.1,78.4,66.3,14.4
6.5,56.6,78.8,84.7,73.4,14.9
7.0,64.2,88.7,91.8,81.6,15.1
7.5,69.8,96.6,98.1,88.2,15.9
8.0,77.2,105.2,103.6,95.3,15.8
8.5,82.9,112.8,108.9,101.5,16.3
9.0,91.7,116.9,112.3,107.0,13.4
9.5,96.1,122.4,121.4,113.3,14.9
10.0,101.8,127.2,126.8,118.6,14.6
10.5,109.8,134.4,134.0,126.0,14.1
11.0,114.5,139.2,138.5,130.7,14.1
11.5,123.4,144.2,145.9,137.8,12.5
12.0,128.5,144.9,150.0,141.1,11.2
12.5,133.5,149.7,151.3,144.8,9.8
13.0,136.2,154.7,156.6,149.2,11.3
13.5,144.9,158.0,160.2,154.4,8.3
14.0,145.5,159.4,164.6,156.5,9.8
14.5,151.5,165.1,165.7,160.8,8.0
15.0,155.1,167.3,173.0,165.1,9.1
15.5,155.9,168.8,171.4,165.4,8.3
16.0,161.4,172.1,176.3,169.9,7.7
16.5,164.1,171.2,182.7,172.7,9.4
17.0,167.2,175.9,183.0,175.4,7.9
17.5,170.2,180.8,185.6,178.9,7.9
18.0,173.7,183.5,188.3,181.9,7.4
18.5,176.2,181.8,193.7,183.9,8.9
19.0,176.2,187.0,194.4,185.9,9.1
19.5,181.9,185.0,198.7,188.5,8.9
20.0,182.1,190.5,199.9,190.8,8.9
20.5,184.6,191.7,202.5,192.9,9.0
21.0,183.1,195.3,206.6,195.0,11.7
21.5,189.1,195.2,208.2,197.5,9.8
22.0,185.4,202.6,208.6,198.9,12.0
22.5,194.1,202.0,208.5,201.5,7.2
23.0,191.8,205.0,209.0,201.9,9.0
23.5,192.9,200.9,209.5,201.1,8.3
24.0,193.1,200.7,210.0,201.3,8.5
24.5,196.0,206.4,214.4,205.6,9.3
25.0,195.4,204.1,208.2,202.6,6.5
25.5,198.1,205.1,213.2,205.5,7.6
26.0,193.5,202.7,214.9,203.7,10.7
26.5,198.8,205.1,214.2,206.1,7.7
27.0,197.0,206.1,212.0,205.0,7.6
27.5,197.2,200.9,214.4,204.2,9.0
28.0,198.2,198.3,212.2,202.9,8.0
28.5,195.9,195.8,211.9,201.2,9.3
29.0,196.9,198.4,208.3,201.2,6.2
29.5,191.4,194.4,206.3,197.4,7.9
30.0,190.3,196.7,203.7,196.9,6.7
30.5,192.1,195.9,201.3,196.4,4.6
31.0,187.4,189.3,197.6,191.4,5.4
31.5,184.4,188.3,195.7,189.5,5.8
32.0,185.4,184.1,190.9,186.8,3.6
32.5,181.8,181.8,186.6,183.4,2.8
33.0,178.5,179.4,182.8,180.2,2.3
33.5,176.5,175.5,181.4,177.8,3.1
34.0,176.5,172.4,176.6,175.1,2.4
34.5,172.9,171.2,173.3,172.5,1.2
35.0,170.7,166.1,169.7,168.8,2.4
35.5,168.6,163.4,167.6,166.5,2.8
36.0,166.8,160.4,162.4,163.2,3.3
36.5,164.1,160.6,157.6,160.8,3.3
37.0,161.6,153.8,155.2,156.9,4.1
37.5,159.2,152.1,152.1,154.4,4.1
38.0,155.2,151.6,148.4,151.7,3.4
38.5,152.9,146.9,142.0,147.3,5.5
39.0,150.4,145.1,141.0,145.5,4.7
39.5,148.2,142.1,137.0,142.4,5.6
40.0,146.9,138.6,134.1,139.9,6.5
40.5,140.4,136.2,131.3,136.0,4.5
41.0,140.8,132.3,128.7,133.9,6.2
41.5,137.5,127.4,124.8,129.9,6.7
42.0,134.7,125.9,124.5,128.4,5.5
42.5,133.3,122.3,119.6,125.1,7.2
43.0,130.3,119.1,117.7,122.4,6.9
43.5,128.4,115.7,114.5,119.5,7.7
44.0,125.7,111.6,112.1,116.4,8.0
44.5,124.2,109.6,108.7,114.2,8.7
45.0,118.9,105.9,104.9,109.9,7.8
45.5,118.6,104.6,101.4,108.2,9.2
46.0,116.8,101.9,98.3,105.7,9.8
46.5,113.3,99.7,96.8,103.3,8.8
47.0,109.7,96.8,92.4,99.6,9.0
47.5,107.7,93.3,90.2,97.0,9.3
48.0,105.0,91.2,86.5,94.2,9.6
48.5,101.1,88.5,85.1,91.6,8.4
49.0,100.8,83.9,81.8,88.9,10.4
49.5,97.4,83.5,80.1,87.0,9.2
50.0,95.5,78.6,78.0,84.0,9.9
50.5,92.3,76.5,75.2,81.3,9.5
51.0,89.5,75.0,73.4,79.3,8.9
51.5,88.5,73.9,72.0,78.1,9.0
52.0,85.5,70.8,68.7,75.0,9.2
52.5,81.7,68.2,66.3,72.1,8.4
53.0,78.9,66.4,64.8,70.0,7.7
53.5,77.1,64.2,62.6,68.0,7.9
54.0,73.9,63.0,61.0,66.0,6.9
54.5,71.0,60.8,60.0,63.9,6.1
55.0,69.3,58.5,57.9,61.9,6.4
55.5,66.8,55.8,57.3,59.9,6.0
56.0,64.8,54.5,56.0,58.5,5.6
56.5,63.0,52.5,53.8,56.4,5.7
57.0,61.8,52.4,52.4,55.5,5.4
57.5,60.1,49.8,50.5,53.5,5.8
58.0,58.2,48.8,48.4,51.8,5.5
58.5,56.2,47.3,47.9,50.4,5.0
59.0,55.4,46.9,45.5,49.3,5.4
59.5,53.4,46.1,44.0,47.8,4.9
60.0,51.7,44.7,43.2,46.5,4.5
60.5,49.8,43.3,41.4,44.8,4.4
61.0,48.4,43.0,40.2,43.9,4.2
61.5,47.3,40.9,39.4,42.5,4.2
62.0,45.9,40.4,38.2,41.5,4.0
62.5,44.0,39.7,37.5,40.4,3.3
63.0,42.7,37.9,36.4,39.0,3.3
63.5,41.7,36.5,35.4,37.8,3.4
64.0,39.9,35.7,34.6,36.7,2.8
64.5,38.6,34.7,33.5,35.6,2.7
65.0,37.5,33.4,32.9,34.6,2.5
65.5,36.7,32.3,32.1,33.7,2.6
66.0,35.0,31.6,30.4,32.4,2.4
66.5,34.4,30.3,30.0,31.6,2.4
67.0,32.6,28.9,29.3,30.3,2.0
67.5,31.2,28.3,28.1,29.2,1.7
68.0,29.7,27.4,27.5,28.2,1.3
68.5,29.2,25.9,27.2,27.4,1.6
69.0,28.1,25.5,26.3,26.6,1.3
69.5,27.3,24.8,25.6,25.9,1.3
70.0,26.3,24.1,25.3,25.2,1.1
70.5,25.2,23.7,24.6,24.5,0.7
71.0,24.4,23.3,23.2,23.7,0.6
71.5,23.3,22.7,22.7,22.9,0.3
72.0,22.5,22.2,22.4,22.4,0.2
72.5,21.7,21.0,21.5,21.4,0.3
73.0,20.7,20.5,21.3,20.8,0.4
73.5,20.2,20.0,20.4,20.2,0.2
74.0,19.9,19.5,19.8,19.7,0.2
74.5,19.9,19.2,19.7,19.6,0.4
75.0,19.1,18.9,19.2,19.1,0.1
75.25,19.0,18.9,19.0,19.0,0.1