File: 01_Data/Cotton_Batting/HFM/Cotton_Batting_Density_Wet_R1.csv
,Cotton_Rug_WET_1
Sample Mass [g],58.2
Sample Volume [cm3],1271.8
Sample Density [kg/m3],46