File: 01_Data/Cotton_Batting/HFM/Cotton_Batting_Density_Wet_R2.csv
,Cotton_Rug_WET_2
Sample Mass [g],59.6
Sample Volume [cm3],1212.5
Sample Density [kg/m3],49