File: 01_Data/Cotton_Batting/HFM/Cotton_Batting_Density_Wet_R3.csv
,Cotton_Rug_WET_3
Sample Mass [g],64.2
Sample Volume [cm3],1257
Sample Density [kg/m3],51