File: 01_Data/PET/HFM/PET_Density_Wet_R1.csv
,PETG_WET_1
Sample Mass [g],371.8
Sample Volume [cm3],265.3
Sample Density [kg/m3],1402