File: 01_Data/PET/HFM/PET_Density_Wet_R3.csv
,PETG_WET_3
Sample Mass [g],372.6
Sample Volume [cm3],266.2
Sample Density [kg/m3],1400