File: 01_Data/Rayon_Bamboo_Pillowcase/FTIR/IS/Rayon_Bamboo_Pillowcase_IS_S_220909_R3.dpt
7497.03,0.82270
7473.89,0.82251
7450.74,0.81601
7427.6,0.80605
7404.45,0.79116
7381.31,0.80298
7358.16,0.78306
7335.02,0.77991
7311.87,0.77915
7288.73,0.76794
7265.58,0.76831
7242.44,0.76801
7219.29,0.76546
7196.15,0.75635
7173,0.74739
7149.86,0.73474
7126.71,0.72089
7103.57,0.70178
7080.42,0.68131
7057.28,0.65465
7034.13,0.63115
7010.99,0.61063
6987.84,0.59734
6964.7,0.58605
6941.55,0.57728
6918.41,0.57221
6895.26,0.57032
6872.12,0.56149
6848.97,0.55448
6825.83,0.54936
6802.68,0.55046
6779.54,0.54936
6756.39,0.54916
6733.25,0.55715
6710.1,0.56010
6686.96,0.56323
6663.82,0.56837
6640.67,0.57285
6617.53,0.58292
6594.38,0.58444
6571.24,0.59358
6548.09,0.59454
6524.95,0.59677
6501.8,0.60247
6478.66,0.60435
6455.51,0.60083
6432.37,0.60430
6409.22,0.60238
6386.08,0.60049
6362.93,0.60325
6339.79,0.60778
6316.64,0.60828
6293.5,0.60905
6270.35,0.61384
6247.21,0.61998
6224.06,0.62729
6200.92,0.63081
6177.77,0.63800
6154.63,0.64069
6131.48,0.64760
6108.34,0.65333
6085.19,0.66024
6062.05,0.66326
6038.9,0.66885
6015.76,0.67726
5992.61,0.67592
5969.47,0.67764
5946.32,0.67413
5923.18,0.66764
5900.03,0.66071
5876.89,0.66122
5853.74,0.66067
5830.6,0.65566
5807.45,0.64795
5784.31,0.64799
5761.16,0.64727
5738.02,0.64778
5714.87,0.64351
5691.73,0.64492
5668.58,0.63994
5645.44,0.63872
5622.29,0.63873
5599.15,0.64052
5576,0.64181
5552.86,0.64430
5529.71,0.64795
5506.57,0.65278
5483.42,0.65080
5460.28,0.66010
5437.13,0.66079
5413.99,0.67381
5390.84,0.67019
5367.7,0.66707
5344.55,0.67570
5321.41,0.64951
5298.26,0.62428
5275.12,0.58357
5251.97,0.53883
5228.83,0.49519
5205.68,0.47499
5182.54,0.45966
5159.39,0.46054
5136.25,0.46938
5113.1,0.48411
5089.96,0.49646
5066.81,0.50991
5043.67,0.52332
5020.52,0.53480
4997.38,0.54078
4974.23,0.54452
4951.09,0.53683
4927.94,0.52102
4904.8,0.49946
4881.65,0.47721
4858.51,0.46099
4835.36,0.44758
4812.22,0.43739
4789.07,0.43136
4765.93,0.43099
4742.78,0.43679
4719.64,0.44438
4696.49,0.45214
4673.35,0.46267
4650.2,0.47154
4627.06,0.48078
4603.92,0.48968
4580.77,0.49698
4557.63,0.50289
4534.48,0.50801
4511.34,0.51287
4488.19,0.51403
4465.05,0.50567
4441.9,0.48300
4418.76,0.45431
4395.61,0.44343
4372.47,0.44337
4349.32,0.43993
4326.18,0.42662
4303.03,0.41635
4279.89,0.40879
4256.74,0.40665
4233.6,0.40637
4210.45,0.40876
4187.31,0.41127
4164.16,0.40697
4141.02,0.39381
4117.87,0.37721
4094.73,0.35608
4071.58,0.33114
4048.44,0.31151
4025.29,0.29772
4002.15,0.29156
3979,0.29442
3955.86,0.29706
3932.71,0.30994
3909.57,0.31879
3886.42,0.33863
3863.28,0.35491
3840.13,0.37141
3816.99,0.36631
3793.84,0.35064
3770.7,0.34703
3747.55,0.35155
3724.41,0.31854
3701.26,0.27681
3678.12,0.22231
3654.97,0.14120
3631.83,0.08952
3608.68,0.05832
3585.54,0.04137
3562.39,0.03293
3539.25,0.02765
3516.1,0.02540
3492.96,0.02457
3469.81,0.02488
3446.67,0.02649
3423.52,0.02616
3400.38,0.02699
3377.23,0.02728
3354.09,0.02815
3330.94,0.02872
3307.8,0.02915
3284.65,0.03037
3261.51,0.03099
3238.36,0.03037
3215.22,0.03142
3192.07,0.03200
3168.93,0.03418
3145.78,0.03681
3122.64,0.04079
3099.49,0.04723
3076.35,0.05438
3053.2,0.06287
3030.06,0.07292
3006.91,0.07842
2983.77,0.07058
2960.62,0.05601
2937.48,0.04450
2914.33,0.04051
2891.19,0.04019
2868.04,0.04738
2844.9,0.06172
2821.75,0.07847
2798.61,0.09043
2775.46,0.10115
2752.32,0.10849
2729.17,0.11181
2706.03,0.11924
2682.88,0.13000
2659.74,0.14134
2636.59,0.15352
2613.45,0.16474
2590.3,0.17247
2567.16,0.17811
2544.02,0.18124
2520.87,0.18472
2497.73,0.18953
2474.58,0.19881
2451.44,0.20969
2428.29,0.22244
2405.15,0.23223
2382,0.23894
2358.86,0.24959
2335.71,0.25449
2312.57,0.25481
2289.42,0.25067
2266.28,0.24180
2243.13,0.23243
2219.99,0.22554
2196.84,0.21942
2173.7,0.20943
2150.55,0.20212
2127.41,0.20042
2104.26,0.20804
2081.12,0.21554
2057.97,0.21627
2034.83,0.21955
2011.68,0.23491
1988.54,0.24341
1965.39,0.25559
1942.25,0.27208
1919.1,0.28289
1895.96,0.28914
1872.81,0.28769
1849.67,0.27852
1826.52,0.26986
1803.38,0.25126
1780.23,0.23246
1757.09,0.20411
1733.94,0.17696
1710.8,0.09467
1687.65,0.05854
1664.51,0.05377
1641.36,0.05887
1618.22,0.07323
1595.07,0.09162
1571.93,0.10874
1548.78,0.11285
1525.64,0.09444
1502.49,0.06784
1479.35,0.05248
1456.2,0.03920
1433.06,0.03312
1409.91,0.03224
1386.77,0.03029
1363.62,0.02961
1340.48,0.03176
1317.33,0.03129
1294.19,0.03579
1271.04,0.03422
1247.9,0.03526
1224.75,0.03382
1201.61,0.02788
1178.46,0.02245
1155.32,0.02570
1132.17,0.02052
1109.03,0.02747
1085.88,0.03190
1062.74,0.04440
1039.59,0.04060
1016.45,0.04697
993.304,0.04882
970.159,0.06260
947.014,0.08710
923.869,0.08543
900.724,0.05474
877.579,0.08511
854.434,0.08563
831.289,0.07010
808.144,0.05983
784.999,0.05448
761.854,0.04864
738.709,0.04331
715.565,0.04001
692.42,0.03784
669.275,0.03430
646.13,0.03434
622.985,0.03154
599.84,0.03390