File: 01_Data/Rayon_Bamboo_Pillowcase/FTIR/IS/Rayon_Bamboo_Pillowcase_IS_S_220909_R6.dpt
7497.03,0.81795
7473.89,0.81593
7450.74,0.80757
7427.6,0.81580
7404.45,0.80283
7381.31,0.79433
7358.16,0.78017
7335.02,0.77936
7311.87,0.77361
7288.73,0.76339
7265.58,0.75879
7242.44,0.76235
7219.29,0.76303
7196.15,0.75581
7173,0.74194
7149.86,0.74329
7126.71,0.71890
7103.57,0.70486
7080.42,0.68603
7057.28,0.66152
7034.13,0.64291
7010.99,0.61804
6987.84,0.59792
6964.7,0.58721
6941.55,0.57831
6918.41,0.57362
6895.26,0.57395
6872.12,0.56986
6848.97,0.56180
6825.83,0.55996
6802.68,0.55520
6779.54,0.55878
6756.39,0.55514
6733.25,0.56142
6710.1,0.56528
6686.96,0.56729
6663.82,0.57426
6640.67,0.57879
6617.53,0.58265
6594.38,0.58989
6571.24,0.59367
6548.09,0.59476
6524.95,0.60196
6501.8,0.60161
6478.66,0.60317
6455.51,0.60772
6432.37,0.60652
6409.22,0.60387
6386.08,0.60612
6362.93,0.60512
6339.79,0.60732
6316.64,0.61356
6293.5,0.61371
6270.35,0.61916
6247.21,0.62512
6224.06,0.63118
6200.92,0.63290
6177.77,0.63991
6154.63,0.64518
6131.48,0.64987
6108.34,0.65815
6085.19,0.66644
6062.05,0.66793
6038.9,0.67192
6015.76,0.67672
5992.61,0.68261
5969.47,0.68007
5946.32,0.67762
5923.18,0.67166
5900.03,0.66702
5876.89,0.66506
5853.74,0.66483
5830.6,0.65704
5807.45,0.65423
5784.31,0.64913
5761.16,0.65126
5738.02,0.64906
5714.87,0.64800
5691.73,0.64528
5668.58,0.64193
5645.44,0.64314
5622.29,0.64258
5599.15,0.64219
5576,0.64655
5552.86,0.65131
5529.71,0.65006
5506.57,0.65409
5483.42,0.65562
5460.28,0.65669
5437.13,0.66127
5413.99,0.66477
5390.84,0.67039
5367.7,0.66998
5344.55,0.66790
5321.41,0.65676
5298.26,0.63704
5275.12,0.59954
5251.97,0.55432
5228.83,0.51614
5205.68,0.49406
5182.54,0.48432
5159.39,0.48693
5136.25,0.49610
5113.1,0.50718
5089.96,0.52099
5066.81,0.53341
5043.67,0.54564
5020.52,0.55460
4997.38,0.55963
4974.23,0.55929
4951.09,0.54936
4927.94,0.53114
4904.8,0.50584
4881.65,0.48134
4858.51,0.46345
4835.36,0.44993
4812.22,0.44044
4789.07,0.43326
4765.93,0.43162
4742.78,0.43776
4719.64,0.44527
4696.49,0.45444
4673.35,0.46533
4650.2,0.47549
4627.06,0.48372
4603.92,0.49295
4580.77,0.49936
4557.63,0.50486
4534.48,0.51120
4511.34,0.51487
4488.19,0.51673
4465.05,0.50769
4441.9,0.48580
4418.76,0.45594
4395.61,0.44418
4372.47,0.44438
4349.32,0.44060
4326.18,0.42750
4303.03,0.41694
4279.89,0.41198
4256.74,0.40889
4233.6,0.40965
4210.45,0.41298
4187.31,0.41485
4164.16,0.41161
4141.02,0.39856
4117.87,0.38160
4094.73,0.35930
4071.58,0.33559
4048.44,0.31427
4025.29,0.30048
4002.15,0.29445
3979,0.29742
3955.86,0.30130
3932.71,0.31055
3909.57,0.32257
3886.42,0.33580
3863.28,0.34853
3840.13,0.35865
3816.99,0.36011
3793.84,0.35652
3770.7,0.35024
3747.55,0.34208
3724.41,0.32146
3701.26,0.28714
3678.12,0.23017
3654.97,0.15293
3631.83,0.09854
3608.68,0.06434
3585.54,0.04370
3562.39,0.03490
3539.25,0.02822
3516.1,0.02545
3492.96,0.02482
3469.81,0.02551
3446.67,0.02587
3423.52,0.02631
3400.38,0.02718
3377.23,0.02694
3354.09,0.02798
3330.94,0.02744
3307.8,0.02889
3284.65,0.02923
3261.51,0.02921
3238.36,0.03068
3215.22,0.03138
3192.07,0.03289
3168.93,0.03596
3145.78,0.03831
3122.64,0.04339
3099.49,0.04999
3076.35,0.05820
3053.2,0.06754
3030.06,0.07753
3006.91,0.08320
2983.77,0.07354
2960.62,0.05734
2937.48,0.04509
2914.33,0.04068
2891.19,0.04067
2868.04,0.04750
2844.9,0.06335
2821.75,0.08034
2798.61,0.09264
2775.46,0.10297
2752.32,0.11075
2729.17,0.11445
2706.03,0.12210
2682.88,0.13219
2659.74,0.14341
2636.59,0.15532
2613.45,0.16662
2590.3,0.17512
2567.16,0.18072
2544.02,0.18351
2520.87,0.18715
2497.73,0.19245
2474.58,0.20130
2451.44,0.21292
2428.29,0.22560
2405.15,0.23653
2382,0.24314
2358.86,0.25106
2335.71,0.25847
2312.57,0.26022
2289.42,0.25872
2266.28,0.25040
2243.13,0.24073
2219.99,0.23438
2196.84,0.22933
2173.7,0.21971
2150.55,0.21176
2127.41,0.21011
2104.26,0.21764
2081.12,0.22563
2057.97,0.22602
2034.83,0.22926
2011.68,0.24456
1988.54,0.25261
1965.39,0.26445
1942.25,0.28026
1919.1,0.29187
1895.96,0.29987
1872.81,0.29844
1849.67,0.28929
1826.52,0.27598
1803.38,0.25917
1780.23,0.23966
1757.09,0.21067
1733.94,0.17814
1710.8,0.09560
1687.65,0.05945
1664.51,0.05832
1641.36,0.06435
1618.22,0.07813
1595.07,0.09774
1571.93,0.11354
1548.78,0.11612
1525.64,0.09330
1502.49,0.06760
1479.35,0.05327
1456.2,0.03753
1433.06,0.03271
1409.91,0.03178
1386.77,0.02993
1363.62,0.02927
1340.48,0.03146
1317.33,0.03098
1294.19,0.03613
1271.04,0.03418
1247.9,0.03556
1224.75,0.03382
1201.61,0.02746
1178.46,0.02281
1155.32,0.02589
1132.17,0.02042
1109.03,0.02758
1085.88,0.03248
1062.74,0.04486
1039.59,0.04142
1016.45,0.04753
993.304,0.04880
970.159,0.06358
947.014,0.08941
923.869,0.08903
900.724,0.05646
877.579,0.09131
854.434,0.09340
831.289,0.07697
808.144,0.06712
784.999,0.05914
761.854,0.05246
738.709,0.04552
715.565,0.04113
692.42,0.03821
669.275,0.03506
646.13,0.03455
622.985,0.03100
599.84,0.03465