File: 01_Data/Rayon_Bamboo_Pillowcase/FTIR/IS/Rayon_Bamboo_Pillowcase_IS_S_220909_R1.dpt
7497.03,0.81739
7473.89,0.81435
7450.74,0.81171
7427.6,0.80076
7404.45,0.78753
7381.31,0.78335
7358.16,0.77402
7335.02,0.77077
7311.87,0.76652
7288.73,0.75866
7265.58,0.76703
7242.44,0.74856
7219.29,0.75948
7196.15,0.74131
7173,0.74485
7149.86,0.72877
7126.71,0.72029
7103.57,0.69420
7080.42,0.66637
7057.28,0.64627
7034.13,0.62658
7010.99,0.61019
6987.84,0.59773
6964.7,0.58117
6941.55,0.57530
6918.41,0.56543
6895.26,0.56446
6872.12,0.55460
6848.97,0.55447
6825.83,0.55361
6802.68,0.54752
6779.54,0.55005
6756.39,0.55084
6733.25,0.54859
6710.1,0.55530
6686.96,0.55224
6663.82,0.56206
6640.67,0.56656
6617.53,0.57581
6594.38,0.58270
6571.24,0.58779
6548.09,0.58816
6524.95,0.59778
6501.8,0.59589
6478.66,0.59942
6455.51,0.59566
6432.37,0.59750
6409.22,0.60028
6386.08,0.59836
6362.93,0.60170
6339.79,0.60107
6316.64,0.60384
6293.5,0.60857
6270.35,0.61501
6247.21,0.61865
6224.06,0.62210
6200.92,0.62598
6177.77,0.63559
6154.63,0.63590
6131.48,0.64523
6108.34,0.65226
6085.19,0.65525
6062.05,0.66238
6038.9,0.66570
6015.76,0.66989
5992.61,0.67149
5969.47,0.67418
5946.32,0.67071
5923.18,0.66534
5900.03,0.66403
5876.89,0.65936
5853.74,0.65746
5830.6,0.65186
5807.45,0.64560
5784.31,0.64552
5761.16,0.64640
5738.02,0.64462
5714.87,0.64474
5691.73,0.63946
5668.58,0.63651
5645.44,0.63680
5622.29,0.63632
5599.15,0.63731
5576,0.63580
5552.86,0.64126
5529.71,0.64416
5506.57,0.64549
5483.42,0.64588
5460.28,0.64688
5437.13,0.65025
5413.99,0.65256
5390.84,0.65831
5367.7,0.65906
5344.55,0.64699
5321.41,0.64119
5298.26,0.61412
5275.12,0.57249
5251.97,0.51824
5228.83,0.47860
5205.68,0.45000
5182.54,0.44192
5159.39,0.44430
5136.25,0.45484
5113.1,0.46841
5089.96,0.48270
5066.81,0.49636
5043.67,0.51080
5020.52,0.52230
4997.38,0.53183
4974.23,0.53506
4951.09,0.52954
4927.94,0.51575
4904.8,0.49579
4881.65,0.47417
4858.51,0.45828
4835.36,0.44621
4812.22,0.43570
4789.07,0.42941
4765.93,0.42938
4742.78,0.43567
4719.64,0.44281
4696.49,0.45073
4673.35,0.46213
4650.2,0.47044
4627.06,0.47837
4603.92,0.48697
4580.77,0.49450
4557.63,0.50062
4534.48,0.50557
4511.34,0.51009
4488.19,0.51113
4465.05,0.50282
4441.9,0.48023
4418.76,0.45217
4395.61,0.44261
4372.47,0.44185
4349.32,0.43902
4326.18,0.42467
4303.03,0.41466
4279.89,0.40838
4256.74,0.40468
4233.6,0.40394
4210.45,0.40637
4187.31,0.40816
4164.16,0.40406
4141.02,0.39050
4117.87,0.37353
4094.73,0.35220
4071.58,0.32877
4048.44,0.30805
4025.29,0.29452
4002.15,0.28842
3979,0.29052
3955.86,0.29294
3932.71,0.29922
3909.57,0.31257
3886.42,0.32078
3863.28,0.32967
3840.13,0.33625
3816.99,0.33740
3793.84,0.33719
3770.7,0.32765
3747.55,0.31016
3724.41,0.29309
3701.26,0.25825
3678.12,0.19891
3654.97,0.12757
3631.83,0.07871
3608.68,0.05171
3585.54,0.03781
3562.39,0.03080
3539.25,0.02656
3516.1,0.02507
3492.96,0.02393
3469.81,0.02386
3446.67,0.02626
3423.52,0.02660
3400.38,0.02764
3377.23,0.02718
3354.09,0.02737
3330.94,0.02827
3307.8,0.02908
3284.65,0.02897
3261.51,0.02873
3238.36,0.03025
3215.22,0.03127
3192.07,0.03202
3168.93,0.03308
3145.78,0.03624
3122.64,0.03993
3099.49,0.04576
3076.35,0.05257
3053.2,0.06055
3030.06,0.06959
3006.91,0.07570
2983.77,0.06832
2960.62,0.05577
2937.48,0.04388
2914.33,0.04045
2891.19,0.04062
2868.04,0.04727
2844.9,0.06162
2821.75,0.07709
2798.61,0.08911
2775.46,0.09956
2752.32,0.10675
2729.17,0.11099
2706.03,0.11782
2682.88,0.12838
2659.74,0.13997
2636.59,0.15175
2613.45,0.16265
2590.3,0.17118
2567.16,0.17655
2544.02,0.17876
2520.87,0.18228
2497.73,0.18825
2474.58,0.19686
2451.44,0.20790
2428.29,0.21954
2405.15,0.22938
2382,0.23555
2358.86,0.24430
2335.71,0.25045
2312.57,0.24926
2289.42,0.24569
2266.28,0.23615
2243.13,0.22682
2219.99,0.21979
2196.84,0.21313
2173.7,0.20332
2150.55,0.19628
2127.41,0.19479
2104.26,0.20172
2081.12,0.20933
2057.97,0.20978
2034.83,0.21413
2011.68,0.22841
1988.54,0.23572
1965.39,0.24687
1942.25,0.26079
1919.1,0.27101
1895.96,0.27963
1872.81,0.27813
1849.67,0.26901
1826.52,0.25412
1803.38,0.23936
1780.23,0.21977
1757.09,0.19166
1733.94,0.15864
1710.8,0.08955
1687.65,0.05381
1664.51,0.04944
1641.36,0.05434
1618.22,0.06654
1595.07,0.08708
1571.93,0.10041
1548.78,0.10410
1525.64,0.08385
1502.49,0.06410
1479.35,0.05123
1456.2,0.03557
1433.06,0.03285
1409.91,0.03194
1386.77,0.02988
1363.62,0.02939
1340.48,0.03106
1317.33,0.03098
1294.19,0.03588
1271.04,0.03388
1247.9,0.03572
1224.75,0.03409
1201.61,0.02787
1178.46,0.02234
1155.32,0.02605
1132.17,0.02072
1109.03,0.02700
1085.88,0.03199
1062.74,0.04396
1039.59,0.04026
1016.45,0.04719
993.304,0.04866
970.159,0.06236
947.014,0.08602
923.869,0.08315
900.724,0.05368
877.579,0.08238
854.434,0.08027
831.289,0.06763
808.144,0.05785
784.999,0.05240
761.854,0.04595
738.709,0.04217
715.565,0.03746
692.42,0.03576
669.275,0.03402
646.13,0.03506
622.985,0.03351
599.84,0.03143