File: 01_Data/Rayon_Bamboo_Pillowcase/FTIR/IS/Rayon_Bamboo_Pillowcase_IS_S_220909_R4.dpt
7497.03,0.82118
7473.89,0.81341
7450.74,0.80898
7427.6,0.81489
7404.45,0.79310
7381.31,0.79315
7358.16,0.77945
7335.02,0.77613
7311.87,0.77921
7288.73,0.76661
7265.58,0.76297
7242.44,0.75930
7219.29,0.76837
7196.15,0.75220
7173,0.74623
7149.86,0.73515
7126.71,0.72631
7103.57,0.70349
7080.42,0.67408
7057.28,0.66054
7034.13,0.63261
7010.99,0.60593
6987.84,0.59762
6964.7,0.58509
6941.55,0.57841
6918.41,0.57785
6895.26,0.56719
6872.12,0.55891
6848.97,0.56104
6825.83,0.55692
6802.68,0.55081
6779.54,0.55004
6756.39,0.54970
6733.25,0.56046
6710.1,0.56187
6686.96,0.56040
6663.82,0.56923
6640.67,0.57535
6617.53,0.57774
6594.38,0.58487
6571.24,0.58734
6548.09,0.59280
6524.95,0.59933
6501.8,0.60074
6478.66,0.60470
6455.51,0.60249
6432.37,0.60550
6409.22,0.60864
6386.08,0.60560
6362.93,0.60418
6339.79,0.60614
6316.64,0.60851
6293.5,0.61500
6270.35,0.61559
6247.21,0.62058
6224.06,0.62804
6200.92,0.63428
6177.77,0.63779
6154.63,0.64246
6131.48,0.64890
6108.34,0.65091
6085.19,0.66271
6062.05,0.66816
6038.9,0.67042
6015.76,0.67570
5992.61,0.67898
5969.47,0.67901
5946.32,0.67571
5923.18,0.67155
5900.03,0.66363
5876.89,0.66269
5853.74,0.66202
5830.6,0.65532
5807.45,0.65129
5784.31,0.64824
5761.16,0.64745
5738.02,0.64753
5714.87,0.64583
5691.73,0.64280
5668.58,0.63963
5645.44,0.63866
5622.29,0.64123
5599.15,0.64273
5576,0.64370
5552.86,0.64653
5529.71,0.65037
5506.57,0.65177
5483.42,0.65194
5460.28,0.65578
5437.13,0.65802
5413.99,0.66422
5390.84,0.66884
5367.7,0.66930
5344.55,0.66418
5321.41,0.65157
5298.26,0.63022
5275.12,0.59159
5251.97,0.54123
5228.83,0.50323
5205.68,0.47948
5182.54,0.46943
5159.39,0.47143
5136.25,0.48052
5113.1,0.49367
5089.96,0.50687
5066.81,0.51960
5043.67,0.53270
5020.52,0.54311
4997.38,0.55078
4974.23,0.55213
4951.09,0.54238
4927.94,0.52632
4904.8,0.50344
4881.65,0.47934
4858.51,0.46278
4835.36,0.44963
4812.22,0.43777
4789.07,0.43268
4765.93,0.43181
4742.78,0.43798
4719.64,0.44457
4696.49,0.45460
4673.35,0.46413
4650.2,0.47462
4627.06,0.48270
4603.92,0.49242
4580.77,0.49867
4557.63,0.50419
4534.48,0.50904
4511.34,0.51411
4488.19,0.51490
4465.05,0.50735
4441.9,0.48415
4418.76,0.45497
4395.61,0.44438
4372.47,0.44446
4349.32,0.44122
4326.18,0.42728
4303.03,0.41656
4279.89,0.41134
4256.74,0.40773
4233.6,0.40782
4210.45,0.41148
4187.31,0.41245
4164.16,0.40996
4141.02,0.39706
4117.87,0.37949
4094.73,0.35802
4071.58,0.33353
4048.44,0.31342
4025.29,0.29907
4002.15,0.29319
3979,0.29556
3955.86,0.29886
3932.71,0.30822
3909.57,0.32020
3886.42,0.33285
3863.28,0.34534
3840.13,0.35615
3816.99,0.35609
3793.84,0.35061
3770.7,0.34474
3747.55,0.33627
3724.41,0.31409
3701.26,0.27802
3678.12,0.22098
3654.97,0.14455
3631.83,0.09158
3608.68,0.05920
3585.54,0.04210
3562.39,0.03286
3539.25,0.02713
3516.1,0.02527
3492.96,0.02417
3469.81,0.02511
3446.67,0.02582
3423.52,0.02706
3400.38,0.02730
3377.23,0.02703
3354.09,0.02763
3330.94,0.02843
3307.8,0.02882
3284.65,0.02894
3261.51,0.02981
3238.36,0.03022
3215.22,0.03079
3192.07,0.03259
3168.93,0.03442
3145.78,0.03732
3122.64,0.04218
3099.49,0.04907
3076.35,0.05626
3053.2,0.06527
3030.06,0.07499
3006.91,0.08035
2983.77,0.07174
2960.62,0.05679
2937.48,0.04447
2914.33,0.04045
2891.19,0.04047
2868.04,0.04792
2844.9,0.06257
2821.75,0.07893
2798.61,0.09138
2775.46,0.10234
2752.32,0.10988
2729.17,0.11284
2706.03,0.12097
2682.88,0.13125
2659.74,0.14250
2636.59,0.15477
2613.45,0.16550
2590.3,0.17396
2567.16,0.17927
2544.02,0.18241
2520.87,0.18583
2497.73,0.19151
2474.58,0.20006
2451.44,0.21157
2428.29,0.22380
2405.15,0.23429
2382,0.24097
2358.86,0.24927
2335.71,0.25482
2312.57,0.25663
2289.42,0.25475
2266.28,0.24571
2243.13,0.23651
2219.99,0.23016
2196.84,0.22405
2173.7,0.21411
2150.55,0.20666
2127.41,0.20478
2104.26,0.21229
2081.12,0.21999
2057.97,0.22001
2034.83,0.22442
2011.68,0.23919
1988.54,0.24692
1965.39,0.25930
1942.25,0.27453
1919.1,0.28585
1895.96,0.29374
1872.81,0.29187
1849.67,0.28302
1826.52,0.27005
1803.38,0.25336
1780.23,0.23398
1757.09,0.20498
1733.94,0.17341
1710.8,0.09405
1687.65,0.05808
1664.51,0.05477
1641.36,0.06050
1618.22,0.07431
1595.07,0.09443
1571.93,0.10930
1548.78,0.11261
1525.64,0.09112
1502.49,0.06643
1479.35,0.05268
1456.2,0.03740
1433.06,0.03260
1409.91,0.03223
1386.77,0.02995
1363.62,0.02904
1340.48,0.03096
1317.33,0.03096
1294.19,0.03616
1271.04,0.03452
1247.9,0.03525
1224.75,0.03388
1201.61,0.02720
1178.46,0.02277
1155.32,0.02619
1132.17,0.02040
1109.03,0.02747
1085.88,0.03290
1062.74,0.04371
1039.59,0.04108
1016.45,0.04755
993.304,0.04871
970.159,0.06351
947.014,0.08852
923.869,0.08677
900.724,0.05503
877.579,0.08772
854.434,0.08793
831.289,0.07407
808.144,0.06292
784.999,0.05673
761.854,0.05028
738.709,0.04459
715.565,0.03961
692.42,0.03700
669.275,0.03431
646.13,0.03311
622.985,0.03051
599.84,0.03326