File: 01_Data/Rayon_Bamboo_Pillowcase/FTIR/IS/Rayon_Bamboo_Pillowcase_IS_S_220909_R5.dpt
7497.03,0.82070
7473.89,0.81312
7450.74,0.80050
7427.6,0.80519
7404.45,0.79769
7381.31,0.79351
7358.16,0.77525
7335.02,0.77504
7311.87,0.76560
7288.73,0.77029
7265.58,0.75990
7242.44,0.76144
7219.29,0.76570
7196.15,0.75276
7173,0.75056
7149.86,0.73644
7126.71,0.72616
7103.57,0.69852
7080.42,0.67922
7057.28,0.65790
7034.13,0.63550
7010.99,0.61481
6987.84,0.60201
6964.7,0.58671
6941.55,0.58507
6918.41,0.57645
6895.26,0.57481
6872.12,0.56543
6848.97,0.56037
6825.83,0.55842
6802.68,0.55658
6779.54,0.55964
6756.39,0.55722
6733.25,0.55634
6710.1,0.56207
6686.96,0.56326
6663.82,0.56481
6640.67,0.57370
6617.53,0.58273
6594.38,0.58706
6571.24,0.59345
6548.09,0.59872
6524.95,0.59889
6501.8,0.60088
6478.66,0.60685
6455.51,0.60297
6432.37,0.60512
6409.22,0.60291
6386.08,0.60633
6362.93,0.60386
6339.79,0.60413
6316.64,0.60803
6293.5,0.61387
6270.35,0.61672
6247.21,0.62102
6224.06,0.63067
6200.92,0.63354
6177.77,0.64098
6154.63,0.64813
6131.48,0.65043
6108.34,0.65916
6085.19,0.66305
6062.05,0.66640
6038.9,0.67065
6015.76,0.67515
5992.61,0.68009
5969.47,0.68236
5946.32,0.67719
5923.18,0.67109
5900.03,0.66626
5876.89,0.66463
5853.74,0.66405
5830.6,0.65811
5807.45,0.65314
5784.31,0.64775
5761.16,0.64974
5738.02,0.65077
5714.87,0.64921
5691.73,0.64592
5668.58,0.64092
5645.44,0.64335
5622.29,0.64320
5599.15,0.64389
5576,0.64371
5552.86,0.64736
5529.71,0.65005
5506.57,0.65298
5483.42,0.65413
5460.28,0.65626
5437.13,0.65930
5413.99,0.66320
5390.84,0.66922
5367.7,0.66936
5344.55,0.66675
5321.41,0.65345
5298.26,0.63516
5275.12,0.59582
5251.97,0.54962
5228.83,0.50922
5205.68,0.48578
5182.54,0.47700
5159.39,0.47925
5136.25,0.48926
5113.1,0.50305
5089.96,0.51396
5066.81,0.52796
5043.67,0.54144
5020.52,0.55050
4997.38,0.55564
4974.23,0.55732
4951.09,0.54715
4927.94,0.52918
4904.8,0.50596
4881.65,0.48063
4858.51,0.46314
4835.36,0.44911
4812.22,0.44028
4789.07,0.43383
4765.93,0.43313
4742.78,0.43818
4719.64,0.44541
4696.49,0.45416
4673.35,0.46512
4650.2,0.47509
4627.06,0.48461
4603.92,0.49114
4580.77,0.49802
4557.63,0.50443
4534.48,0.51042
4511.34,0.51530
4488.19,0.51572
4465.05,0.50892
4441.9,0.48438
4418.76,0.45590
4395.61,0.44468
4372.47,0.44445
4349.32,0.44125
4326.18,0.42741
4303.03,0.41719
4279.89,0.41193
4256.74,0.40851
4233.6,0.40885
4210.45,0.41204
4187.31,0.41515
4164.16,0.41070
4141.02,0.39816
4117.87,0.38105
4094.73,0.35897
4071.58,0.33483
4048.44,0.31401
4025.29,0.29982
4002.15,0.29309
3979,0.29714
3955.86,0.29972
3932.71,0.30943
3909.57,0.32190
3886.42,0.33452
3863.28,0.34732
3840.13,0.35830
3816.99,0.35870
3793.84,0.35442
3770.7,0.34802
3747.55,0.33945
3724.41,0.31888
3701.26,0.28354
3678.12,0.22611
3654.97,0.14955
3631.83,0.09555
3608.68,0.06275
3585.54,0.04347
3562.39,0.03314
3539.25,0.02837
3516.1,0.02585
3492.96,0.02483
3469.81,0.02469
3446.67,0.02629
3423.52,0.02693
3400.38,0.02765
3377.23,0.02826
3354.09,0.02836
3330.94,0.02830
3307.8,0.02917
3284.65,0.02985
3261.51,0.02982
3238.36,0.03149
3215.22,0.03147
3192.07,0.03313
3168.93,0.03501
3145.78,0.03788
3122.64,0.04262
3099.49,0.04886
3076.35,0.05777
3053.2,0.06717
3030.06,0.07666
3006.91,0.08212
2983.77,0.07265
2960.62,0.05723
2937.48,0.04514
2914.33,0.03989
2891.19,0.04033
2868.04,0.04810
2844.9,0.06306
2821.75,0.07981
2798.61,0.09217
2775.46,0.10285
2752.32,0.11000
2729.17,0.11375
2706.03,0.12111
2682.88,0.13218
2659.74,0.14324
2636.59,0.15480
2613.45,0.16614
2590.3,0.17509
2567.16,0.18054
2544.02,0.18347
2520.87,0.18685
2497.73,0.19229
2474.58,0.20184
2451.44,0.21210
2428.29,0.22510
2405.15,0.23524
2382,0.24245
2358.86,0.25044
2335.71,0.25715
2312.57,0.25942
2289.42,0.25723
2266.28,0.24856
2243.13,0.23918
2219.99,0.23325
2196.84,0.22769
2173.7,0.21713
2150.55,0.20994
2127.41,0.20808
2104.26,0.21535
2081.12,0.22356
2057.97,0.22364
2034.83,0.22730
2011.68,0.24258
1988.54,0.25021
1965.39,0.26231
1942.25,0.27765
1919.1,0.28934
1895.96,0.29716
1872.81,0.29596
1849.67,0.28723
1826.52,0.27353
1803.38,0.25715
1780.23,0.23740
1757.09,0.20886
1733.94,0.17668
1710.8,0.09495
1687.65,0.05890
1664.51,0.05678
1641.36,0.06264
1618.22,0.07601
1595.07,0.09632
1571.93,0.11154
1548.78,0.11499
1525.64,0.09279
1502.49,0.06738
1479.35,0.05288
1456.2,0.03719
1433.06,0.03293
1409.91,0.03197
1386.77,0.03030
1363.62,0.02922
1340.48,0.03121
1317.33,0.03110
1294.19,0.03652
1271.04,0.03429
1247.9,0.03551
1224.75,0.03375
1201.61,0.02764
1178.46,0.02204
1155.32,0.02578
1132.17,0.02021
1109.03,0.02767
1085.88,0.03238
1062.74,0.04391
1039.59,0.04139
1016.45,0.04801
993.304,0.04844
970.159,0.06278
947.014,0.08879
923.869,0.08876
900.724,0.05639
877.579,0.08981
854.434,0.09111
831.289,0.07556
808.144,0.06484
784.999,0.05841
761.854,0.05112
738.709,0.04588
715.565,0.04048
692.42,0.03819
669.275,0.03404
646.13,0.03560
622.985,0.02964
599.84,0.03386