File: 01_Data/Rayon_Bamboo_Pillowcase/FTIR/IS/Rayon_Bamboo_Pillowcase_IS_T_220909_R2.dpt
7497.03,0.02257
7473.89,0.02770
7450.74,0.02661
7427.6,0.02435
7404.45,0.02560
7381.31,0.02577
7358.16,0.01769
7335.02,0.01829
7311.87,0.02296
7288.73,0.02361
7265.58,0.01772
7242.44,0.02340
7219.29,0.02809
7196.15,0.02605
7173,0.01613
7149.86,0.01729
7126.71,0.02159
7103.57,0.02593
7080.42,0.02319
7057.28,0.01886
7034.13,0.02490
7010.99,0.02594
6987.84,0.02557
6964.7,0.02882
6941.55,0.02500
6918.41,0.02645
6895.26,0.02823
6872.12,0.01852
6848.97,0.02335
6825.83,0.02671
6802.68,0.02428
6779.54,0.02219
6756.39,0.02403
6733.25,0.01961
6710.1,0.02749
6686.96,0.02319
6663.82,0.02380
6640.67,0.02384
6617.53,0.02191
6594.38,0.02244
6571.24,0.02522
6548.09,0.01835
6524.95,0.02232
6501.8,0.02095
6478.66,0.02521
6455.51,0.02163
6432.37,0.02291
6409.22,0.02060
6386.08,0.02488
6362.93,0.02241
6339.79,0.02184
6316.64,0.02258
6293.5,0.02169
6270.35,0.01973
6247.21,0.02111
6224.06,0.02124
6200.92,0.01895
6177.77,0.01963
6154.63,0.02111
6131.48,0.02133
6108.34,0.02255
6085.19,0.02288
6062.05,0.02218
6038.9,0.02214
6015.76,0.02287
5992.61,0.02236
5969.47,0.02206
5946.32,0.02265
5923.18,0.02140
5900.03,0.02133
5876.89,0.02072
5853.74,0.02578
5830.6,0.02236
5807.45,0.02300
5784.31,0.02242
5761.16,0.02016
5738.02,0.02058
5714.87,0.02205
5691.73,0.02132
5668.58,0.02227
5645.44,0.02423
5622.29,0.02071
5599.15,0.02282
5576,0.02069
5552.86,0.02100
5529.71,0.02429
5506.57,0.02108
5483.42,0.02508
5460.28,0.02313
5437.13,0.02364
5413.99,0.02247
5390.84,0.02306
5367.7,0.02236
5344.55,0.02183
5321.41,0.02238
5298.26,0.02298
5275.12,0.02162
5251.97,0.02233
5228.83,0.02288
5205.68,0.02163
5182.54,0.02084
5159.39,0.02233
5136.25,0.02246
5113.1,0.02236
5089.96,0.02259
5066.81,0.02277
5043.67,0.02362
5020.52,0.02194
4997.38,0.02149
4974.23,0.02338
4951.09,0.02200
4927.94,0.02292
4904.8,0.02313
4881.65,0.02216
4858.51,0.02204
4835.36,0.02182
4812.22,0.02301
4789.07,0.02465
4765.93,0.02326
4742.78,0.02265
4719.64,0.02303
4696.49,0.02351
4673.35,0.02346
4650.2,0.02147
4627.06,0.02272
4603.92,0.02296
4580.77,0.02262
4557.63,0.02272
4534.48,0.02217
4511.34,0.02440
4488.19,0.02299
4465.05,0.02314
4441.9,0.02335
4418.76,0.02326
4395.61,0.02252
4372.47,0.02250
4349.32,0.02284
4326.18,0.02289
4303.03,0.02356
4279.89,0.02278
4256.74,0.02362
4233.6,0.02343
4210.45,0.02316
4187.31,0.02305
4164.16,0.02254
4141.02,0.02259
4117.87,0.02258
4094.73,0.02233
4071.58,0.02370
4048.44,0.02259
4025.29,0.02284
4002.15,0.02284
3979,0.02320
3955.86,0.02243
3932.71,0.02326
3909.57,0.02377
3886.42,0.02301
3863.28,0.02340
3840.13,0.02334
3816.99,0.02327
3793.84,0.02261
3770.7,0.02355
3747.55,0.02399
3724.41,0.02358
3701.26,0.02297
3678.12,0.02347
3654.97,0.02231
3631.83,0.02302
3608.68,0.02292
3585.54,0.02207
3562.39,0.02225
3539.25,0.02147
3516.1,0.02169
3492.96,0.02135
3469.81,0.02063
3446.67,0.02067
3423.52,0.02124
3400.38,0.02062
3377.23,0.02125
3354.09,0.02056
3330.94,0.01978
3307.8,0.01994
3284.65,0.02009
3261.51,0.02130
3238.36,0.02098
3215.22,0.02106
3192.07,0.02128
3168.93,0.02090
3145.78,0.02170
3122.64,0.02076
3099.49,0.02129
3076.35,0.02120
3053.2,0.02098
3030.06,0.02094
3006.91,0.02097
2983.77,0.02067
2960.62,0.01988
2937.48,0.01994
2914.33,0.02074
2891.19,0.02111
2868.04,0.02089
2844.9,0.02150
2821.75,0.02178
2798.61,0.02146
2775.46,0.02202
2752.32,0.02231
2729.17,0.02183
2706.03,0.02206
2682.88,0.02207
2659.74,0.02164
2636.59,0.02166
2613.45,0.02194
2590.3,0.02179
2567.16,0.02220
2544.02,0.02185
2520.87,0.02200
2497.73,0.02191
2474.58,0.02199
2451.44,0.02207
2428.29,0.02175
2405.15,0.02205
2382,0.02214
2358.86,0.02254
2335.71,0.02212
2312.57,0.02181
2289.42,0.02189
2266.28,0.02161
2243.13,0.02191
2219.99,0.02145
2196.84,0.02167
2173.7,0.02161
2150.55,0.02178
2127.41,0.02162
2104.26,0.02199
2081.12,0.02170
2057.97,0.02195
2034.83,0.02165
2011.68,0.02154
1988.54,0.02162
1965.39,0.02149
1942.25,0.02176
1919.1,0.02124
1895.96,0.02123
1872.81,0.02108
1849.67,0.02098
1826.52,0.02119
1803.38,0.02009
1780.23,0.01963
1757.09,0.01856
1733.94,0.02024
1710.8,0.02149
1687.65,0.02032
1664.51,0.01953
1641.36,0.01913
1618.22,0.01973
1595.07,0.01974
1571.93,0.01897
1548.78,0.01897
1525.64,0.01960
1502.49,0.01916
1479.35,0.01937
1456.2,0.01962
1433.06,0.01950
1409.91,0.01889
1386.77,0.01824
1363.62,0.01897
1340.48,0.01855
1317.33,0.01741
1294.19,0.01880
1271.04,0.01983
1247.9,0.02115
1224.75,0.02007
1201.61,0.01865
1178.46,0.01832
1155.32,0.01785
1132.17,0.01871
1109.03,0.01904
1085.88,0.01855
1062.74,0.02017
1039.59,0.01969
1016.45,0.01998
993.304,0.02123
970.159,0.02085
947.014,0.02073
923.869,0.01922
900.724,0.01985
877.579,0.01943
854.434,0.01913
831.289,0.01962
808.144,0.01845
784.999,0.01897
761.854,0.01881
738.709,0.01832
715.565,0.01858
692.42,0.01840
669.275,0.01742
646.13,0.01520
622.985,0.01574
599.84,0.01702