File: 01_Data/Rayon_Bamboo_Pillowcase/FTIR/IS/Rayon_Bamboo_Pillowcase_IS_S_220909_R2.dpt
7497.03,0.82000
7473.89,0.80941
7450.74,0.79358
7427.6,0.80349
7404.45,0.79383
7381.31,0.79758
7358.16,0.78336
7335.02,0.77130
7311.87,0.76799
7288.73,0.76574
7265.58,0.75809
7242.44,0.75565
7219.29,0.76066
7196.15,0.74933
7173,0.74183
7149.86,0.72716
7126.71,0.71872
7103.57,0.68990
7080.42,0.66636
7057.28,0.64716
7034.13,0.63249
7010.99,0.61307
6987.84,0.59951
6964.7,0.58169
6941.55,0.57448
6918.41,0.57311
6895.26,0.56393
6872.12,0.56302
6848.97,0.56064
6825.83,0.55836
6802.68,0.54572
6779.54,0.54918
6756.39,0.54910
6733.25,0.55092
6710.1,0.55930
6686.96,0.55959
6663.82,0.56459
6640.67,0.57225
6617.53,0.57619
6594.38,0.58738
6571.24,0.59090
6548.09,0.59458
6524.95,0.59474
6501.8,0.59633
6478.66,0.59772
6455.51,0.59948
6432.37,0.60399
6409.22,0.60054
6386.08,0.59913
6362.93,0.60127
6339.79,0.60003
6316.64,0.60319
6293.5,0.60822
6270.35,0.61261
6247.21,0.61779
6224.06,0.62252
6200.92,0.62832
6177.77,0.63855
6154.63,0.63861
6131.48,0.64568
6108.34,0.65100
6085.19,0.65346
6062.05,0.66427
6038.9,0.66709
6015.76,0.67045
5992.61,0.67445
5969.47,0.67196
5946.32,0.67158
5923.18,0.66728
5900.03,0.66264
5876.89,0.65937
5853.74,0.65815
5830.6,0.65521
5807.45,0.64934
5784.31,0.64682
5761.16,0.64647
5738.02,0.64518
5714.87,0.64348
5691.73,0.64314
5668.58,0.63773
5645.44,0.63667
5622.29,0.63798
5599.15,0.63855
5576,0.64095
5552.86,0.64560
5529.71,0.64722
5506.57,0.64924
5483.42,0.64950
5460.28,0.65110
5437.13,0.65340
5413.99,0.65843
5390.84,0.66366
5367.7,0.66349
5344.55,0.65796
5321.41,0.64435
5298.26,0.61861
5275.12,0.57894
5251.97,0.52996
5228.83,0.48748
5205.68,0.46181
5182.54,0.45064
5159.39,0.45370
5136.25,0.46438
5113.1,0.47546
5089.96,0.49135
5066.81,0.50337
5043.67,0.51790
5020.52,0.52925
4997.38,0.53609
4974.23,0.53905
4951.09,0.53471
4927.94,0.51933
4904.8,0.49782
4881.65,0.47688
4858.51,0.46087
4835.36,0.44607
4812.22,0.43713
4789.07,0.43116
4765.93,0.43013
4742.78,0.43529
4719.64,0.44298
4696.49,0.45228
4673.35,0.46151
4650.2,0.47149
4627.06,0.47947
4603.92,0.48693
4580.77,0.49555
4557.63,0.50113
4534.48,0.50734
4511.34,0.51160
4488.19,0.51215
4465.05,0.50450
4441.9,0.48060
4418.76,0.45264
4395.61,0.44252
4372.47,0.44288
4349.32,0.43904
4326.18,0.42610
4303.03,0.41521
4279.89,0.40917
4256.74,0.40528
4233.6,0.40538
4210.45,0.40857
4187.31,0.41016
4164.16,0.40594
4141.02,0.39184
4117.87,0.37544
4094.73,0.35488
4071.58,0.33116
4048.44,0.31017
4025.29,0.29626
4002.15,0.28906
3979,0.29250
3955.86,0.29521
3932.71,0.30405
3909.57,0.31553
3886.42,0.32794
3863.28,0.34007
3840.13,0.34847
3816.99,0.34902
3793.84,0.34342
3770.7,0.33649
3747.55,0.32489
3724.41,0.30311
3701.26,0.26712
3678.12,0.20807
3654.97,0.13383
3631.83,0.08396
3608.68,0.05525
3585.54,0.04005
3562.39,0.03148
3539.25,0.02697
3516.1,0.02461
3492.96,0.02423
3469.81,0.02518
3446.67,0.02660
3423.52,0.02646
3400.38,0.02721
3377.23,0.02798
3354.09,0.02775
3330.94,0.02839
3307.8,0.02876
3284.65,0.02898
3261.51,0.02935
3238.36,0.02935
3215.22,0.03176
3192.07,0.03282
3168.93,0.03425
3145.78,0.03675
3122.64,0.04064
3099.49,0.04625
3076.35,0.05339
3053.2,0.06191
3030.06,0.07139
3006.91,0.07733
2983.77,0.06942
2960.62,0.05587
2937.48,0.04457
2914.33,0.04023
2891.19,0.04044
2868.04,0.04773
2844.9,0.06170
2821.75,0.07787
2798.61,0.08996
2775.46,0.10044
2752.32,0.10764
2729.17,0.11135
2706.03,0.11914
2682.88,0.12891
2659.74,0.14097
2636.59,0.15263
2613.45,0.16425
2590.3,0.17196
2567.16,0.17795
2544.02,0.18072
2520.87,0.18334
2497.73,0.18894
2474.58,0.19811
2451.44,0.20898
2428.29,0.22114
2405.15,0.23130
2382,0.23701
2358.86,0.24197
2335.71,0.24859
2312.57,0.25033
2289.42,0.24858
2266.28,0.23958
2243.13,0.23008
2219.99,0.22336
2196.84,0.21718
2173.7,0.20768
2150.55,0.19992
2127.41,0.19835
2104.26,0.20515
2081.12,0.21275
2057.97,0.21358
2034.83,0.21764
2011.68,0.23236
1988.54,0.23985
1965.39,0.25173
1942.25,0.26630
1919.1,0.27684
1895.96,0.28457
1872.81,0.28300
1849.67,0.27377
1826.52,0.26114
1803.38,0.24507
1780.23,0.22584
1757.09,0.19768
1733.94,0.16605
1710.8,0.09182
1687.65,0.05491
1664.51,0.05140
1641.36,0.05599
1618.22,0.06921
1595.07,0.08994
1571.93,0.10424
1548.78,0.10787
1525.64,0.08788
1502.49,0.06509
1479.35,0.05207
1456.2,0.03724
1433.06,0.03293
1409.91,0.03215
1386.77,0.02952
1363.62,0.02932
1340.48,0.03157
1317.33,0.03072
1294.19,0.03573
1271.04,0.03436
1247.9,0.03560
1224.75,0.03388
1201.61,0.02745
1178.46,0.02262
1155.32,0.02531
1132.17,0.02035
1109.03,0.02728
1085.88,0.03249
1062.74,0.04334
1039.59,0.04110
1016.45,0.04736
993.304,0.04840
970.159,0.06270
947.014,0.08699
923.869,0.08446
900.724,0.05450
877.579,0.08384
854.434,0.08311
831.289,0.06935
808.144,0.05953
784.999,0.05338
761.854,0.04726
738.709,0.04274
715.565,0.03883
692.42,0.03572
669.275,0.03403
646.13,0.03385
622.985,0.03039
599.84,0.03319