File: 01_Data/Rayon_Bamboo_Pillowcase/FTIR/IS/Rayon_Bamboo_Pillowcase_IS_S_220909_R7.dpt
7497.03,0.82875
7473.89,0.81916
7450.74,0.80271
7427.6,0.80065
7404.45,0.79694
7381.31,0.79192
7358.16,0.78902
7335.02,0.77347
7311.87,0.76735
7288.73,0.76121
7265.58,0.76365
7242.44,0.76794
7219.29,0.75696
7196.15,0.75746
7173,0.75299
7149.86,0.74421
7126.71,0.72127
7103.57,0.70939
7080.42,0.68586
7057.28,0.65875
7034.13,0.63744
7010.99,0.61251
6987.84,0.61019
6964.7,0.58934
6941.55,0.57665
6918.41,0.57553
6895.26,0.57206
6872.12,0.56824
6848.97,0.56477
6825.83,0.56029
6802.68,0.55614
6779.54,0.55178
6756.39,0.55929
6733.25,0.55671
6710.1,0.56537
6686.96,0.56670
6663.82,0.56972
6640.67,0.57738
6617.53,0.58331
6594.38,0.59073
6571.24,0.59472
6548.09,0.60016
6524.95,0.59939
6501.8,0.60407
6478.66,0.60442
6455.51,0.61035
6432.37,0.60427
6409.22,0.60683
6386.08,0.61073
6362.93,0.60411
6339.79,0.60670
6316.64,0.61321
6293.5,0.61976
6270.35,0.62059
6247.21,0.62321
6224.06,0.63050
6200.92,0.63123
6177.77,0.64133
6154.63,0.64751
6131.48,0.65089
6108.34,0.65887
6085.19,0.66228
6062.05,0.66914
6038.9,0.67472
6015.76,0.67775
5992.61,0.68035
5969.47,0.68364
5946.32,0.68095
5923.18,0.67182
5900.03,0.66616
5876.89,0.66708
5853.74,0.66468
5830.6,0.66316
5807.45,0.65279
5784.31,0.65107
5761.16,0.65083
5738.02,0.65118
5714.87,0.64979
5691.73,0.64563
5668.58,0.64545
5645.44,0.64445
5622.29,0.64399
5599.15,0.64214
5576,0.64684
5552.86,0.64789
5529.71,0.65399
5506.57,0.65190
5483.42,0.65479
5460.28,0.65805
5437.13,0.65908
5413.99,0.66347
5390.84,0.67084
5367.7,0.67190
5344.55,0.66977
5321.41,0.65668
5298.26,0.63746
5275.12,0.60367
5251.97,0.55816
5228.83,0.51876
5205.68,0.49827
5182.54,0.48898
5159.39,0.48961
5136.25,0.50070
5113.1,0.51283
5089.96,0.52568
5066.81,0.53739
5043.67,0.55006
5020.52,0.55861
4997.38,0.56389
4974.23,0.56157
4951.09,0.55178
4927.94,0.53247
4904.8,0.50559
4881.65,0.48207
4858.51,0.46290
4835.36,0.44940
4812.22,0.43962
4789.07,0.43302
4765.93,0.43276
4742.78,0.43824
4719.64,0.44538
4696.49,0.45351
4673.35,0.46618
4650.2,0.47531
4627.06,0.48452
4603.92,0.49201
4580.77,0.49940
4557.63,0.50612
4534.48,0.51135
4511.34,0.51605
4488.19,0.51485
4465.05,0.50733
4441.9,0.48484
4418.76,0.45562
4395.61,0.44392
4372.47,0.44441
4349.32,0.44054
4326.18,0.42724
4303.03,0.41813
4279.89,0.41233
4256.74,0.40880
4233.6,0.41002
4210.45,0.41248
4187.31,0.41558
4164.16,0.41256
4141.02,0.39946
4117.87,0.38220
4094.73,0.36075
4071.58,0.33603
4048.44,0.31505
4025.29,0.30049
4002.15,0.29481
3979,0.29808
3955.86,0.30142
3932.71,0.31025
3909.57,0.32307
3886.42,0.33602
3863.28,0.34913
3840.13,0.35991
3816.99,0.36159
3793.84,0.35734
3770.7,0.35172
3747.55,0.34358
3724.41,0.32255
3701.26,0.28871
3678.12,0.23214
3654.97,0.15636
3631.83,0.10062
3608.68,0.06565
3585.54,0.04491
3562.39,0.03428
3539.25,0.02836
3516.1,0.02551
3492.96,0.02493
3469.81,0.02513
3446.67,0.02622
3423.52,0.02662
3400.38,0.02795
3377.23,0.02773
3354.09,0.02833
3330.94,0.02806
3307.8,0.02903
3284.65,0.02971
3261.51,0.02987
3238.36,0.03056
3215.22,0.03243
3192.07,0.03366
3168.93,0.03568
3145.78,0.03879
3122.64,0.04356
3099.49,0.05043
3076.35,0.05902
3053.2,0.06916
3030.06,0.07845
3006.91,0.08434
2983.77,0.07401
2960.62,0.05703
2937.48,0.04526
2914.33,0.04047
2891.19,0.04055
2868.04,0.04813
2844.9,0.06293
2821.75,0.08059
2798.61,0.09268
2775.46,0.10371
2752.32,0.11129
2729.17,0.11450
2706.03,0.12242
2682.88,0.13274
2659.74,0.14422
2636.59,0.15569
2613.45,0.16701
2590.3,0.17561
2567.16,0.18143
2544.02,0.18425
2520.87,0.18742
2497.73,0.19294
2474.58,0.20229
2451.44,0.21347
2428.29,0.22606
2405.15,0.23645
2382,0.24421
2358.86,0.25091
2335.71,0.25898
2312.57,0.26114
2289.42,0.26000
2266.28,0.25136
2243.13,0.24241
2219.99,0.23620
2196.84,0.23062
2173.7,0.22038
2150.55,0.21314
2127.41,0.21172
2104.26,0.21912
2081.12,0.22719
2057.97,0.22726
2034.83,0.23130
2011.68,0.24616
1988.54,0.25420
1965.39,0.26599
1942.25,0.28178
1919.1,0.29354
1895.96,0.30168
1872.81,0.30031
1849.67,0.29145
1826.52,0.27761
1803.38,0.26083
1780.23,0.24134
1757.09,0.21218
1733.94,0.17935
1710.8,0.09590
1687.65,0.06013
1664.51,0.05910
1641.36,0.06528
1618.22,0.07847
1595.07,0.09927
1571.93,0.11487
1548.78,0.11738
1525.64,0.09384
1502.49,0.06809
1479.35,0.05277
1456.2,0.03730
1433.06,0.03270
1409.91,0.03187
1386.77,0.02983
1363.62,0.02949
1340.48,0.03102
1317.33,0.03090
1294.19,0.03591
1271.04,0.03428
1247.9,0.03544
1224.75,0.03409
1201.61,0.02743
1178.46,0.02204
1155.32,0.02570
1132.17,0.02069
1109.03,0.02805
1085.88,0.03249
1062.74,0.04446
1039.59,0.04078
1016.45,0.04745
993.304,0.04853
970.159,0.06348
947.014,0.08971
923.869,0.08999
900.724,0.05750
877.579,0.09184
854.434,0.09485
831.289,0.07853
808.144,0.06772
784.999,0.06052
761.854,0.05323
738.709,0.04708
715.565,0.04107
692.42,0.03761
669.275,0.03434
646.13,0.03589
622.985,0.03429
599.84,0.03349