File: 01_Data/Rayon_Bamboo_Pillowcase/FTIR/IS/Rayon_Bamboo_Pillowcase_IS_S_220909_R8.dpt
7497.03,0.82960
7473.89,0.81399
7450.74,0.81193
7427.6,0.80493
7404.45,0.79668
7381.31,0.80098
7358.16,0.77296
7335.02,0.77479
7311.87,0.77345
7288.73,0.76563
7265.58,0.76421
7242.44,0.76487
7219.29,0.76970
7196.15,0.75464
7173,0.75101
7149.86,0.73975
7126.71,0.72942
7103.57,0.70860
7080.42,0.68568
7057.28,0.65703
7034.13,0.63676
7010.99,0.61738
6987.84,0.60672
6964.7,0.59135
6941.55,0.58300
6918.41,0.58000
6895.26,0.57111
6872.12,0.57100
6848.97,0.56192
6825.83,0.56157
6802.68,0.56042
6779.54,0.55543
6756.39,0.55454
6733.25,0.56056
6710.1,0.56231
6686.96,0.56841
6663.82,0.57040
6640.67,0.57911
6617.53,0.58635
6594.38,0.58838
6571.24,0.59246
6548.09,0.59704
6524.95,0.60099
6501.8,0.60469
6478.66,0.60755
6455.51,0.60638
6432.37,0.60439
6409.22,0.61055
6386.08,0.60906
6362.93,0.60870
6339.79,0.61260
6316.64,0.61425
6293.5,0.61604
6270.35,0.61977
6247.21,0.62314
6224.06,0.63255
6200.92,0.63520
6177.77,0.64209
6154.63,0.64852
6131.48,0.65337
6108.34,0.65719
6085.19,0.66210
6062.05,0.67240
6038.9,0.67647
6015.76,0.67981
5992.61,0.68209
5969.47,0.68398
5946.32,0.67620
5923.18,0.67146
5900.03,0.66802
5876.89,0.66453
5853.74,0.66337
5830.6,0.65970
5807.45,0.65357
5784.31,0.65366
5761.16,0.65081
5738.02,0.65224
5714.87,0.64924
5691.73,0.64752
5668.58,0.64463
5645.44,0.64569
5622.29,0.64542
5599.15,0.64714
5576,0.64739
5552.86,0.64958
5529.71,0.65305
5506.57,0.65461
5483.42,0.65475
5460.28,0.65920
5437.13,0.66197
5413.99,0.66690
5390.84,0.67129
5367.7,0.67131
5344.55,0.66880
5321.41,0.65940
5298.26,0.64020
5275.12,0.60601
5251.97,0.56056
5228.83,0.52300
5205.68,0.50033
5182.54,0.49101
5159.39,0.49262
5136.25,0.50324
5113.1,0.51514
5089.96,0.52919
5066.81,0.53980
5043.67,0.55162
5020.52,0.56008
4997.38,0.56679
4974.23,0.56278
4951.09,0.55052
4927.94,0.53322
4904.8,0.50800
4881.65,0.48215
4858.51,0.46473
4835.36,0.44992
4812.22,0.43892
4789.07,0.43321
4765.93,0.43398
4742.78,0.43819
4719.64,0.44665
4696.49,0.45585
4673.35,0.46620
4650.2,0.47611
4627.06,0.48422
4603.92,0.49190
4580.77,0.50099
4557.63,0.50569
4534.48,0.51165
4511.34,0.51662
4488.19,0.51743
4465.05,0.50896
4441.9,0.48549
4418.76,0.45596
4395.61,0.44446
4372.47,0.44429
4349.32,0.44090
4326.18,0.42791
4303.03,0.41858
4279.89,0.41236
4256.74,0.40889
4233.6,0.40979
4210.45,0.41315
4187.31,0.41542
4164.16,0.41299
4141.02,0.39934
4117.87,0.38247
4094.73,0.36060
4071.58,0.33649
4048.44,0.31578
4025.29,0.30081
4002.15,0.29519
3979,0.29894
3955.86,0.30240
3932.71,0.31114
3909.57,0.32348
3886.42,0.33614
3863.28,0.34915
3840.13,0.36055
3816.99,0.36264
3793.84,0.35846
3770.7,0.35304
3747.55,0.34451
3724.41,0.32394
3701.26,0.29084
3678.12,0.23551
3654.97,0.15824
3631.83,0.10157
3608.68,0.06678
3585.54,0.04547
3562.39,0.03462
3539.25,0.02875
3516.1,0.02633
3492.96,0.02533
3469.81,0.02500
3446.67,0.02599
3423.52,0.02669
3400.38,0.02773
3377.23,0.02736
3354.09,0.02750
3330.94,0.02784
3307.8,0.02870
3284.65,0.02911
3261.51,0.03006
3238.36,0.03093
3215.22,0.03214
3192.07,0.03439
3168.93,0.03614
3145.78,0.03937
3122.64,0.04396
3099.49,0.05088
3076.35,0.05945
3053.2,0.06903
3030.06,0.07888
3006.91,0.08490
2983.77,0.07414
2960.62,0.05702
2937.48,0.04525
2914.33,0.04064
2891.19,0.04046
2868.04,0.04812
2844.9,0.06345
2821.75,0.08039
2798.61,0.09348
2775.46,0.10405
2752.32,0.11132
2729.17,0.11537
2706.03,0.12287
2682.88,0.13318
2659.74,0.14431
2636.59,0.15597
2613.45,0.16734
2590.3,0.17563
2567.16,0.18165
2544.02,0.18484
2520.87,0.18743
2497.73,0.19304
2474.58,0.20260
2451.44,0.21383
2428.29,0.22641
2405.15,0.23741
2382,0.24444
2358.86,0.25105
2335.71,0.25952
2312.57,0.26194
2289.42,0.26084
2266.28,0.25250
2243.13,0.24317
2219.99,0.23727
2196.84,0.23178
2173.7,0.22213
2150.55,0.21403
2127.41,0.21211
2104.26,0.22073
2081.12,0.22862
2057.97,0.22825
2034.83,0.23209
2011.68,0.24747
1988.54,0.25505
1965.39,0.26723
1942.25,0.28271
1919.1,0.29463
1895.96,0.30311
1872.81,0.30174
1849.67,0.29231
1826.52,0.27909
1803.38,0.26214
1780.23,0.24222
1757.09,0.21344
1733.94,0.18058
1710.8,0.09590
1687.65,0.06014
1664.51,0.06000
1641.36,0.06650
1618.22,0.08057
1595.07,0.09988
1571.93,0.11556
1548.78,0.11829
1525.64,0.09410
1502.49,0.06792
1479.35,0.05344
1456.2,0.03723
1433.06,0.03298
1409.91,0.03177
1386.77,0.02993
1363.62,0.02896
1340.48,0.03115
1317.33,0.03082
1294.19,0.03634
1271.04,0.03398
1247.9,0.03537
1224.75,0.03389
1201.61,0.02742
1178.46,0.02187
1155.32,0.02607
1132.17,0.02090
1109.03,0.02796
1085.88,0.03264
1062.74,0.04404
1039.59,0.04184
1016.45,0.04754
993.304,0.04896
970.159,0.06377
947.014,0.08974
923.869,0.08949
900.724,0.05743
877.579,0.09217
854.434,0.09599
831.289,0.08010
808.144,0.06837
784.999,0.06145
761.854,0.05437
738.709,0.04773
715.565,0.04281
692.42,0.03887
669.275,0.03425
646.13,0.03398
622.985,0.03298
599.84,0.03507