File: 01_Data/Cedar_Shingle/FTIR/IS/Cedar_Shingle_IS_S_221017_R1.dpt
7497.03,0.88133
7473.89,0.87422
7450.74,0.87040
7427.6,0.86317
7404.45,0.85841
7381.31,0.85823
7358.16,0.84663
7335.02,0.83913
7311.87,0.83661
7288.73,0.83335
7265.58,0.82219
7242.44,0.82575
7219.29,0.82063
7196.15,0.81693
7173,0.80988
7149.86,0.79626
7126.71,0.78897
7103.57,0.76554
7080.42,0.74991
7057.28,0.73416
7034.13,0.71726
7010.99,0.69776
6987.84,0.69391
6964.7,0.68581
6941.55,0.69034
6918.41,0.68404
6895.26,0.67911
6872.12,0.67861
6848.97,0.68343
6825.83,0.67869
6802.68,0.67870
6779.54,0.68067
6756.39,0.67887
6733.25,0.68694
6710.1,0.68436
6686.96,0.69073
6663.82,0.68559
6640.67,0.69348
6617.53,0.69690
6594.38,0.70202
6571.24,0.70396
6548.09,0.70784
6524.95,0.70758
6501.8,0.70834
6478.66,0.70771
6455.51,0.71265
6432.37,0.71328
6409.22,0.71811
6386.08,0.71956
6362.93,0.71554
6339.79,0.72336
6316.64,0.72177
6293.5,0.72586
6270.35,0.73204
6247.21,0.73631
6224.06,0.74129
6200.92,0.74557
6177.77,0.75025
6154.63,0.75582
6131.48,0.76076
6108.34,0.75948
6085.19,0.76378
6062.05,0.76149
6038.9,0.75827
6015.76,0.75027
5992.61,0.74317
5969.47,0.74182
5946.32,0.74085
5923.18,0.73947
5900.03,0.73791
5876.89,0.73653
5853.74,0.73588
5830.6,0.73518
5807.45,0.73285
5784.31,0.73373
5761.16,0.73823
5738.02,0.73783
5714.87,0.73572
5691.73,0.73561
5668.58,0.73671
5645.44,0.73445
5622.29,0.73353
5599.15,0.73655
5576,0.73733
5552.86,0.73783
5529.71,0.74074
5506.57,0.74301
5483.42,0.74310
5460.28,0.74786
5437.13,0.74963
5413.99,0.75259
5390.84,0.75420
5367.7,0.75484
5344.55,0.74852
5321.41,0.73828
5298.26,0.71701
5275.12,0.67866
5251.97,0.63389
5228.83,0.60293
5205.68,0.59046
5182.54,0.58730
5159.39,0.59543
5136.25,0.60810
5113.1,0.62013
5089.96,0.63162
5066.81,0.64314
5043.67,0.65393
5020.52,0.66212
4997.38,0.66545
4974.23,0.66423
4951.09,0.65526
4927.94,0.64123
4904.8,0.62301
4881.65,0.60433
4858.51,0.58871
4835.36,0.57366
4812.22,0.56392
4789.07,0.55920
4765.93,0.55494
4742.78,0.55424
4719.64,0.55616
4696.49,0.55869
4673.35,0.56229
4650.2,0.57181
4627.06,0.57947
4603.92,0.59096
4580.77,0.60091
4557.63,0.60790
4534.48,0.61172
4511.34,0.61260
4488.19,0.60312
4465.05,0.58152
4441.9,0.55642
4418.76,0.52842
4395.61,0.51468
4372.47,0.52363
4349.32,0.52783
4326.18,0.52239
4303.03,0.51402
4279.89,0.50861
4256.74,0.51243
4233.6,0.51564
4210.45,0.51480
4187.31,0.51733
4164.16,0.52185
4141.02,0.51825
4117.87,0.50535
4094.73,0.48737
4071.58,0.46536
4048.44,0.44399
4025.29,0.42962
4002.15,0.42785
3979,0.43365
3955.86,0.44192
3932.71,0.45428
3909.57,0.46385
3886.42,0.47285
3863.28,0.48182
3840.13,0.49197
3816.99,0.49401
3793.84,0.49190
3770.7,0.48780
3747.55,0.47967
3724.41,0.46045
3701.26,0.42729
3678.12,0.36124
3654.97,0.27211
3631.83,0.20856
3608.68,0.16311
3585.54,0.12851
3562.39,0.10482
3539.25,0.08990
3516.1,0.07898
3492.96,0.07201
3469.81,0.06683
3446.67,0.06418
3423.52,0.06364
3400.38,0.06455
3377.23,0.06478
3354.09,0.06681
3330.94,0.07152
3307.8,0.07619
3284.65,0.08128
3261.51,0.08888
3238.36,0.09884
3215.22,0.10942
3192.07,0.12153
3168.93,0.13415
3145.78,0.14775
3122.64,0.16085
3099.49,0.17398
3076.35,0.18326
3053.2,0.19412
3030.06,0.19995
3006.91,0.19102
2983.77,0.17100
2960.62,0.13655
2937.48,0.11877
2914.33,0.11584
2891.19,0.12040
2868.04,0.13108
2844.9,0.15204
2821.75,0.19137
2798.61,0.21934
2775.46,0.23158
2752.32,0.23730
2729.17,0.24088
2706.03,0.25296
2682.88,0.26600
2659.74,0.27518
2636.59,0.28355
2613.45,0.29283
2590.3,0.30080
2567.16,0.30608
2544.02,0.30850
2520.87,0.31596
2497.73,0.32814
2474.58,0.34021
2451.44,0.35122
2428.29,0.36379
2405.15,0.37790
2382,0.38995
2358.86,0.39992
2335.71,0.40664
2312.57,0.40968
2289.42,0.40865
2266.28,0.40468
2243.13,0.40039
2219.99,0.39932
2196.84,0.39521
2173.7,0.38263
2150.55,0.37291
2127.41,0.37084
2104.26,0.37564
2081.12,0.37763
2057.97,0.37316
2034.83,0.38048
2011.68,0.39573
1988.54,0.40493
1965.39,0.41338
1942.25,0.42578
1919.1,0.43300
1895.96,0.43148
1872.81,0.42798
1849.67,0.42242
1826.52,0.40826
1803.38,0.35608
1780.23,0.26922
1757.09,0.20346
1733.94,0.17284
1710.8,0.20809
1687.65,0.20059
1664.51,0.14817
1641.36,0.14945
1618.22,0.14459
1595.07,0.13341
1571.93,0.19425
1548.78,0.21129
1525.64,0.13775
1502.49,0.10002
1479.35,0.11334
1456.2,0.08515
1433.06,0.08123
1409.91,0.09420
1386.77,0.08529
1363.62,0.08100
1340.48,0.08358
1317.33,0.08077
1294.19,0.08308
1271.04,0.07100
1247.9,0.08079
1224.75,0.08147
1201.61,0.08852
1178.46,0.07947
1155.32,0.07430
1132.17,0.06648
1109.03,0.06830
1085.88,0.07174
1062.74,0.09233
1039.59,0.10153
1016.45,0.12143
993.304,0.13689
970.159,0.17979
947.014,0.21781
923.869,0.23990
900.724,0.21650
877.579,0.23899
854.434,0.25194
831.289,0.25566
808.144,0.23136
784.999,0.24053
761.854,0.22021
738.709,0.20110
715.565,0.17712
692.42,0.16183
669.275,0.13817
646.13,0.13907
622.985,0.12176
599.84,0.12990