File: 01_Data/Cedar_Shingle/FTIR/IS/Cedar_Shingle_IS_T_221017_R6.dpt
7497.03,0.02206
7473.89,0.02481
7450.74,0.02864
7427.6,0.02258
7404.45,0.01434
7381.31,0.02761
7358.16,0.03195
7335.02,0.02340
7311.87,0.02465
7288.73,0.01984
7265.58,0.02074
7242.44,0.02412
7219.29,0.02112
7196.15,0.03079
7173,0.02314
7149.86,0.01948
7126.71,0.02378
7103.57,0.02716
7080.42,0.02316
7057.28,0.02366
7034.13,0.02265
7010.99,0.01925
6987.84,0.02460
6964.7,0.02055
6941.55,0.02080
6918.41,0.02457
6895.26,0.02040
6872.12,0.02531
6848.97,0.02224
6825.83,0.02347
6802.68,0.02603
6779.54,0.02436
6756.39,0.02338
6733.25,0.01750
6710.1,0.02515
6686.96,0.02456
6663.82,0.02347
6640.67,0.02240
6617.53,0.02471
6594.38,0.02351
6571.24,0.02161
6548.09,0.02595
6524.95,0.02254
6501.8,0.02658
6478.66,0.02334
6455.51,0.02359
6432.37,0.02162
6409.22,0.02305
6386.08,0.02148
6362.93,0.02055
6339.79,0.02516
6316.64,0.02488
6293.5,0.02249
6270.35,0.02174
6247.21,0.02243
6224.06,0.02228
6200.92,0.02187
6177.77,0.01728
6154.63,0.02064
6131.48,0.02219
6108.34,0.02393
6085.19,0.02147
6062.05,0.02088
6038.9,0.02243
6015.76,0.02417
5992.61,0.02282
5969.47,0.02320
5946.32,0.02210
5923.18,0.02473
5900.03,0.02220
5876.89,0.02159
5853.74,0.02312
5830.6,0.02208
5807.45,0.02168
5784.31,0.02220
5761.16,0.02173
5738.02,0.02271
5714.87,0.02154
5691.73,0.02318
5668.58,0.02317
5645.44,0.02112
5622.29,0.02332
5599.15,0.02055
5576,0.02239
5552.86,0.02189
5529.71,0.02268
5506.57,0.02223
5483.42,0.02220
5460.28,0.02238
5437.13,0.02223
5413.99,0.02187
5390.84,0.02047
5367.7,0.02256
5344.55,0.02252
5321.41,0.02431
5298.26,0.02232
5275.12,0.02283
5251.97,0.02137
5228.83,0.02223
5205.68,0.02264
5182.54,0.02154
5159.39,0.02136
5136.25,0.02237
5113.1,0.02249
5089.96,0.02192
5066.81,0.02366
5043.67,0.02183
5020.52,0.02292
4997.38,0.02318
4974.23,0.02278
4951.09,0.02369
4927.94,0.02328
4904.8,0.02257
4881.65,0.02303
4858.51,0.02343
4835.36,0.02261
4812.22,0.02232
4789.07,0.02280
4765.93,0.02245
4742.78,0.02325
4719.64,0.02189
4696.49,0.02293
4673.35,0.02312
4650.2,0.02312
4627.06,0.02295
4603.92,0.02345
4580.77,0.02314
4557.63,0.02301
4534.48,0.02329
4511.34,0.02259
4488.19,0.02197
4465.05,0.02353
4441.9,0.02192
4418.76,0.02397
4395.61,0.02272
4372.47,0.02362
4349.32,0.02249
4326.18,0.02300
4303.03,0.02366
4279.89,0.02313
4256.74,0.02353
4233.6,0.02303
4210.45,0.02344
4187.31,0.02329
4164.16,0.02318
4141.02,0.02323
4117.87,0.02408
4094.73,0.02316
4071.58,0.02347
4048.44,0.02364
4025.29,0.02255
4002.15,0.02276
3979,0.02309
3955.86,0.02343
3932.71,0.02363
3909.57,0.02373
3886.42,0.02374
3863.28,0.02339
3840.13,0.02355
3816.99,0.02421
3793.84,0.02371
3770.7,0.02348
3747.55,0.02395
3724.41,0.02347
3701.26,0.02282
3678.12,0.02318
3654.97,0.02292
3631.83,0.02288
3608.68,0.02236
3585.54,0.02300
3562.39,0.02307
3539.25,0.02186
3516.1,0.02120
3492.96,0.02172
3469.81,0.02204
3446.67,0.02156
3423.52,0.02099
3400.38,0.02110
3377.23,0.02034
3354.09,0.02147
3330.94,0.02063
3307.8,0.02112
3284.65,0.02127
3261.51,0.02217
3238.36,0.02196
3215.22,0.02081
3192.07,0.02195
3168.93,0.02211
3145.78,0.02200
3122.64,0.02132
3099.49,0.02206
3076.35,0.02127
3053.2,0.02139
3030.06,0.02167
3006.91,0.02184
2983.77,0.02016
2960.62,0.02015
2937.48,0.02044
2914.33,0.02077
2891.19,0.02136
2868.04,0.02118
2844.9,0.02222
2821.75,0.02231
2798.61,0.02190
2775.46,0.02213
2752.32,0.02220
2729.17,0.02223
2706.03,0.02209
2682.88,0.02212
2659.74,0.02205
2636.59,0.02223
2613.45,0.02238
2590.3,0.02174
2567.16,0.02233
2544.02,0.02174
2520.87,0.02216
2497.73,0.02195
2474.58,0.02220
2451.44,0.02240
2428.29,0.02219
2405.15,0.02176
2382,0.02225
2358.86,0.02217
2335.71,0.02222
2312.57,0.02194
2289.42,0.02198
2266.28,0.02194
2243.13,0.02186
2219.99,0.02224
2196.84,0.02201
2173.7,0.02187
2150.55,0.02226
2127.41,0.02196
2104.26,0.02212
2081.12,0.02187
2057.97,0.02193
2034.83,0.02187
2011.68,0.02184
1988.54,0.02146
1965.39,0.02170
1942.25,0.02178
1919.1,0.02129
1895.96,0.02163
1872.81,0.02155
1849.67,0.02108
1826.52,0.02095
1803.38,0.02062
1780.23,0.01975
1757.09,0.01836
1733.94,0.02037
1710.8,0.02124
1687.65,0.01975
1664.51,0.01922
1641.36,0.01883
1618.22,0.01946
1595.07,0.01938
1571.93,0.01882
1548.78,0.01863
1525.64,0.01885
1502.49,0.01946
1479.35,0.01894
1456.2,0.01889
1433.06,0.01899
1409.91,0.01882
1386.77,0.01807
1363.62,0.01866
1340.48,0.01782
1317.33,0.01743
1294.19,0.01848
1271.04,0.01998
1247.9,0.02064
1224.75,0.01978
1201.61,0.01879
1178.46,0.01809
1155.32,0.01811
1132.17,0.01874
1109.03,0.01914
1085.88,0.01881
1062.74,0.02028
1039.59,0.02012
1016.45,0.01972
993.304,0.02221
970.159,0.02064
947.014,0.02026
923.869,0.01925
900.724,0.01928
877.579,0.01921
854.434,0.01889
831.289,0.01937
808.144,0.01842
784.999,0.01906
761.854,0.01861
738.709,0.01917
715.565,0.01896
692.42,0.01708
669.275,0.01819
646.13,0.01670
622.985,0.01672
599.84,0.01484