File: 01_Data/Cedar_Shingle/FTIR/IS/Cedar_Shingle_IS_S_221017_R3.dpt
7497.03,0.88091
7473.89,0.88575
7450.74,0.86828
7427.6,0.86780
7404.45,0.85859
7381.31,0.84695
7358.16,0.83664
7335.02,0.83853
7311.87,0.83304
7288.73,0.82304
7265.58,0.82846
7242.44,0.82964
7219.29,0.82279
7196.15,0.81559
7173,0.81582
7149.86,0.79402
7126.71,0.80073
7103.57,0.77856
7080.42,0.75926
7057.28,0.73914
7034.13,0.72186
7010.99,0.70818
6987.84,0.70221
6964.7,0.68836
6941.55,0.69002
6918.41,0.68646
6895.26,0.68945
6872.12,0.68859
6848.97,0.68621
6825.83,0.68872
6802.68,0.68375
6779.54,0.68560
6756.39,0.68581
6733.25,0.69090
6710.1,0.69462
6686.96,0.69819
6663.82,0.69669
6640.67,0.70032
6617.53,0.70704
6594.38,0.70869
6571.24,0.70648
6548.09,0.70770
6524.95,0.70979
6501.8,0.71229
6478.66,0.71700
6455.51,0.71742
6432.37,0.72007
6409.22,0.72187
6386.08,0.72347
6362.93,0.72563
6339.79,0.72895
6316.64,0.72634
6293.5,0.72851
6270.35,0.73310
6247.21,0.73959
6224.06,0.74572
6200.92,0.75287
6177.77,0.75216
6154.63,0.76005
6131.48,0.75866
6108.34,0.76427
6085.19,0.77259
6062.05,0.76394
6038.9,0.76086
6015.76,0.75611
5992.61,0.74750
5969.47,0.74462
5946.32,0.74383
5923.18,0.74410
5900.03,0.73871
5876.89,0.73768
5853.74,0.73692
5830.6,0.73561
5807.45,0.73391
5784.31,0.73315
5761.16,0.73878
5738.02,0.73637
5714.87,0.73851
5691.73,0.73679
5668.58,0.73695
5645.44,0.73719
5622.29,0.73662
5599.15,0.73970
5576,0.73916
5552.86,0.74213
5529.71,0.74211
5506.57,0.74527
5483.42,0.74564
5460.28,0.74738
5437.13,0.75283
5413.99,0.75625
5390.84,0.75617
5367.7,0.75727
5344.55,0.75552
5321.41,0.74403
5298.26,0.72540
5275.12,0.69206
5251.97,0.65217
5228.83,0.62392
5205.68,0.61140
5182.54,0.60992
5159.39,0.61765
5136.25,0.62982
5113.1,0.64018
5089.96,0.65102
5066.81,0.65942
5043.67,0.67006
5020.52,0.67653
4997.38,0.67800
4974.23,0.67486
4951.09,0.66220
4927.94,0.64640
4904.8,0.62598
4881.65,0.60727
4858.51,0.59056
4835.36,0.57640
4812.22,0.56642
4789.07,0.56056
4765.93,0.55648
4742.78,0.55789
4719.64,0.55825
4696.49,0.56151
4673.35,0.56551
4650.2,0.57293
4627.06,0.58222
4603.92,0.59403
4580.77,0.60350
4557.63,0.61035
4534.48,0.61383
4511.34,0.61549
4488.19,0.60612
4465.05,0.58552
4441.9,0.55908
4418.76,0.53049
4395.61,0.51799
4372.47,0.52475
4349.32,0.52950
4326.18,0.52490
4303.03,0.51640
4279.89,0.51021
4256.74,0.51523
4233.6,0.51817
4210.45,0.51867
4187.31,0.52053
4164.16,0.52597
4141.02,0.52215
4117.87,0.50900
4094.73,0.49134
4071.58,0.46950
4048.44,0.44793
4025.29,0.43454
4002.15,0.43236
3979,0.43812
3955.86,0.44693
3932.71,0.45937
3909.57,0.46967
3886.42,0.47908
3863.28,0.48757
3840.13,0.49854
3816.99,0.50160
3793.84,0.50092
3770.7,0.49801
3747.55,0.49121
3724.41,0.47489
3701.26,0.44453
3678.12,0.38327
3654.97,0.29905
3631.83,0.23322
3608.68,0.18131
3585.54,0.13952
3562.39,0.11151
3539.25,0.09422
3516.1,0.08198
3492.96,0.07354
3469.81,0.06800
3446.67,0.06569
3423.52,0.06550
3400.38,0.06565
3377.23,0.06620
3354.09,0.06813
3330.94,0.07204
3307.8,0.07812
3284.65,0.08326
3261.51,0.09238
3238.36,0.10220
3215.22,0.11444
3192.07,0.12881
3168.93,0.14169
3145.78,0.15661
3122.64,0.17089
3099.49,0.18442
3076.35,0.19378
3053.2,0.20452
3030.06,0.20917
3006.91,0.19751
2983.77,0.17442
2960.62,0.13857
2937.48,0.11928
2914.33,0.11679
2891.19,0.12142
2868.04,0.13242
2844.9,0.15340
2821.75,0.19443
2798.61,0.22389
2775.46,0.23655
2752.32,0.24253
2729.17,0.24586
2706.03,0.25755
2682.88,0.27091
2659.74,0.27960
2636.59,0.28810
2613.45,0.29740
2590.3,0.30556
2567.16,0.31107
2544.02,0.31286
2520.87,0.32101
2497.73,0.33292
2474.58,0.34482
2451.44,0.35570
2428.29,0.36851
2405.15,0.38306
2382,0.39625
2358.86,0.40645
2335.71,0.41422
2312.57,0.41742
2289.42,0.41700
2266.28,0.41389
2243.13,0.40979
2219.99,0.40974
2196.84,0.40641
2173.7,0.39354
2150.55,0.38401
2127.41,0.38174
2104.26,0.38697
2081.12,0.38855
2057.97,0.38377
2034.83,0.39089
2011.68,0.40575
1988.54,0.41515
1965.39,0.42314
1942.25,0.43552
1919.1,0.44187
1895.96,0.44023
1872.81,0.43588
1849.67,0.42993
1826.52,0.41512
1803.38,0.35899
1780.23,0.26952
1757.09,0.20225
1733.94,0.17444
1710.8,0.21272
1687.65,0.20753
1664.51,0.15500
1641.36,0.15943
1618.22,0.14998
1595.07,0.13534
1571.93,0.19766
1548.78,0.21491
1525.64,0.13932
1502.49,0.09884
1479.35,0.11398
1456.2,0.08510
1433.06,0.08149
1409.91,0.09403
1386.77,0.08523
1363.62,0.08095
1340.48,0.08336
1317.33,0.08125
1294.19,0.08390
1271.04,0.07144
1247.9,0.08138
1224.75,0.08239
1201.61,0.08889
1178.46,0.07962
1155.32,0.07467
1132.17,0.06682
1109.03,0.06886
1085.88,0.07261
1062.74,0.09354
1039.59,0.10267
1016.45,0.12132
993.304,0.13834
970.159,0.18199
947.014,0.22121
923.869,0.24617
900.724,0.22164
877.579,0.24550
854.434,0.26007
831.289,0.26527
808.144,0.23991
784.999,0.25207
761.854,0.23080
738.709,0.21057
715.565,0.18545
692.42,0.16815
669.275,0.13973
646.13,0.14143
622.985,0.12401
599.84,0.12954