File: 01_Data/Cedar_Shingle/FTIR/IS/Cedar_Shingle_IS_S_221017_R4.dpt
7497.03,0.88212
7473.89,0.88373
7450.74,0.86825
7427.6,0.86824
7404.45,0.85060
7381.31,0.84807
7358.16,0.84663
7335.02,0.83928
7311.87,0.82779
7288.73,0.83285
7265.58,0.83216
7242.44,0.83093
7219.29,0.82647
7196.15,0.81191
7173,0.81537
7149.86,0.80561
7126.71,0.79184
7103.57,0.77576
7080.42,0.76089
7057.28,0.74149
7034.13,0.71939
7010.99,0.70970
6987.84,0.69969
6964.7,0.69296
6941.55,0.68690
6918.41,0.68747
6895.26,0.69086
6872.12,0.68591
6848.97,0.68558
6825.83,0.68655
6802.68,0.68585
6779.54,0.68727
6756.39,0.68764
6733.25,0.68715
6710.1,0.68869
6686.96,0.69351
6663.82,0.69692
6640.67,0.69565
6617.53,0.70085
6594.38,0.70283
6571.24,0.70463
6548.09,0.71145
6524.95,0.71186
6501.8,0.71537
6478.66,0.71258
6455.51,0.71767
6432.37,0.71522
6409.22,0.72100
6386.08,0.71950
6362.93,0.72591
6339.79,0.72116
6316.64,0.72649
6293.5,0.72815
6270.35,0.73322
6247.21,0.73950
6224.06,0.74900
6200.92,0.75008
6177.77,0.75622
6154.63,0.76062
6131.48,0.76290
6108.34,0.76685
6085.19,0.76510
6062.05,0.76180
6038.9,0.76246
6015.76,0.75563
5992.61,0.74432
5969.47,0.74006
5946.32,0.74237
5923.18,0.74157
5900.03,0.73752
5876.89,0.73518
5853.74,0.73377
5830.6,0.73414
5807.45,0.73434
5784.31,0.73243
5761.16,0.73481
5738.02,0.73742
5714.87,0.73801
5691.73,0.73841
5668.58,0.73614
5645.44,0.73775
5622.29,0.73607
5599.15,0.73709
5576,0.74000
5552.86,0.74101
5529.71,0.74051
5506.57,0.74463
5483.42,0.74525
5460.28,0.74676
5437.13,0.75138
5413.99,0.75404
5390.84,0.75644
5367.7,0.75612
5344.55,0.75275
5321.41,0.74458
5298.26,0.72389
5275.12,0.69253
5251.97,0.65238
5228.83,0.62562
5205.68,0.61419
5182.54,0.61349
5159.39,0.61986
5136.25,0.63103
5113.1,0.64181
5089.96,0.65158
5066.81,0.66234
5043.67,0.67153
5020.52,0.67744
4997.38,0.67852
4974.23,0.67521
4951.09,0.66195
4927.94,0.64532
4904.8,0.62549
4881.65,0.60638
4858.51,0.58975
4835.36,0.57625
4812.22,0.56492
4789.07,0.55913
4765.93,0.55590
4742.78,0.55564
4719.64,0.55905
4696.49,0.56055
4673.35,0.56408
4650.2,0.57326
4627.06,0.58228
4603.92,0.59411
4580.77,0.60378
4557.63,0.60981
4534.48,0.61478
4511.34,0.61455
4488.19,0.60676
4465.05,0.58427
4441.9,0.55816
4418.76,0.53132
4395.61,0.51733
4372.47,0.52471
4349.32,0.52906
4326.18,0.52354
4303.03,0.51569
4279.89,0.51023
4256.74,0.51446
4233.6,0.51759
4210.45,0.51759
4187.31,0.52045
4164.16,0.52615
4141.02,0.52233
4117.87,0.50823
4094.73,0.49122
4071.58,0.46943
4048.44,0.44790
4025.29,0.43433
4002.15,0.43225
3979,0.43720
3955.86,0.44745
3932.71,0.45861
3909.57,0.46957
3886.42,0.47858
3863.28,0.48791
3840.13,0.49900
3816.99,0.50216
3793.84,0.50120
3770.7,0.49884
3747.55,0.49174
3724.41,0.47648
3701.26,0.44648
3678.12,0.38643
3654.97,0.30125
3631.83,0.23656
3608.68,0.18377
3585.54,0.14065
3562.39,0.11195
3539.25,0.09403
3516.1,0.08253
3492.96,0.07456
3469.81,0.06877
3446.67,0.06580
3423.52,0.06531
3400.38,0.06625
3377.23,0.06636
3354.09,0.06822
3330.94,0.07254
3307.8,0.07802
3284.65,0.08382
3261.51,0.09228
3238.36,0.10336
3215.22,0.11557
3192.07,0.12946
3168.93,0.14316
3145.78,0.15775
3122.64,0.17244
3099.49,0.18594
3076.35,0.19445
3053.2,0.20541
3030.06,0.21026
3006.91,0.19846
2983.77,0.17550
2960.62,0.13789
2937.48,0.11973
2914.33,0.11729
2891.19,0.12118
2868.04,0.13206
2844.9,0.15375
2821.75,0.19484
2798.61,0.22410
2775.46,0.23688
2752.32,0.24235
2729.17,0.24598
2706.03,0.25746
2682.88,0.27135
2659.74,0.27987
2636.59,0.28807
2613.45,0.29797
2590.3,0.30603
2567.16,0.31118
2544.02,0.31347
2520.87,0.32122
2497.73,0.33326
2474.58,0.34508
2451.44,0.35615
2428.29,0.36905
2405.15,0.38400
2382,0.39682
2358.86,0.40677
2335.71,0.41473
2312.57,0.41824
2289.42,0.41753
2266.28,0.41466
2243.13,0.41089
2219.99,0.41056
2196.84,0.40724
2173.7,0.39446
2150.55,0.38495
2127.41,0.38311
2104.26,0.38808
2081.12,0.38986
2057.97,0.38490
2034.83,0.39182
2011.68,0.40659
1988.54,0.41640
1965.39,0.42402
1942.25,0.43632
1919.1,0.44293
1895.96,0.44092
1872.81,0.43639
1849.67,0.43035
1826.52,0.41538
1803.38,0.35891
1780.23,0.26952
1757.09,0.20234
1733.94,0.17462
1710.8,0.21313
1687.65,0.20863
1664.51,0.15614
1641.36,0.16076
1618.22,0.15062
1595.07,0.13574
1571.93,0.19776
1548.78,0.21561
1525.64,0.13947
1502.49,0.09886
1479.35,0.11392
1456.2,0.08497
1433.06,0.08131
1409.91,0.09389
1386.77,0.08515
1363.62,0.08126
1340.48,0.08358
1317.33,0.08153
1294.19,0.08413
1271.04,0.07167
1247.9,0.08142
1224.75,0.08191
1201.61,0.08909
1178.46,0.08047
1155.32,0.07530
1132.17,0.06723
1109.03,0.06982
1085.88,0.07260
1062.74,0.09359
1039.59,0.10284
1016.45,0.12129
993.304,0.13850
970.159,0.18193
947.014,0.22177
923.869,0.24656
900.724,0.22179
877.579,0.24594
854.434,0.26002
831.289,0.26579
808.144,0.24061
784.999,0.25504
761.854,0.23235
738.709,0.21267
715.565,0.18601
692.42,0.16905
669.275,0.14209
646.13,0.14046
622.985,0.12404
599.84,0.13148