File: 01_Data/Cedar_Shingle/FTIR/IS/Cedar_Shingle_IS_S_221017_R8.dpt
7497.03,0.88771
7473.89,0.89591
7450.74,0.88110
7427.6,0.86410
7404.45,0.85641
7381.31,0.85753
7358.16,0.84650
7335.02,0.84092
7311.87,0.83749
7288.73,0.83506
7265.58,0.82598
7242.44,0.82657
7219.29,0.82840
7196.15,0.81401
7173,0.82030
7149.86,0.81311
7126.71,0.79833
7103.57,0.77829
7080.42,0.76409
7057.28,0.74345
7034.13,0.73005
7010.99,0.71059
6987.84,0.70031
6964.7,0.69204
6941.55,0.69562
6918.41,0.68963
6895.26,0.69001
6872.12,0.69137
6848.97,0.68922
6825.83,0.68924
6802.68,0.69241
6779.54,0.69062
6756.39,0.68931
6733.25,0.69278
6710.1,0.69029
6686.96,0.70043
6663.82,0.70025
6640.67,0.70446
6617.53,0.70439
6594.38,0.70813
6571.24,0.71564
6548.09,0.71452
6524.95,0.71535
6501.8,0.71412
6478.66,0.72070
6455.51,0.72266
6432.37,0.72469
6409.22,0.72353
6386.08,0.72227
6362.93,0.73012
6339.79,0.72758
6316.64,0.73305
6293.5,0.73199
6270.35,0.73426
6247.21,0.74277
6224.06,0.74849
6200.92,0.75529
6177.77,0.76006
6154.63,0.76425
6131.48,0.76737
6108.34,0.76888
6085.19,0.76973
6062.05,0.76772
6038.9,0.76506
6015.76,0.75899
5992.61,0.75310
5969.47,0.74642
5946.32,0.74673
5923.18,0.74474
5900.03,0.73995
5876.89,0.73784
5853.74,0.74043
5830.6,0.74034
5807.45,0.73390
5784.31,0.73783
5761.16,0.74051
5738.02,0.74231
5714.87,0.74151
5691.73,0.73904
5668.58,0.74141
5645.44,0.74144
5622.29,0.73993
5599.15,0.74256
5576,0.74275
5552.86,0.74616
5529.71,0.74572
5506.57,0.74762
5483.42,0.74981
5460.28,0.75223
5437.13,0.75447
5413.99,0.76025
5390.84,0.76021
5367.7,0.76258
5344.55,0.75906
5321.41,0.75164
5298.26,0.73279
5275.12,0.70189
5251.97,0.66470
5228.83,0.63977
5205.68,0.62993
5182.54,0.62697
5159.39,0.63344
5136.25,0.64446
5113.1,0.65553
5089.96,0.66704
5066.81,0.67481
5043.67,0.68141
5020.52,0.68765
4997.38,0.68779
4974.23,0.68198
4951.09,0.66964
4927.94,0.64984
4904.8,0.63022
4881.65,0.61043
4858.51,0.59199
4835.36,0.57910
4812.22,0.56829
4789.07,0.56228
4765.93,0.56015
4742.78,0.55918
4719.64,0.56178
4696.49,0.56522
4673.35,0.56732
4650.2,0.57728
4627.06,0.58530
4603.92,0.59757
4580.77,0.60729
4557.63,0.61357
4534.48,0.61809
4511.34,0.61930
4488.19,0.60997
4465.05,0.58782
4441.9,0.56151
4418.76,0.53309
4395.61,0.51973
4372.47,0.52682
4349.32,0.53140
4326.18,0.52665
4303.03,0.51933
4279.89,0.51351
4256.74,0.51842
4233.6,0.52197
4210.45,0.52108
4187.31,0.52383
4164.16,0.52962
4141.02,0.52683
4117.87,0.51369
4094.73,0.49510
4071.58,0.47396
4048.44,0.45094
4025.29,0.43769
4002.15,0.43600
3979,0.44194
3955.86,0.45143
3932.71,0.46286
3909.57,0.47367
3886.42,0.48361
3863.28,0.49316
3840.13,0.50401
3816.99,0.50790
3793.84,0.50714
3770.7,0.50560
3747.55,0.49971
3724.41,0.48489
3701.26,0.45683
3678.12,0.39830
3654.97,0.31634
3631.83,0.24896
3608.68,0.19192
3585.54,0.14558
3562.39,0.11480
3539.25,0.09584
3516.1,0.08297
3492.96,0.07466
3469.81,0.06892
3446.67,0.06587
3423.52,0.06651
3400.38,0.06602
3377.23,0.06653
3354.09,0.06857
3330.94,0.07293
3307.8,0.07898
3284.65,0.08416
3261.51,0.09352
3238.36,0.10419
3215.22,0.11785
3192.07,0.13229
3168.93,0.14679
3145.78,0.16191
3122.64,0.17684
3099.49,0.19053
3076.35,0.19993
3053.2,0.21006
3030.06,0.21426
3006.91,0.20109
2983.77,0.17748
2960.62,0.13972
2937.48,0.12004
2914.33,0.11723
2891.19,0.12213
2868.04,0.13289
2844.9,0.15473
2821.75,0.19633
2798.61,0.22702
2775.46,0.23953
2752.32,0.24542
2729.17,0.24873
2706.03,0.26077
2682.88,0.27447
2659.74,0.28318
2636.59,0.29124
2613.45,0.30119
2590.3,0.30925
2567.16,0.31416
2544.02,0.31663
2520.87,0.32428
2497.73,0.33682
2474.58,0.34896
2451.44,0.35933
2428.29,0.37313
2405.15,0.38775
2382,0.40074
2358.86,0.41154
2335.71,0.41960
2312.57,0.42308
2289.42,0.42298
2266.28,0.42033
2243.13,0.41627
2219.99,0.41655
2196.84,0.41405
2173.7,0.40063
2150.55,0.39091
2127.41,0.38907
2104.26,0.39447
2081.12,0.39628
2057.97,0.39063
2034.83,0.39775
2011.68,0.41315
1988.54,0.42174
1965.39,0.43021
1942.25,0.44238
1919.1,0.44852
1895.96,0.44630
1872.81,0.44185
1849.67,0.43544
1826.52,0.42011
1803.38,0.36115
1780.23,0.27050
1757.09,0.20244
1733.94,0.17587
1710.8,0.21533
1687.65,0.21203
1664.51,0.15949
1641.36,0.16565
1618.22,0.15322
1595.07,0.13696
1571.93,0.19952
1548.78,0.21769
1525.64,0.14032
1502.49,0.09903
1479.35,0.11435
1456.2,0.08550
1433.06,0.08208
1409.91,0.09408
1386.77,0.08607
1363.62,0.08173
1340.48,0.08374
1317.33,0.08140
1294.19,0.08425
1271.04,0.07213
1247.9,0.08197
1224.75,0.08250
1201.61,0.08960
1178.46,0.08092
1155.32,0.07523
1132.17,0.06709
1109.03,0.06939
1085.88,0.07263
1062.74,0.09313
1039.59,0.10269
1016.45,0.12233
993.304,0.13908
970.159,0.18322
947.014,0.22375
923.869,0.24916
900.724,0.22461
877.579,0.24933
854.434,0.26439
831.289,0.27063
808.144,0.24464
784.999,0.25879
761.854,0.23694
738.709,0.21568
715.565,0.18886
692.42,0.17019
669.275,0.14228
646.13,0.14265
622.985,0.12285
599.84,0.12951