File: 01_Data/Cedar_Shingle/FTIR/IS/Cedar_Shingle_IS_S_221017_R2.dpt
7497.03,0.88424
7473.89,0.88704
7450.74,0.86989
7427.6,0.86097
7404.45,0.85405
7381.31,0.84530
7358.16,0.83655
7335.02,0.83870
7311.87,0.82662
7288.73,0.83108
7265.58,0.82775
7242.44,0.82974
7219.29,0.82883
7196.15,0.81523
7173,0.81197
7149.86,0.79729
7126.71,0.78488
7103.57,0.76990
7080.42,0.76056
7057.28,0.73443
7034.13,0.72111
7010.99,0.70560
6987.84,0.69494
6964.7,0.69267
6941.55,0.68373
6918.41,0.68017
6895.26,0.68419
6872.12,0.68363
6848.97,0.68230
6825.83,0.68134
6802.68,0.68512
6779.54,0.68257
6756.39,0.68697
6733.25,0.68702
6710.1,0.68922
6686.96,0.69148
6663.82,0.69531
6640.67,0.69795
6617.53,0.70219
6594.38,0.69947
6571.24,0.70504
6548.09,0.70987
6524.95,0.71484
6501.8,0.71165
6478.66,0.71443
6455.51,0.71437
6432.37,0.72084
6409.22,0.71773
6386.08,0.72276
6362.93,0.71867
6339.79,0.72048
6316.64,0.72470
6293.5,0.72729
6270.35,0.73517
6247.21,0.73813
6224.06,0.74368
6200.92,0.74576
6177.77,0.75476
6154.63,0.75662
6131.48,0.76196
6108.34,0.76013
6085.19,0.76472
6062.05,0.76358
6038.9,0.75949
6015.76,0.74726
5992.61,0.74623
5969.47,0.74157
5946.32,0.74133
5923.18,0.74247
5900.03,0.73568
5876.89,0.73575
5853.74,0.73570
5830.6,0.73364
5807.45,0.73054
5784.31,0.73213
5761.16,0.73723
5738.02,0.73707
5714.87,0.73359
5691.73,0.73806
5668.58,0.73652
5645.44,0.73238
5622.29,0.73478
5599.15,0.73447
5576,0.73623
5552.86,0.73884
5529.71,0.74062
5506.57,0.74022
5483.42,0.74284
5460.28,0.74515
5437.13,0.74967
5413.99,0.75311
5390.84,0.75420
5367.7,0.75440
5344.55,0.75174
5321.41,0.74107
5298.26,0.72140
5275.12,0.68574
5251.97,0.64545
5228.83,0.61614
5205.68,0.60218
5182.54,0.60098
5159.39,0.61016
5136.25,0.62163
5113.1,0.63195
5089.96,0.64274
5066.81,0.65447
5043.67,0.66197
5020.52,0.66901
4997.38,0.67217
4974.23,0.66988
4951.09,0.65831
4927.94,0.64196
4904.8,0.62366
4881.65,0.60671
4858.51,0.58825
4835.36,0.57368
4812.22,0.56324
4789.07,0.55859
4765.93,0.55563
4742.78,0.55416
4719.64,0.55780
4696.49,0.56002
4673.35,0.56347
4650.2,0.57117
4627.06,0.58040
4603.92,0.59273
4580.77,0.60235
4557.63,0.60824
4534.48,0.61231
4511.34,0.61247
4488.19,0.60470
4465.05,0.58321
4441.9,0.55661
4418.76,0.52928
4395.61,0.51597
4372.47,0.52383
4349.32,0.52793
4326.18,0.52345
4303.03,0.51501
4279.89,0.50892
4256.74,0.51319
4233.6,0.51646
4210.45,0.51572
4187.31,0.51808
4164.16,0.52325
4141.02,0.51951
4117.87,0.50726
4094.73,0.48846
4071.58,0.46768
4048.44,0.44614
4025.29,0.43239
4002.15,0.43003
3979,0.43626
3955.86,0.44538
3932.71,0.45681
3909.57,0.46666
3886.42,0.47636
3863.28,0.48486
3840.13,0.49613
3816.99,0.49868
3793.84,0.49684
3770.7,0.49401
3747.55,0.48683
3724.41,0.46944
3701.26,0.43862
3678.12,0.37566
3654.97,0.28988
3631.83,0.22632
3608.68,0.17541
3585.54,0.13633
3562.39,0.10951
3539.25,0.09317
3516.1,0.08166
3492.96,0.07343
3469.81,0.06799
3446.67,0.06553
3423.52,0.06583
3400.38,0.06573
3377.23,0.06569
3354.09,0.06748
3330.94,0.07237
3307.8,0.07820
3284.65,0.08313
3261.51,0.09105
3238.36,0.10210
3215.22,0.11332
3192.07,0.12536
3168.93,0.14011
3145.78,0.15435
3122.64,0.16805
3099.49,0.18135
3076.35,0.19096
3053.2,0.20132
3030.06,0.20654
3006.91,0.19561
2983.77,0.17348
2960.62,0.13823
2937.48,0.11889
2914.33,0.11656
2891.19,0.12110
2868.04,0.13166
2844.9,0.15330
2821.75,0.19355
2798.61,0.22237
2775.46,0.23497
2752.32,0.24026
2729.17,0.24387
2706.03,0.25630
2682.88,0.26855
2659.74,0.27800
2636.59,0.28649
2613.45,0.29541
2590.3,0.30390
2567.16,0.30937
2544.02,0.31159
2520.87,0.31919
2497.73,0.33136
2474.58,0.34302
2451.44,0.35413
2428.29,0.36671
2405.15,0.38120
2382,0.39377
2358.86,0.40369
2335.71,0.41125
2312.57,0.41442
2289.42,0.41425
2266.28,0.41027
2243.13,0.40656
2219.99,0.40573
2196.84,0.40245
2173.7,0.38980
2150.55,0.38005
2127.41,0.37814
2104.26,0.38286
2081.12,0.38443
2057.97,0.37995
2034.83,0.38729
2011.68,0.40170
1988.54,0.41161
1965.39,0.41944
1942.25,0.43190
1919.1,0.43868
1895.96,0.43716
1872.81,0.43285
1849.67,0.42673
1826.52,0.41244
1803.38,0.35779
1780.23,0.26910
1757.09,0.20260
1733.94,0.17333
1710.8,0.21088
1687.65,0.20538
1664.51,0.15337
1641.36,0.15679
1618.22,0.14831
1595.07,0.13472
1571.93,0.19642
1548.78,0.21379
1525.64,0.13900
1502.49,0.09935
1479.35,0.11337
1456.2,0.08546
1433.06,0.08148
1409.91,0.09412
1386.77,0.08525
1363.62,0.08116
1340.48,0.08334
1317.33,0.08111
1294.19,0.08335
1271.04,0.07127
1247.9,0.08114
1224.75,0.08183
1201.61,0.08872
1178.46,0.07977
1155.32,0.07443
1132.17,0.06669
1109.03,0.06885
1085.88,0.07248
1062.74,0.09324
1039.59,0.10247
1016.45,0.12227
993.304,0.13734
970.159,0.18160
947.014,0.22055
923.869,0.24444
900.724,0.21976
877.579,0.24350
854.434,0.25748
831.289,0.26239
808.144,0.23805
784.999,0.24937
761.854,0.22852
738.709,0.20844
715.565,0.18289
692.42,0.16711
669.275,0.13907
646.13,0.13885
622.985,0.12235
599.84,0.13169