File: 01_Data/Cedar_Shingle/FTIR/IS/Cedar_Shingle_IS_S_221017_R7.dpt
7497.03,0.88371
7473.89,0.87602
7450.74,0.86516
7427.6,0.86888
7404.45,0.86748
7381.31,0.84827
7358.16,0.84599
7335.02,0.84985
7311.87,0.83976
7288.73,0.83728
7265.58,0.83023
7242.44,0.83501
7219.29,0.83391
7196.15,0.81660
7173,0.81180
7149.86,0.80510
7126.71,0.79364
7103.57,0.77729
7080.42,0.76372
7057.28,0.74564
7034.13,0.72334
7010.99,0.71158
6987.84,0.69788
6964.7,0.70004
6941.55,0.69466
6918.41,0.69010
6895.26,0.69227
6872.12,0.68931
6848.97,0.68313
6825.83,0.68411
6802.68,0.69383
6779.54,0.69085
6756.39,0.69380
6733.25,0.69647
6710.1,0.69098
6686.96,0.69370
6663.82,0.69837
6640.67,0.70352
6617.53,0.70809
6594.38,0.71531
6571.24,0.71061
6548.09,0.71093
6524.95,0.71437
6501.8,0.71805
6478.66,0.71876
6455.51,0.71824
6432.37,0.72120
6409.22,0.72486
6386.08,0.72442
6362.93,0.72518
6339.79,0.72343
6316.64,0.73040
6293.5,0.72999
6270.35,0.73320
6247.21,0.74034
6224.06,0.74728
6200.92,0.75399
6177.77,0.76005
6154.63,0.76022
6131.48,0.76556
6108.34,0.77254
6085.19,0.77105
6062.05,0.76795
6038.9,0.76477
6015.76,0.75610
5992.61,0.74965
5969.47,0.74676
5946.32,0.74672
5923.18,0.74602
5900.03,0.74156
5876.89,0.74056
5853.74,0.73922
5830.6,0.74037
5807.45,0.73487
5784.31,0.73445
5761.16,0.73787
5738.02,0.73986
5714.87,0.74360
5691.73,0.74013
5668.58,0.74034
5645.44,0.73963
5622.29,0.74053
5599.15,0.73918
5576,0.74245
5552.86,0.74545
5529.71,0.74579
5506.57,0.74829
5483.42,0.74907
5460.28,0.74951
5437.13,0.75439
5413.99,0.75904
5390.84,0.76080
5367.7,0.76094
5344.55,0.75765
5321.41,0.74973
5298.26,0.73068
5275.12,0.70041
5251.97,0.66169
5228.83,0.63816
5205.68,0.62485
5182.54,0.62601
5159.39,0.63288
5136.25,0.64354
5113.1,0.65441
5089.96,0.66335
5066.81,0.67220
5043.67,0.68061
5020.52,0.68563
4997.38,0.68612
4974.23,0.68120
4951.09,0.66718
4927.94,0.64855
4904.8,0.62858
4881.65,0.60963
4858.51,0.59186
4835.36,0.57852
4812.22,0.56701
4789.07,0.56174
4765.93,0.55810
4742.78,0.55940
4719.64,0.55981
4696.49,0.56404
4673.35,0.56877
4650.2,0.57538
4627.06,0.58434
4603.92,0.59633
4580.77,0.60693
4557.63,0.61250
4534.48,0.61764
4511.34,0.61760
4488.19,0.60886
4465.05,0.58626
4441.9,0.56113
4418.76,0.53258
4395.61,0.51783
4372.47,0.52661
4349.32,0.53128
4326.18,0.52645
4303.03,0.51818
4279.89,0.51285
4256.74,0.51700
4233.6,0.51988
4210.45,0.52103
4187.31,0.52275
4164.16,0.52902
4141.02,0.52475
4117.87,0.51270
4094.73,0.49423
4071.58,0.47200
4048.44,0.45087
4025.29,0.43682
4002.15,0.43468
3979,0.44064
3955.86,0.45061
3932.71,0.46176
3909.57,0.47368
3886.42,0.48208
3863.28,0.49208
3840.13,0.50268
3816.99,0.50653
3793.84,0.50642
3770.7,0.50470
3747.55,0.49874
3724.41,0.48339
3701.26,0.45516
3678.12,0.39702
3654.97,0.31396
3631.83,0.24733
3608.68,0.19094
3585.54,0.14467
3562.39,0.11468
3539.25,0.09577
3516.1,0.08334
3492.96,0.07466
3469.81,0.06837
3446.67,0.06679
3423.52,0.06538
3400.38,0.06614
3377.23,0.06667
3354.09,0.06840
3330.94,0.07277
3307.8,0.07843
3284.65,0.08442
3261.51,0.09344
3238.36,0.10449
3215.22,0.11682
3192.07,0.13171
3168.93,0.14597
3145.78,0.16143
3122.64,0.17583
3099.49,0.18964
3076.35,0.19847
3053.2,0.20894
3030.06,0.21373
3006.91,0.20111
2983.77,0.17719
2960.62,0.13967
2937.48,0.11986
2914.33,0.11719
2891.19,0.12190
2868.04,0.13269
2844.9,0.15486
2821.75,0.19609
2798.61,0.22627
2775.46,0.23908
2752.32,0.24439
2729.17,0.24816
2706.03,0.25994
2682.88,0.27380
2659.74,0.28286
2636.59,0.29103
2613.45,0.30075
2590.3,0.30867
2567.16,0.31353
2544.02,0.31565
2520.87,0.32354
2497.73,0.33578
2474.58,0.34817
2451.44,0.35846
2428.29,0.37220
2405.15,0.38692
2382,0.39961
2358.86,0.41107
2335.71,0.41861
2312.57,0.42226
2289.42,0.42189
2266.28,0.41920
2243.13,0.41590
2219.99,0.41567
2196.84,0.41278
2173.7,0.39949
2150.55,0.39012
2127.41,0.38814
2104.26,0.39362
2081.12,0.39509
2057.97,0.38979
2034.83,0.39695
2011.68,0.41170
1988.54,0.42166
1965.39,0.42892
1942.25,0.44082
1919.1,0.44766
1895.96,0.44554
1872.81,0.44057
1849.67,0.43448
1826.52,0.41899
1803.38,0.36055
1780.23,0.27029
1757.09,0.20216
1733.94,0.17540
1710.8,0.21457
1687.65,0.21135
1664.51,0.15873
1641.36,0.16472
1618.22,0.15280
1595.07,0.13640
1571.93,0.19909
1548.78,0.21764
1525.64,0.14020
1502.49,0.09915
1479.35,0.11426
1456.2,0.08561
1433.06,0.08136
1409.91,0.09403
1386.77,0.08589
1363.62,0.08133
1340.48,0.08396
1317.33,0.08210
1294.19,0.08406
1271.04,0.07133
1247.9,0.08194
1224.75,0.08276
1201.61,0.08909
1178.46,0.08080
1155.32,0.07532
1132.17,0.06680
1109.03,0.06948
1085.88,0.07303
1062.74,0.09341
1039.59,0.10298
1016.45,0.12208
993.304,0.13981
970.159,0.18328
947.014,0.22369
923.869,0.24825
900.724,0.22450
877.579,0.24843
854.434,0.26429
831.289,0.27044
808.144,0.24515
784.999,0.25771
761.854,0.23685
738.709,0.21600
715.565,0.18891
692.42,0.17101
669.275,0.14228
646.13,0.14123
622.985,0.12518
599.84,0.12987