File: 01_Data/Cedar_Shingle/FTIR/IS/Cedar_Shingle_IS_S_221017_R5.dpt
7497.03,0.89362
7473.89,0.88071
7450.74,0.87458
7427.6,0.86380
7404.45,0.86233
7381.31,0.85023
7358.16,0.83816
7335.02,0.83736
7311.87,0.83161
7288.73,0.83464
7265.58,0.84018
7242.44,0.83237
7219.29,0.82530
7196.15,0.81844
7173,0.82177
7149.86,0.79810
7126.71,0.79881
7103.57,0.77900
7080.42,0.76358
7057.28,0.74306
7034.13,0.72128
7010.99,0.71206
6987.84,0.70220
6964.7,0.69458
6941.55,0.69379
6918.41,0.69085
6895.26,0.69259
6872.12,0.68735
6848.97,0.68191
6825.83,0.68761
6802.68,0.67953
6779.54,0.68988
6756.39,0.68515
6733.25,0.68738
6710.1,0.69007
6686.96,0.69788
6663.82,0.69328
6640.67,0.70412
6617.53,0.70359
6594.38,0.71048
6571.24,0.71572
6548.09,0.71379
6524.95,0.71672
6501.8,0.71322
6478.66,0.71595
6455.51,0.72632
6432.37,0.72272
6409.22,0.72553
6386.08,0.72614
6362.93,0.72403
6339.79,0.72704
6316.64,0.72854
6293.5,0.73492
6270.35,0.73409
6247.21,0.74257
6224.06,0.74514
6200.92,0.75345
6177.77,0.75575
6154.63,0.76023
6131.48,0.76474
6108.34,0.76690
6085.19,0.77102
6062.05,0.76862
6038.9,0.76197
6015.76,0.75851
5992.61,0.74910
5969.47,0.74224
5946.32,0.74699
5923.18,0.74242
5900.03,0.73945
5876.89,0.73543
5853.74,0.73829
5830.6,0.73726
5807.45,0.73268
5784.31,0.73744
5761.16,0.73893
5738.02,0.73907
5714.87,0.73932
5691.73,0.73965
5668.58,0.73932
5645.44,0.73870
5622.29,0.73871
5599.15,0.73892
5576,0.73905
5552.86,0.74293
5529.71,0.74259
5506.57,0.74420
5483.42,0.74554
5460.28,0.74977
5437.13,0.75203
5413.99,0.75654
5390.84,0.75755
5367.7,0.75804
5344.55,0.75594
5321.41,0.74745
5298.26,0.72936
5275.12,0.69584
5251.97,0.65817
5228.83,0.63054
5205.68,0.61775
5182.54,0.61725
5159.39,0.62564
5136.25,0.63418
5113.1,0.64689
5089.96,0.65671
5066.81,0.66534
5043.67,0.67449
5020.52,0.68052
4997.38,0.68153
4974.23,0.67634
4951.09,0.66401
4927.94,0.64654
4904.8,0.62677
4881.65,0.60764
4858.51,0.59039
4835.36,0.57696
4812.22,0.56521
4789.07,0.56034
4765.93,0.55823
4742.78,0.55682
4719.64,0.55877
4696.49,0.56293
4673.35,0.56591
4650.2,0.57370
4627.06,0.58341
4603.92,0.59554
4580.77,0.60515
4557.63,0.61124
4534.48,0.61547
4511.34,0.61629
4488.19,0.60710
4465.05,0.58471
4441.9,0.55975
4418.76,0.53037
4395.61,0.51798
4372.47,0.52501
4349.32,0.52929
4326.18,0.52481
4303.03,0.51733
4279.89,0.51136
4256.74,0.51618
4233.6,0.51975
4210.45,0.51930
4187.31,0.52138
4164.16,0.52693
4141.02,0.52361
4117.87,0.51051
4094.73,0.49158
4071.58,0.46949
4048.44,0.44901
4025.29,0.43494
4002.15,0.43281
3979,0.43866
3955.86,0.44869
3932.71,0.45989
3909.57,0.47042
3886.42,0.48080
3863.28,0.48941
3840.13,0.49913
3816.99,0.50384
3793.84,0.50325
3770.7,0.50044
3747.55,0.49463
3724.41,0.47856
3701.26,0.44960
3678.12,0.39031
3654.97,0.30604
3631.83,0.24087
3608.68,0.18611
3585.54,0.14257
3562.39,0.11292
3539.25,0.09460
3516.1,0.08338
3492.96,0.07471
3469.81,0.06898
3446.67,0.06620
3423.52,0.06580
3400.38,0.06647
3377.23,0.06669
3354.09,0.06816
3330.94,0.07242
3307.8,0.07853
3284.65,0.08397
3261.51,0.09236
3238.36,0.10372
3215.22,0.11659
3192.07,0.12946
3168.93,0.14385
3145.78,0.15903
3122.64,0.17367
3099.49,0.18713
3076.35,0.19647
3053.2,0.20650
3030.06,0.21153
3006.91,0.19940
2983.77,0.17575
2960.62,0.13854
2937.48,0.11965
2914.33,0.11710
2891.19,0.12147
2868.04,0.13238
2844.9,0.15373
2821.75,0.19541
2798.61,0.22529
2775.46,0.23771
2752.32,0.24315
2729.17,0.24701
2706.03,0.25848
2682.88,0.27200
2659.74,0.28109
2636.59,0.28923
2613.45,0.29853
2590.3,0.30705
2567.16,0.31202
2544.02,0.31442
2520.87,0.32199
2497.73,0.33443
2474.58,0.34620
2451.44,0.35707
2428.29,0.37034
2405.15,0.38449
2382,0.39753
2358.86,0.40808
2335.71,0.41595
2312.57,0.41957
2289.42,0.41916
2266.28,0.41606
2243.13,0.41213
2219.99,0.41242
2196.84,0.40911
2173.7,0.39620
2150.55,0.38640
2127.41,0.38445
2104.26,0.38945
2081.12,0.39118
2057.97,0.38631
2034.83,0.39328
2011.68,0.40851
1988.54,0.41793
1965.39,0.42575
1942.25,0.43787
1919.1,0.44439
1895.96,0.44249
1872.81,0.43814
1849.67,0.43195
1826.52,0.41668
1803.38,0.35952
1780.23,0.26956
1757.09,0.20254
1733.94,0.17484
1710.8,0.21364
1687.65,0.20980
1664.51,0.15697
1641.36,0.16231
1618.22,0.15171
1595.07,0.13553
1571.93,0.19866
1548.78,0.21593
1525.64,0.14012
1502.49,0.09872
1479.35,0.11345
1456.2,0.08551
1433.06,0.08151
1409.91,0.09411
1386.77,0.08565
1363.62,0.08138
1340.48,0.08378
1317.33,0.08102
1294.19,0.08407
1271.04,0.07120
1247.9,0.08175
1224.75,0.08226
1201.61,0.08872
1178.46,0.08071
1155.32,0.07498
1132.17,0.06668
1109.03,0.06916
1085.88,0.07348
1062.74,0.09282
1039.59,0.10264
1016.45,0.12176
993.304,0.13836
970.159,0.18241
947.014,0.22286
923.869,0.24697
900.724,0.22260
877.579,0.24672
854.434,0.26174
831.289,0.26732
808.144,0.24209
784.999,0.25473
761.854,0.23416
738.709,0.21363
715.565,0.18675
692.42,0.16890
669.275,0.14200
646.13,0.14094
622.985,0.12319
599.84,0.13222