File: 01_Data/Cedar_Shingle/FTIR/IS/Cedar_Shingle_IS_S_221017_R6.dpt
7497.03,0.89022
7473.89,0.89496
7450.74,0.88275
7427.6,0.86886
7404.45,0.86226
7381.31,0.86522
7358.16,0.84517
7335.02,0.83366
7311.87,0.83015
7288.73,0.82926
7265.58,0.82804
7242.44,0.83279
7219.29,0.82778
7196.15,0.82254
7173,0.80988
7149.86,0.80408
7126.71,0.79199
7103.57,0.77077
7080.42,0.75686
7057.28,0.74108
7034.13,0.72151
7010.99,0.71018
6987.84,0.69944
6964.7,0.69250
6941.55,0.69138
6918.41,0.69179
6895.26,0.68685
6872.12,0.68668
6848.97,0.69074
6825.83,0.68595
6802.68,0.68951
6779.54,0.68564
6756.39,0.69379
6733.25,0.69205
6710.1,0.69228
6686.96,0.69765
6663.82,0.69952
6640.67,0.70102
6617.53,0.70817
6594.38,0.70858
6571.24,0.71022
6548.09,0.71496
6524.95,0.71739
6501.8,0.71765
6478.66,0.72171
6455.51,0.71784
6432.37,0.72066
6409.22,0.71982
6386.08,0.72431
6362.93,0.73106
6339.79,0.72398
6316.64,0.73068
6293.5,0.72868
6270.35,0.73644
6247.21,0.74420
6224.06,0.74692
6200.92,0.75184
6177.77,0.75685
6154.63,0.76300
6131.48,0.76505
6108.34,0.76770
6085.19,0.76717
6062.05,0.76895
6038.9,0.76534
6015.76,0.75827
5992.61,0.75167
5969.47,0.74654
5946.32,0.74396
5923.18,0.74296
5900.03,0.73961
5876.89,0.73725
5853.74,0.73871
5830.6,0.74061
5807.45,0.73474
5784.31,0.73413
5761.16,0.73867
5738.02,0.73873
5714.87,0.73965
5691.73,0.73917
5668.58,0.73883
5645.44,0.73762
5622.29,0.73927
5599.15,0.74054
5576,0.74124
5552.86,0.74342
5529.71,0.74255
5506.57,0.74614
5483.42,0.74657
5460.28,0.75195
5437.13,0.75242
5413.99,0.75798
5390.84,0.76010
5367.7,0.75897
5344.55,0.75772
5321.41,0.74837
5298.26,0.73022
5275.12,0.69916
5251.97,0.66050
5228.83,0.63303
5205.68,0.62342
5182.54,0.62080
5159.39,0.62902
5136.25,0.63982
5113.1,0.65001
5089.96,0.66015
5066.81,0.67101
5043.67,0.67742
5020.52,0.68368
4997.38,0.68505
4974.23,0.67884
4951.09,0.66650
4927.94,0.64674
4904.8,0.62727
4881.65,0.60860
4858.51,0.59217
4835.36,0.57706
4812.22,0.56694
4789.07,0.56180
4765.93,0.55764
4742.78,0.55835
4719.64,0.55962
4696.49,0.56242
4673.35,0.56677
4650.2,0.57544
4627.06,0.58383
4603.92,0.59600
4580.77,0.60536
4557.63,0.61279
4534.48,0.61627
4511.34,0.61737
4488.19,0.60828
4465.05,0.58617
4441.9,0.55982
4418.76,0.53191
4395.61,0.51903
4372.47,0.52532
4349.32,0.53021
4326.18,0.52547
4303.03,0.51785
4279.89,0.51163
4256.74,0.51700
4233.6,0.52029
4210.45,0.52025
4187.31,0.52242
4164.16,0.52830
4141.02,0.52451
4117.87,0.51137
4094.73,0.49339
4071.58,0.47198
4048.44,0.45018
4025.29,0.43646
4002.15,0.43400
3979,0.43997
3955.86,0.44894
3932.71,0.46165
3909.57,0.47190
3886.42,0.48248
3863.28,0.49051
3840.13,0.50162
3816.99,0.50530
3793.84,0.50540
3770.7,0.50272
3747.55,0.49596
3724.41,0.48130
3701.26,0.45254
3678.12,0.39419
3654.97,0.31125
3631.83,0.24435
3608.68,0.18906
3585.54,0.14302
3562.39,0.11373
3539.25,0.09530
3516.1,0.08322
3492.96,0.07402
3469.81,0.06882
3446.67,0.06663
3423.52,0.06611
3400.38,0.06591
3377.23,0.06667
3354.09,0.06850
3330.94,0.07283
3307.8,0.07888
3284.65,0.08411
3261.51,0.09362
3238.36,0.10448
3215.22,0.11677
3192.07,0.13159
3168.93,0.14554
3145.78,0.16076
3122.64,0.17511
3099.49,0.18876
3076.35,0.19797
3053.2,0.20813
3030.06,0.21312
3006.91,0.20007
2983.77,0.17657
2960.62,0.13899
2937.48,0.11998
2914.33,0.11748
2891.19,0.12155
2868.04,0.13282
2844.9,0.15437
2821.75,0.19587
2798.61,0.22574
2775.46,0.23899
2752.32,0.24455
2729.17,0.24734
2706.03,0.25901
2682.88,0.27303
2659.74,0.28231
2636.59,0.29053
2613.45,0.29963
2590.3,0.30824
2567.16,0.31348
2544.02,0.31517
2520.87,0.32335
2497.73,0.33519
2474.58,0.34717
2451.44,0.35829
2428.29,0.37109
2405.15,0.38583
2382,0.39896
2358.86,0.40999
2335.71,0.41780
2312.57,0.42136
2289.42,0.42099
2266.28,0.41800
2243.13,0.41393
2219.99,0.41453
2196.84,0.41163
2173.7,0.39849
2150.55,0.38872
2127.41,0.38683
2104.26,0.39223
2081.12,0.39365
2057.97,0.38842
2034.83,0.39563
2011.68,0.41035
1988.54,0.41982
1965.39,0.42765
1942.25,0.43963
1919.1,0.44642
1895.96,0.44435
1872.81,0.43981
1849.67,0.43330
1826.52,0.41839
1803.38,0.36019
1780.23,0.26976
1757.09,0.20239
1733.94,0.17507
1710.8,0.21419
1687.65,0.21060
1664.51,0.15805
1641.36,0.16362
1618.22,0.15227
1595.07,0.13604
1571.93,0.19899
1548.78,0.21683
1525.64,0.13981
1502.49,0.09878
1479.35,0.11400
1456.2,0.08523
1433.06,0.08217
1409.91,0.09404
1386.77,0.08598
1363.62,0.08169
1340.48,0.08358
1317.33,0.08165
1294.19,0.08448
1271.04,0.07179
1247.9,0.08185
1224.75,0.08269
1201.61,0.08962
1178.46,0.08042
1155.32,0.07535
1132.17,0.06713
1109.03,0.06956
1085.88,0.07277
1062.74,0.09390
1039.59,0.10292
1016.45,0.12215
993.304,0.13876
970.159,0.18289
947.014,0.22353
923.869,0.24789
900.724,0.22387
877.579,0.24795
854.434,0.26350
831.289,0.26918
808.144,0.24348
784.999,0.25721
761.854,0.23543
738.709,0.21454
715.565,0.18789
692.42,0.17115
669.275,0.14197
646.13,0.14120
622.985,0.12271
599.84,0.13177