File: 01_Data/PE_Foam_Pipe_Insulation/Cone/PE_Foam_Pipe_Insulation_HRRPUA_25.csv
Time after Ignition,PE_Foam_Pipe_Insulation_R1,PE_Foam_Pipe_Insulation_R2,PE_Foam_Pipe_Insulation_R3,Mean,Std. Dev.
0.0,8.9,10.3,5.4,8.2,2.5
0.5,11.2,12.3,6.3,9.9,3.2
1.0,13.0,14.8,6.9,11.6,4.2
1.5,15.3,18.1,8.7,14.0,4.8
2.0,18.6,21.4,10.0,16.6,5.9
2.5,24.1,24.4,12.7,20.4,6.7
3.0,28.8,28.5,14.5,24.0,8.2
3.5,32.1,31.6,17.7,27.1,8.2
4.0,35.7,35.2,20.1,30.3,8.9
4.5,39.9,38.3,24.5,34.2,8.5
5.0,43.7,41.3,27.3,37.4,8.9
5.5,47.2,43.4,31.7,40.8,8.1
6.0,48.9,45.9,35.0,43.3,7.4
6.5,52.0,46.6,39.0,45.9,6.5
7.0,54.3,48.6,41.7,48.2,6.3
7.5,54.4,50.1,43.6,49.4,5.4
8.0,57.0,51.3,46.2,51.5,5.4
8.5,56.0,51.7,46.6,51.5,4.7
9.0,57.0,52.2,49.0,52.8,4.0
9.5,58.3,53.0,50.2,53.9,4.1
10.0,57.1,53.0,51.2,53.8,3.1
10.5,58.6,52.6,51.2,54.2,4.0
11.0,57.7,53.4,52.7,54.6,2.7
11.5,57.4,53.2,52.1,54.2,2.8
12.0,57.0,54.0,53.2,54.8,2.0
12.5,57.5,54.5,52.8,54.9,2.4
13.0,57.7,55.4,53.6,55.6,2.0
13.5,56.9,56.5,54.5,56.0,1.3
14.0,57.8,58.7,54.7,57.1,2.1
14.5,57.5,59.6,55.7,57.6,1.9
15.0,58.5,62.3,55.8,58.8,3.3
15.5,60.0,67.5,55.6,61.0,6.0
16.0,63.8,71.9,57.7,64.5,7.1
16.5,65.2,74.6,59.5,66.4,7.6
17.0,70.3,80.3,60.7,70.4,9.8
17.5,72.2,84.1,63.5,73.3,10.3
18.0,79.0,91.6,67.0,79.2,12.3
18.5,81.6,96.8,71.6,83.3,12.7
19.0,85.3,104.8,77.0,89.0,14.2
19.5,92.3,109.7,81.6,94.5,14.2
20.0,95.1,116.1,90.9,100.7,13.5
20.5,105.8,121.4,98.3,108.5,11.8
21.0,110.3,128.4,109.1,115.9,10.8
21.5,122.5,133.0,116.2,123.9,8.5
22.0,131.8,137.4,128.6,132.6,4.4
22.5,137.8,141.4,134.9,138.0,3.3
23.0,148.8,146.6,153.0,149.4,3.3
23.5,161.9,154.5,161.0,159.1,4.0
24.0,175.1,156.7,173.1,168.3,10.1
24.5,179.0,163.9,183.7,175.6,10.4
25.0,184.7,170.8,196.7,184.0,13.0
25.5,197.6,176.0,213.1,195.6,18.7
26.0,209.5,189.4,227.7,208.9,19.2
26.5,215.8,200.0,235.2,217.0,17.6
27.0,226.0,209.2,244.6,226.6,17.7
27.5,237.8,217.0,258.0,237.6,20.5
28.0,245.3,231.8,260.2,245.7,14.2
28.5,263.2,241.9,268.0,257.7,13.9
29.0,269.4,243.7,275.3,262.8,16.8
29.5,283.5,262.4,269.9,271.9,10.7
30.0,295.8,267.6,271.5,278.3,15.3
30.5,301.9,277.7,278.1,285.9,13.9
31.0,320.4,279.2,284.6,294.7,22.4
31.5,327.8,291.6,283.9,301.1,23.4
32.0,324.9,288.9,288.4,300.7,21.0
32.5,332.7,290.9,292.4,305.3,23.7
33.0,341.8,304.5,289.6,311.9,26.9
33.5,344.0,304.7,300.8,316.5,23.9
34.0,354.1,313.8,296.3,321.4,29.6
34.5,355.5,315.1,309.6,326.7,25.0
35.0,358.4,324.6,311.2,331.4,24.3
35.5,359.3,330.4,311.4,333.7,24.1
36.0,352.8,325.9,323.2,334.0,16.4
36.5,362.5,340.5,320.4,341.1,21.0
37.0,358.0,343.0,343.3,348.1,8.6
37.5,366.1,346.5,334.3,349.0,16.0
38.0,359.1,349.2,339.7,349.3,9.7
38.5,360.1,355.2,347.9,354.4,6.2
39.0,360.1,352.1,344.8,352.3,7.7
39.5,364.3,351.2,361.5,359.0,6.9
40.0,356.5,354.9,355.4,355.6,0.8
40.5,365.4,358.0,364.2,362.5,3.9
41.0,363.4,359.5,367.1,363.3,3.8
41.5,357.7,367.8,376.5,367.3,9.4
42.0,364.3,366.5,374.4,368.4,5.4
42.5,357.0,362.6,371.8,363.8,7.5
43.0,364.1,370.0,380.3,371.5,8.2
43.5,375.1,375.6,379.2,376.6,2.2
44.0,367.5,371.9,389.5,376.3,11.6
44.5,360.0,381.2,389.0,376.7,15.0
45.0,365.0,378.6,387.6,377.1,11.4
45.5,371.3,390.5,388.5,383.4,10.6
46.0,370.7,397.3,392.7,386.9,14.2
46.5,364.4,403.9,395.9,388.0,20.9
47.0,374.7,398.1,400.0,390.9,14.1
47.5,371.6,398.1,389.4,386.3,13.5
48.0,371.1,400.6,389.7,387.1,14.9
48.5,367.8,394.0,399.9,387.2,17.1
49.0,359.0,400.5,396.8,385.4,23.0
49.5,367.6,407.6,388.3,387.8,20.0
50.0,369.8,406.2,404.2,393.4,20.5
50.5,372.9,408.9,391.0,390.9,18.0
51.0,364.2,404.2,391.1,386.5,20.4
51.5,371.3,410.2,385.1,388.9,19.7
52.0,363.8,397.2,380.4,380.5,16.7
52.5,369.8,411.0,384.1,388.3,20.9
53.0,361.2,402.8,388.6,384.2,21.1
53.5,361.5,398.4,392.3,384.1,19.8
54.0,363.5,399.5,381.7,381.6,18.0
54.5,362.3,395.7,382.3,380.1,16.8
55.0,361.7,400.3,385.6,382.5,19.5
55.5,366.3,393.9,379.5,379.9,13.8
56.0,357.3,388.4,374.4,373.4,15.6
56.5,360.2,375.7,371.6,369.2,8.0
57.0,357.2,385.3,373.2,371.9,14.1
57.5,368.9,387.8,382.3,379.7,9.7
58.0,361.7,380.6,378.4,373.6,10.3
58.5,371.1,372.5,378.1,373.9,3.7
59.0,366.8,370.4,378.6,371.9,6.1
59.5,366.6,375.9,373.2,371.9,4.8
60.0,366.6,373.7,371.7,370.7,3.7
60.5,369.6,368.0,375.7,371.1,4.0
61.0,365.1,368.4,377.4,370.3,6.4
61.5,370.4,364.6,380.5,371.8,8.0
62.0,375.0,365.3,380.7,373.7,7.8
62.5,364.7,361.1,383.4,369.7,12.0
63.0,377.1,364.3,373.2,371.6,6.5
63.5,370.5,370.6,379.0,373.4,4.9
64.0,368.0,362.9,380.7,370.5,9.2
64.5,370.3,361.3,379.5,370.4,9.1
65.0,359.6,352.7,385.9,366.1,17.5
65.5,361.6,358.1,374.2,364.6,8.5
66.0,362.1,350.6,380.6,364.4,15.1
66.5,354.1,355.6,389.4,366.4,20.0
67.0,360.7,340.4,374.2,358.5,17.0
67.5,354.3,346.1,384.2,361.5,20.0
68.0,364.5,334.9,386.9,362.1,26.1
68.5,364.4,334.3,372.5,357.1,20.2
69.0,364.0,336.9,376.2,359.0,20.1
69.5,363.7,337.8,373.1,358.2,18.3
70.0,355.9,336.8,376.1,356.3,19.6
70.5,359.8,325.8,373.1,352.9,24.4
71.0,352.7,318.2,360.5,343.8,22.5
71.5,363.2,323.4,363.5,350.1,23.1
72.0,350.8,313.7,363.5,342.7,25.9
72.5,347.2,314.2,363.1,341.5,24.9
73.0,350.0,317.6,352.3,340.0,19.4
73.5,351.9,303.7,345.0,333.5,26.1
74.0,344.5,299.1,339.0,327.5,24.7
74.5,345.2,297.7,330.2,324.4,24.3
75.0,346.3,303.2,326.9,325.4,21.6
75.5,341.4,296.4,315.7,317.8,22.6
76.0,350.4,288.4,300.9,313.2,32.8
76.5,342.2,287.0,284.5,304.5,32.6
77.0,336.7,281.7,277.3,298.6,33.1
77.5,327.2,281.7,267.4,292.1,31.2
78.0,308.9,281.0,252.4,280.8,28.2
78.5,300.5,275.7,241.3,272.5,29.7
79.0,291.4,271.2,224.3,262.3,34.4
79.5,266.3,272.8,210.4,249.9,34.3
80.0,260.3,271.1,198.4,243.3,39.2
80.5,248.4,263.1,188.1,233.2,39.7
81.0,234.7,259.8,174.3,222.9,43.9
81.5,217.7,260.3,154.8,210.9,53.1
82.0,201.0,259.8,139.4,200.1,60.2
82.5,185.7,255.5,122.9,188.0,66.3
83.0,168.1,251.2,110.1,176.4,70.9
83.5,152.9,254.8,97.9,168.5,79.6
84.0,135.7,248.0,87.9,157.2,82.2
84.5,119.2,241.1,77.1,145.8,85.1
85.0,102.0,229.9,69.4,133.8,84.8
85.25,96.7,228.8,65.1,130.2,86.8