File: 01_Data/PE_Foam_Pipe_Insulation/Cone/PE_Foam_Pipe_Insulation_HRRPUA_50.csv
Time after Ignition,PE_Foam_Pipe_Insulation_R1,PE_Foam_Pipe_Insulation_R2,PE_Foam_Pipe_Insulation_R3,Mean,Std. Dev.
0.0,13.0,8.4,17.2,12.9,4.4
0.25,14.2,9.2,19.5,14.3,5.1
0.5,19.4,12.0,21.2,17.5,4.9
0.75,23.8,14.5,25.6,21.3,5.9
1.0,27.6,16.9,29.7,24.7,6.9
1.25,31.5,18.8,32.3,27.5,7.5
1.5,31.2,20.5,36.3,29.3,8.0
1.75,34.6,22.2,38.7,31.9,8.6
2.0,37.8,24.4,41.2,34.5,8.9
2.25,40.6,25.5,43.1,36.4,9.5
2.5,42.7,26.7,45.2,38.2,10.0
2.75,45.2,27.8,47.4,40.1,10.8
3.0,47.7,28.9,49.6,42.1,11.4
3.25,48.6,29.7,51.6,43.3,11.9
3.5,49.8,30.4,52.6,44.3,12.1
3.75,51.8,30.9,54.1,45.6,12.8
4.0,52.8,31.7,55.6,46.7,13.1
4.25,55.2,32.9,57.5,48.5,13.6
4.5,55.5,33.1,57.7,48.8,13.6
4.75,57.4,33.6,58.8,49.9,14.2
5.0,59.1,34.1,59.2,50.8,14.5
5.25,58.7,34.3,60.1,51.1,14.5
5.5,59.8,34.6,61.4,51.9,15.1
5.75,59.7,35.0,62.3,52.4,15.1
6.0,61.1,36.3,63.1,53.5,14.9
6.25,60.4,35.4,63.8,53.2,15.5
6.5,61.0,36.4,64.3,53.9,15.3
6.75,60.8,36.9,64.8,54.2,15.1
7.0,62.1,36.9,65.2,54.8,15.5
7.25,62.2,37.2,65.9,55.1,15.6
7.5,63.4,38.8,67.2,56.5,15.4
7.75,65.2,38.8,69.3,57.8,16.5
8.0,65.4,39.3,70.9,58.5,16.9
8.25,66.9,38.6,71.8,59.1,17.9
8.5,68.7,39.7,72.3,60.2,17.9
8.75,70.6,40.4,75.1,62.0,18.8
9.0,71.9,41.3,74.7,62.7,18.5
9.25,73.5,42.3,76.5,64.1,18.9
9.5,76.5,42.7,78.3,65.8,20.0
9.75,81.2,43.6,80.2,68.3,21.4
10.0,82.2,44.4,81.2,69.2,21.5
10.25,85.1,46.0,81.7,70.9,21.7
10.5,86.6,47.0,84.9,72.8,22.4
10.75,88.1,48.2,88.2,74.8,23.1
11.0,92.2,49.9,89.6,77.2,23.7
11.25,98.1,49.4,90.5,79.3,26.2
11.5,99.9,51.5,92.0,81.1,26.0
11.75,104.2,53.5,95.5,84.4,27.1
12.0,103.8,54.7,100.5,86.3,27.4
12.25,109.5,57.0,100.5,89.0,28.1
12.5,116.6,58.1,102.3,92.4,30.5
12.75,119.8,59.3,104.9,94.7,31.5
13.0,130.9,62.3,112.8,102.0,35.6
13.25,129.5,63.4,117.0,103.3,35.1
13.5,135.8,65.4,122.8,108.0,37.5
13.75,152.5,66.5,126.8,115.3,44.1
14.0,149.5,69.6,130.8,116.7,41.8
14.25,159.6,71.0,142.0,124.2,46.9
14.5,172.9,73.9,146.6,131.1,51.3
14.75,179.2,75.0,158.2,137.5,55.1
15.0,185.6,77.5,167.2,143.4,57.9
15.25,197.4,77.8,182.8,152.7,65.2
15.5,206.3,82.5,196.4,161.7,68.8
15.75,216.7,83.2,205.2,168.4,74.0
16.0,228.1,85.6,224.6,179.4,81.3
16.25,239.1,88.6,230.4,186.0,84.5
16.5,238.8,94.0,243.3,192.0,84.9
16.75,245.9,94.9,255.5,198.7,90.1
17.0,260.6,98.4,264.7,207.9,94.8
17.25,261.8,100.3,277.5,213.2,98.1
17.5,271.5,105.8,279.2,218.8,98.0
17.75,279.3,111.6,298.7,229.9,102.9
18.0,288.9,113.1,309.8,237.3,108.1
18.25,291.3,118.1,309.6,239.7,105.7
18.5,305.2,121.8,321.8,249.6,111.0
18.75,304.9,121.4,336.1,254.1,116.0
19.0,306.2,123.9,335.0,255.0,114.4
19.25,316.3,131.8,343.1,263.7,115.0
19.5,321.3,132.3,340.0,264.6,114.9
19.75,330.8,137.6,354.3,274.2,118.9
20.0,335.2,142.3,369.2,282.2,122.4
20.25,336.1,146.9,356.2,279.7,115.5
20.5,351.1,155.6,379.5,295.4,121.9
20.75,361.0,162.3,374.6,299.3,118.8
21.0,367.5,165.7,380.0,304.4,120.3
21.25,360.8,172.8,396.1,309.9,120.0
21.5,372.4,180.3,391.2,314.6,116.7
21.75,386.2,189.2,406.3,327.2,120.0
22.0,392.8,196.8,415.2,334.9,120.2
22.25,394.6,201.6,426.1,340.8,121.6
22.5,408.7,215.0,422.8,348.8,116.1
22.75,429.0,224.6,427.9,360.5,117.7
23.0,429.8,231.7,445.4,369.0,119.1
23.25,431.4,234.3,445.9,370.5,118.2
23.5,455.1,243.8,461.2,386.7,123.8
23.75,456.5,258.3,463.2,392.7,116.4
24.0,436.5,263.2,472.9,390.9,112.1
24.25,474.7,270.7,474.1,406.5,117.6
24.5,478.6,284.5,484.2,415.7,113.7
24.75,481.7,294.5,488.2,421.5,110.0
25.0,482.8,299.5,512.2,431.5,115.2
25.25,499.9,308.0,500.0,436.0,110.8
25.5,493.2,313.6,496.3,434.4,104.6
25.75,484.0,323.8,521.2,443.0,104.9
26.0,503.5,325.2,500.5,443.1,102.1
26.25,523.0,327.7,529.7,460.1,114.7
26.5,497.9,344.1,535.3,459.1,101.3
26.75,510.9,352.7,533.6,465.7,98.6
27.0,517.2,358.5,523.7,466.5,93.6
27.25,533.9,364.7,539.7,479.4,99.4
27.5,531.9,369.2,533.3,478.2,94.3
27.75,527.9,378.9,551.5,486.1,93.6
28.0,553.7,377.2,574.4,501.8,108.4
28.25,538.2,378.2,568.9,495.1,102.4
28.5,528.8,376.2,583.2,496.1,107.3
28.75,536.9,388.4,571.6,499.0,97.3
29.0,534.3,384.8,567.0,495.4,97.2
29.25,565.1,403.1,581.3,516.5,98.5
29.5,555.1,407.0,583.0,515.0,94.6
29.75,550.4,408.7,587.8,515.6,94.4
30.0,550.6,417.1,604.6,524.1,96.5
30.25,586.4,425.5,593.6,535.1,95.0
30.5,585.1,416.9,609.1,537.0,104.7
30.75,573.0,416.5,599.1,529.5,98.8
31.0,587.9,419.6,606.5,538.0,102.9
31.25,572.5,412.3,600.9,528.6,101.6
31.5,582.1,435.5,619.7,545.8,97.3
31.75,591.2,465.1,621.2,559.1,82.8
32.0,598.4,443.4,607.2,549.7,92.1
32.25,585.3,449.9,621.2,552.1,90.3
32.5,598.0,455.6,607.9,553.8,85.2
32.75,606.6,453.8,623.9,561.5,93.6
33.0,597.2,454.7,628.3,560.1,92.6
33.25,604.3,459.1,616.5,560.0,87.5
33.5,631.7,450.6,626.0,569.5,103.0
33.75,602.5,457.0,605.6,555.0,84.9
34.0,619.1,475.4,609.0,567.8,80.2
34.25,606.9,449.8,628.6,561.7,97.6
34.5,634.1,469.8,624.6,576.2,92.2
34.75,635.9,470.8,640.0,582.3,96.5
35.0,631.1,462.6,615.6,569.8,93.1
35.25,629.1,478.2,604.6,570.6,81.0
35.5,627.8,472.8,627.3,576.0,89.4
35.75,616.0,483.7,625.9,575.2,79.4
36.0,616.1,477.7,614.5,569.4,79.5
36.25,630.5,478.4,632.0,580.3,88.3
36.5,637.4,472.1,608.5,572.7,88.3
36.75,625.5,490.3,641.4,585.7,83.0
37.0,640.4,484.6,632.7,585.9,87.8
37.25,640.9,483.1,625.5,583.2,87.0
37.5,646.9,479.1,642.1,589.4,95.5
37.75,635.9,491.1,625.0,584.0,80.6
38.0,651.2,505.3,633.2,596.6,79.5
38.25,637.3,496.2,627.8,587.1,78.8
38.5,631.4,491.0,615.1,579.2,76.8
38.75,618.6,479.2,630.2,576.0,84.0
39.0,602.3,499.9,650.2,584.1,76.7
39.25,613.9,483.3,633.8,577.0,81.7
39.5,634.5,491.9,650.3,592.2,87.2
39.75,621.0,488.8,631.4,580.4,79.5
40.0,636.9,493.0,627.1,585.7,80.4
40.25,622.3,481.7,648.1,584.0,89.6
40.5,613.1,501.2,660.2,591.5,81.7
40.75,626.9,487.9,647.7,587.5,86.9
41.0,650.0,488.2,650.2,596.2,93.5
41.25,621.6,485.5,664.7,590.6,93.5
41.5,626.4,475.1,659.3,587.0,98.2
41.75,619.3,481.7,640.0,580.3,86.1
42.0,623.4,491.8,630.6,581.9,78.1
42.25,612.0,467.0,625.4,568.1,87.8
42.5,618.1,456.1,635.5,569.9,98.9
42.75,630.2,479.5,654.9,588.2,94.9
43.0,605.5,464.3,648.9,572.9,96.5
43.25,592.9,457.8,636.6,562.4,93.2
43.5,610.6,461.2,633.3,568.4,93.5
43.75,611.9,470.2,641.1,574.4,91.4
44.0,610.0,469.2,679.9,586.4,107.3
44.25,614.0,461.1,661.5,578.9,104.7
44.5,598.4,453.2,667.2,572.9,109.2
44.75,630.5,448.1,656.6,578.4,113.6
45.0,613.4,441.6,660.3,571.8,115.1
45.25,599.8,453.2,627.9,560.3,93.8
45.5,606.3,447.5,656.1,570.0,109.0
45.75,604.3,446.5,641.2,564.0,103.4
46.0,587.2,435.4,649.4,557.3,110.1
46.25,612.8,440.0,648.5,567.1,111.5
46.5,616.1,436.3,629.6,560.6,107.9
46.75,614.3,438.6,665.0,572.6,118.8
47.0,588.7,428.0,628.5,548.4,106.1
47.25,597.1,436.2,640.2,557.8,107.5
47.5,583.9,432.8,635.5,550.7,105.3
47.75,618.3,440.1,620.3,559.6,103.5
48.0,632.1,435.5,625.6,564.4,111.7
48.25,591.5,434.7,611.0,545.7,96.6
48.5,601.7,427.5,608.7,546.0,102.6
48.75,604.3,432.3,607.6,548.1,100.3
49.0,607.4,442.4,589.9,546.5,90.6
49.25,593.8,435.5,592.5,540.6,91.1
49.5,586.4,421.4,589.3,532.3,96.1
49.75,595.5,437.4,580.7,537.9,87.3
50.0,614.8,448.1,563.0,542.0,85.3
50.25,587.7,447.5,560.8,532.0,74.4
50.5,602.1,436.2,558.3,532.2,86.0
50.75,602.4,431.2,541.0,524.9,86.7
51.0,591.0,439.0,526.6,518.9,76.3
51.25,600.4,439.4,513.9,517.9,80.6
51.5,614.8,447.3,518.5,526.9,84.0
51.75,611.8,452.4,498.2,520.8,82.1
52.0,579.4,453.0,496.0,509.5,64.3
52.25,583.6,450.5,488.2,507.4,68.6
52.5,611.2,447.4,471.0,509.9,88.5
52.75,586.1,459.7,473.6,506.5,69.3
53.0,604.1,457.3,475.3,512.2,80.1
53.25,583.5,467.6,461.6,504.2,68.7
53.5,572.6,467.2,455.4,498.4,64.6
53.75,585.1,469.7,454.3,503.0,71.5
54.0,557.5,459.6,443.5,486.9,61.7
54.25,564.9,481.9,428.4,491.8,68.8
54.5,555.7,471.6,422.8,483.4,67.3
54.75,547.7,466.0,418.9,477.5,65.2
55.0,538.8,469.0,418.4,475.4,60.5
55.25,525.1,462.6,402.5,463.4,61.3
55.5,523.0,476.7,389.2,463.0,67.9
55.75,523.4,480.4,381.7,461.8,72.7
56.0,494.0,482.8,377.8,451.5,64.1
56.25,476.6,477.7,370.5,441.6,61.6
56.5,468.4,484.9,361.9,438.4,66.7
56.75,456.6,481.6,351.9,430.0,68.8
57.0,436.9,476.1,340.4,417.8,69.9
57.25,411.5,462.5,323.7,399.2,70.2
57.5,399.6,464.2,,431.9,45.6
57.75,377.3,464.4,,420.8,61.6
58.0,359.1,452.2,,405.7,65.8
58.25,335.6,456.0,,395.8,85.2
58.5,312.3,451.6,,382.0,98.5
58.75,299.3,441.5,,370.4,100.5