File: 01_Data/PE_Foam_Pipe_Insulation/Cone/PE_Foam_Pipe_Insulation_HRRPUA_75.csv
Time after Ignition,PE_Foam_Pipe_Insulation_R1,PE_Foam_Pipe_Insulation_R2,PE_Foam_Pipe_Insulation_R3,Mean,Std. Dev.
0.0,16.1,23.8,25.7,21.9,5.1
0.25,18.1,28.6,25.6,24.1,5.4
0.5,24.2,32.9,31.0,29.4,4.6
0.75,30.1,36.8,35.5,34.1,3.6
1.0,34.1,40.8,39.1,38.0,3.5
1.25,38.8,45.1,42.9,42.3,3.2
1.5,43.6,49.8,46.1,46.5,3.1
1.75,50.4,54.3,49.9,51.5,2.4
2.0,54.0,57.4,52.3,54.6,2.6
2.25,58.6,61.3,58.4,59.4,1.6
2.5,62.2,65.1,61.9,63.1,1.8
2.75,67.8,69.1,66.7,67.8,1.2
3.0,68.3,71.6,69.6,69.9,1.7
3.25,72.9,74.8,73.9,73.9,0.9
3.5,75.3,79.0,76.2,76.8,1.9
3.75,78.6,81.4,80.4,80.1,1.4
4.0,81.2,82.7,81.9,82.0,0.8
4.25,82.9,87.9,83.0,84.6,2.8
4.5,84.5,88.0,85.3,85.9,1.8
4.75,85.8,89.3,88.0,87.7,1.7
5.0,86.7,90.4,92.1,89.8,2.7
5.25,89.2,96.5,93.2,93.0,3.6
5.5,89.3,97.0,96.2,94.2,4.3
5.75,92.8,100.2,98.1,97.0,3.8
6.0,92.9,103.3,103.4,99.9,6.1
6.25,94.7,104.1,109.7,102.8,7.6
6.5,95.9,111.5,113.1,106.8,9.5
6.75,97.9,114.7,119.3,110.6,11.3
7.0,98.7,119.3,121.8,113.2,12.7
7.25,98.8,121.3,130.3,116.8,16.2
7.5,101.0,128.2,137.9,122.4,19.1
7.75,101.6,139.6,145.1,128.8,23.7
8.0,106.1,146.2,154.8,135.7,26.0
8.25,108.5,150.3,153.7,137.5,25.1
8.5,113.0,165.0,167.2,148.4,30.7
8.75,115.6,179.6,177.2,157.5,36.3
9.0,124.6,197.4,184.8,168.9,38.9
9.25,131.6,204.2,195.8,177.2,39.7
9.5,140.2,223.0,205.1,189.4,43.6
9.75,149.8,244.9,217.1,203.9,48.9
10.0,167.7,261.3,232.8,220.6,48.0
10.25,187.6,277.5,244.0,236.4,45.5
10.5,201.2,293.1,245.3,246.5,46.0
10.75,213.3,316.1,257.1,262.2,51.6
11.0,229.8,328.3,278.7,278.9,49.2
11.25,246.9,352.0,284.7,294.5,53.2
11.5,263.4,354.5,302.7,306.9,45.7
11.75,282.1,373.8,325.7,327.2,45.9
12.0,316.9,397.7,356.7,357.1,40.4
12.25,321.3,396.1,379.4,365.6,39.3
12.5,347.8,429.4,383.5,386.9,40.9
12.75,348.0,437.4,383.7,389.7,45.0
13.0,359.3,434.7,394.6,396.2,37.8
13.25,367.3,464.4,421.3,417.7,48.6
13.5,414.3,475.0,465.7,451.6,32.7
13.75,418.0,487.9,484.2,463.4,39.3
14.0,426.9,485.7,472.6,461.7,30.9
14.25,425.5,505.1,496.0,475.5,43.6
14.5,473.3,511.8,535.1,506.7,31.2
14.75,455.5,561.3,548.2,521.6,57.7
15.0,506.6,527.1,563.6,532.4,28.8
15.25,504.2,564.4,587.8,552.1,43.1
15.5,515.9,590.0,597.0,567.6,44.9
15.75,538.3,612.5,622.3,591.0,45.9
16.0,565.1,629.4,663.6,619.4,50.0
16.25,567.2,623.2,680.6,623.7,56.7
16.5,579.9,643.1,675.0,632.7,48.4
16.75,628.5,644.5,703.1,658.7,39.3
17.0,637.8,646.7,705.9,663.4,37.0
17.25,654.2,660.7,695.9,670.3,22.5
17.5,691.5,680.5,735.7,702.6,29.2
17.75,648.4,697.5,736.5,694.1,44.1
18.0,687.5,682.6,768.4,712.8,48.2
18.25,716.5,695.2,736.9,716.2,20.8
18.5,724.8,705.8,795.3,741.9,47.2
18.75,751.6,713.7,746.6,737.3,20.6
19.0,779.6,720.7,790.6,763.6,37.6
19.25,744.3,707.5,813.1,755.0,53.6
19.5,871.9,765.5,811.7,816.3,53.4
19.75,797.4,722.8,823.2,781.1,52.1
20.0,805.0,743.1,802.9,783.7,35.1
20.25,795.7,743.4,833.4,790.8,45.2
20.5,862.5,741.1,809.1,804.2,60.9
20.75,849.5,730.8,820.4,800.2,61.9
21.0,869.3,733.6,814.4,805.8,68.3
21.25,843.5,754.4,853.1,817.0,54.4
21.5,855.3,731.4,844.5,810.4,68.6
21.75,832.8,764.5,836.8,811.4,40.6
22.0,913.0,753.3,829.2,831.8,79.9
22.25,901.6,766.1,857.6,841.8,69.1
22.5,848.0,773.9,888.8,836.9,58.3
22.75,889.2,757.5,855.6,834.1,68.4
23.0,875.7,771.4,833.9,827.0,52.5
23.25,896.4,760.6,884.2,847.0,75.1
23.5,859.6,753.9,841.7,818.4,56.5
23.75,886.1,759.0,879.6,841.6,71.5
24.0,907.8,739.1,840.7,829.2,84.9
24.25,883.9,733.6,844.1,820.5,77.9
24.5,873.5,748.7,866.7,829.7,70.2
24.75,859.0,759.6,836.4,818.3,52.1
25.0,881.3,745.4,795.3,807.4,68.7
25.25,869.4,774.5,814.0,819.3,47.7
25.5,877.0,744.0,825.0,815.4,67.1
25.75,879.4,764.7,834.7,826.3,57.8
26.0,859.6,734.2,828.7,807.5,65.4
26.25,837.8,727.0,814.5,793.1,58.4
26.5,866.8,728.9,800.6,798.8,69.0
26.75,857.8,718.4,821.9,799.4,72.4
27.0,857.9,740.9,808.3,802.4,58.7
27.25,850.0,709.5,761.5,773.7,71.1
27.5,845.8,715.7,780.0,780.5,65.1
27.75,825.8,712.6,813.4,783.9,62.1
28.0,819.5,700.4,806.8,775.6,65.4
28.25,799.6,694.9,806.2,766.9,62.5
28.5,836.0,697.7,773.7,769.1,69.2
28.75,833.4,727.1,783.7,781.4,53.2
29.0,814.2,734.7,787.2,778.7,40.4
29.25,812.6,702.7,741.8,752.3,55.7
29.5,800.6,693.9,742.3,745.6,53.4
29.75,804.5,687.9,759.3,750.5,58.8
30.0,793.4,672.6,771.7,745.9,64.4
30.25,792.9,680.2,728.4,733.8,56.5
30.5,759.1,667.3,752.7,726.4,51.2
30.75,767.2,667.8,767.8,734.2,57.6
31.0,770.4,669.2,756.0,731.9,54.7
31.25,757.0,658.5,770.6,728.7,61.2
31.5,758.5,656.2,755.4,723.4,58.2
31.75,749.9,649.4,758.9,719.4,60.8
32.0,745.7,654.2,748.6,716.2,53.7
32.25,724.6,651.2,741.5,705.8,48.0
32.5,736.3,626.7,742.8,702.0,65.3
32.75,745.5,628.5,746.5,706.8,67.8
33.0,725.5,623.3,749.0,699.3,66.8
33.25,751.4,619.0,725.8,698.7,70.2
33.5,727.0,606.6,715.7,683.1,66.5
33.75,729.8,623.9,763.0,705.5,72.6
34.0,706.4,606.0,768.3,693.6,81.9
34.25,704.8,612.6,730.1,682.5,61.8
34.5,734.3,609.3,730.7,691.4,71.1
34.75,716.7,605.1,732.8,684.9,69.5
35.0,700.1,597.3,736.6,678.0,72.2
35.25,716.5,599.5,757.7,691.2,82.1
35.5,690.7,594.6,732.4,672.6,70.6
35.75,695.5,583.1,740.6,673.1,81.1
36.0,687.2,577.2,720.4,661.6,75.0
36.25,714.4,585.2,704.2,667.9,71.9
36.5,672.6,562.0,693.7,642.8,70.7
36.75,695.9,560.7,724.5,660.4,87.5
37.0,696.9,562.4,703.0,654.1,79.4
37.25,668.4,548.4,701.7,639.5,80.6
37.5,659.1,542.6,696.4,632.7,80.2
37.75,673.8,563.0,694.6,643.8,70.7
38.0,647.8,533.0,680.0,620.3,77.3
38.25,674.4,536.5,700.2,637.1,88.0
38.5,638.7,536.1,688.9,621.3,77.9
38.75,628.1,523.7,683.6,611.8,81.2
39.0,639.9,519.9,671.6,610.5,80.0
39.25,634.3,515.3,677.7,609.1,84.1
39.5,623.1,507.3,649.7,593.4,75.7
39.75,601.1,504.9,642.3,582.8,70.5
40.0,608.8,501.1,635.9,582.0,71.3
40.25,606.7,504.1,615.5,575.4,62.0
40.5,589.6,488.1,633.2,570.3,74.4
40.75,574.2,478.6,592.3,548.4,61.1
41.0,572.0,470.5,601.2,547.9,68.6
41.25,560.2,478.2,571.5,536.6,50.9
41.5,549.2,467.2,566.4,527.6,53.1
41.75,527.9,451.9,559.3,513.0,55.2
42.0,524.5,458.9,550.8,511.4,47.3
42.25,519.5,450.4,528.5,499.5,42.7
42.5,490.9,433.7,523.9,482.9,45.6
42.75,493.1,423.8,504.5,473.8,43.7
43.0,466.3,416.4,482.2,455.0,34.3
43.25,442.4,412.6,466.2,440.4,26.9
43.5,423.8,401.2,452.7,425.9,25.8
43.75,398.6,389.3,440.7,409.5,27.3
44.0,369.4,374.8,425.3,389.9,30.8
44.25,347.0,368.8,400.9,372.3,27.1
44.5,320.9,,376.5,348.7,39.3
44.75,302.6,,,302.6,
45.0,281.2,,,281.2,
45.25,262.5,,,262.5,
45.5,242.7,,,242.7,
45.75,228.0,,,228.0,
46.0,213.8,,,213.8,
46.25,196.9,,,196.9,