File: 01_Data/PUF_Mattress_Pad/FTIR/IS/PUF_Mattress_Pad_IS_S_221003_R7.dpt
7497.03,0.67996
7473.89,0.68133
7450.74,0.67293
7427.6,0.66380
7404.45,0.66375
7381.31,0.66560
7358.16,0.65680
7335.02,0.66570
7311.87,0.66338
7288.73,0.65161
7265.58,0.65473
7242.44,0.64905
7219.29,0.65332
7196.15,0.64377
7173,0.64598
7149.86,0.64750
7126.71,0.65926
7103.57,0.65288
7080.42,0.65166
7057.28,0.65389
7034.13,0.65081
7010.99,0.65321
6987.84,0.65098
6964.7,0.65190
6941.55,0.65590
6918.41,0.65862
6895.26,0.65343
6872.12,0.65829
6848.97,0.65697
6825.83,0.65697
6802.68,0.65429
6779.54,0.64938
6756.39,0.65129
6733.25,0.64312
6710.1,0.63938
6686.96,0.62920
6663.82,0.62660
6640.67,0.62445
6617.53,0.62775
6594.38,0.63038
6571.24,0.63151
6548.09,0.63442
6524.95,0.64453
6501.8,0.64701
6478.66,0.64793
6455.51,0.64942
6432.37,0.65254
6409.22,0.65170
6386.08,0.65165
6362.93,0.65555
6339.79,0.65217
6316.64,0.65382
6293.5,0.65479
6270.35,0.65242
6247.21,0.65049
6224.06,0.64972
6200.92,0.65171
6177.77,0.65033
6154.63,0.64622
6131.48,0.64694
6108.34,0.63846
6085.19,0.63325
6062.05,0.63312
6038.9,0.62655
6015.76,0.61398
5992.61,0.60187
5969.47,0.57602
5946.32,0.53562
5923.18,0.53945
5900.03,0.52147
5876.89,0.54488
5853.74,0.54826
5830.6,0.53836
5807.45,0.52438
5784.31,0.51084
5761.16,0.51020
5738.02,0.52834
5714.87,0.54861
5691.73,0.56215
5668.58,0.55995
5645.44,0.56392
5622.29,0.57521
5599.15,0.58066
5576,0.58047
5552.86,0.58148
5529.71,0.58282
5506.57,0.58553
5483.42,0.58937
5460.28,0.58907
5437.13,0.59170
5413.99,0.60251
5390.84,0.61042
5367.7,0.61695
5344.55,0.61640
5321.41,0.61858
5298.26,0.61847
5275.12,0.61399
5251.97,0.61262
5228.83,0.60756
5205.68,0.60588
5182.54,0.60806
5159.39,0.60747
5136.25,0.60657
5113.1,0.60304
5089.96,0.59850
5066.81,0.59080
5043.67,0.58098
5020.52,0.57163
4997.38,0.56030
4974.23,0.54247
4951.09,0.52023
4927.94,0.50087
4904.8,0.48517
4881.65,0.47497
4858.51,0.46246
4835.36,0.45965
4812.22,0.47099
4789.07,0.48675
4765.93,0.50105
4742.78,0.50672
4719.64,0.50422
4696.49,0.49812
4673.35,0.48332
4650.2,0.47193
4627.06,0.46940
4603.92,0.46746
4580.77,0.46894
4557.63,0.46484
4534.48,0.46158
4511.34,0.45926
4488.19,0.45213
4465.05,0.42819
4441.9,0.36802
4418.76,0.29582
4395.61,0.30355
4372.47,0.28377
4349.32,0.24222
4326.18,0.23345
4303.03,0.26623
4279.89,0.28800
4256.74,0.29842
4233.6,0.30844
4210.45,0.32760
4187.31,0.33654
4164.16,0.32504
4141.02,0.31736
4117.87,0.31272
4094.73,0.29734
4071.58,0.27707
4048.44,0.26513
4025.29,0.26193
4002.15,0.26492
3979,0.27749
3955.86,0.29812
3932.71,0.32697
3909.57,0.34766
3886.42,0.35526
3863.28,0.35871
3840.13,0.36473
3816.99,0.37583
3793.84,0.37887
3770.7,0.39311
3747.55,0.41868
3724.41,0.43228
3701.26,0.44143
3678.12,0.43260
3654.97,0.41155
3631.83,0.38553
3608.68,0.36169
3585.54,0.34467
3562.39,0.32587
3539.25,0.30273
3516.1,0.27787
3492.96,0.25258
3469.81,0.20793
3446.67,0.16626
3423.52,0.10932
3400.38,0.08164
3377.23,0.06190
3354.09,0.05241
3330.94,0.04771
3307.8,0.04466
3284.65,0.04451
3261.51,0.04717
3238.36,0.05156
3215.22,0.05768
3192.07,0.06156
3168.93,0.06812
3145.78,0.07337
3122.64,0.07722
3099.49,0.07825
3076.35,0.07483
3053.2,0.07532
3030.06,0.07439
3006.91,0.06649
2983.77,0.04184
2960.62,0.04466
2937.48,0.04124
2914.33,0.04143
2891.19,0.04179
2868.04,0.04252
2844.9,0.05103
2821.75,0.07244
2798.61,0.07950
2775.46,0.08890
2752.32,0.10161
2729.17,0.11455
2706.03,0.13842
2682.88,0.15909
2659.74,0.17182
2636.59,0.18366
2613.45,0.20205
2590.3,0.19968
2567.16,0.23093
2544.02,0.25330
2520.87,0.26473
2497.73,0.26553
2474.58,0.26539
2451.44,0.27258
2428.29,0.28472
2405.15,0.28058
2382,0.27023
2358.86,0.26460
2335.71,0.25279
2312.57,0.21108
2289.42,0.13199
2266.28,0.10947
2243.13,0.18400
2219.99,0.21377
2196.84,0.22826
2173.7,0.23516
2150.55,0.24062
2127.41,0.24729
2104.26,0.25002
2081.12,0.24366
2057.97,0.23673
2034.83,0.22208
2011.68,0.21271
1988.54,0.21617
1965.39,0.21664
1942.25,0.21488
1919.1,0.20922
1895.96,0.21048
1872.81,0.21309
1849.67,0.21018
1826.52,0.19579
1803.38,0.16762
1780.23,0.13295
1757.09,0.08884
1733.94,0.03374
1710.8,0.03688
1687.65,0.03842
1664.51,0.03453
1641.36,0.03068
1618.22,0.03531
1595.07,0.03352
1571.93,0.03196
1548.78,0.03152
1525.64,0.03604
1502.49,0.03854
1479.35,0.03798
1456.2,0.03776
1433.06,0.04453
1409.91,0.03996
1386.77,0.03970
1363.62,0.04429
1340.48,0.04032
1317.33,0.03696
1294.19,0.03525
1271.04,0.03496
1247.9,0.03337
1224.75,0.03289
1201.61,0.03585
1178.46,0.03185
1155.32,0.02921
1132.17,0.02844
1109.03,0.03443
1085.88,0.04172
1062.74,0.04603
1039.59,0.05183
1016.45,0.04998
993.304,0.06150
970.159,0.06833
947.014,0.06746
923.869,0.05311
900.724,0.06453
877.579,0.06103
854.434,0.06332
831.289,0.05725
808.144,0.05381
784.999,0.06228
761.854,0.05392
738.709,0.06848
715.565,0.05619
692.42,0.05145
669.275,0.04751
646.13,0.05567
622.985,0.06060
599.84,0.05825