File: 01_Data/PUF_Mattress_Pad/FTIR/IS/PUF_Mattress_Pad_IS_S_221003_R6.dpt
7497.03,0.67945
7473.89,0.67521
7450.74,0.66864
7427.6,0.67048
7404.45,0.66830
7381.31,0.67004
7358.16,0.66357
7335.02,0.66384
7311.87,0.65892
7288.73,0.64914
7265.58,0.64757
7242.44,0.64927
7219.29,0.64165
7196.15,0.64590
7173,0.64325
7149.86,0.65031
7126.71,0.65438
7103.57,0.65121
7080.42,0.65200
7057.28,0.65296
7034.13,0.65650
7010.99,0.64881
6987.84,0.65000
6964.7,0.65353
6941.55,0.65756
6918.41,0.65702
6895.26,0.65461
6872.12,0.65593
6848.97,0.65660
6825.83,0.66062
6802.68,0.65677
6779.54,0.65138
6756.39,0.64963
6733.25,0.64318
6710.1,0.63317
6686.96,0.62547
6663.82,0.62219
6640.67,0.62599
6617.53,0.62867
6594.38,0.62770
6571.24,0.62857
6548.09,0.63468
6524.95,0.64219
6501.8,0.64818
6478.66,0.65061
6455.51,0.65070
6432.37,0.65355
6409.22,0.65098
6386.08,0.65284
6362.93,0.65592
6339.79,0.65382
6316.64,0.65368
6293.5,0.65551
6270.35,0.65239
6247.21,0.65567
6224.06,0.65009
6200.92,0.64759
6177.77,0.64742
6154.63,0.64750
6131.48,0.64510
6108.34,0.63932
6085.19,0.63366
6062.05,0.63446
6038.9,0.62593
6015.76,0.61802
5992.61,0.60361
5969.47,0.57546
5946.32,0.53561
5923.18,0.54125
5900.03,0.51970
5876.89,0.54455
5853.74,0.54889
5830.6,0.53865
5807.45,0.52499
5784.31,0.51126
5761.16,0.51052
5738.02,0.52873
5714.87,0.54797
5691.73,0.56228
5668.58,0.55862
5645.44,0.56586
5622.29,0.57623
5599.15,0.58177
5576,0.58067
5552.86,0.58207
5529.71,0.58147
5506.57,0.58467
5483.42,0.58933
5460.28,0.58849
5437.13,0.59220
5413.99,0.60308
5390.84,0.61311
5367.7,0.61655
5344.55,0.61723
5321.41,0.61801
5298.26,0.62031
5275.12,0.61492
5251.97,0.61247
5228.83,0.60823
5205.68,0.60653
5182.54,0.60689
5159.39,0.60919
5136.25,0.60849
5113.1,0.60532
5089.96,0.59938
5066.81,0.59031
5043.67,0.58114
5020.52,0.57165
4997.38,0.56262
4974.23,0.54337
4951.09,0.52013
4927.94,0.50137
4904.8,0.48508
4881.65,0.47667
4858.51,0.46224
4835.36,0.46189
4812.22,0.47148
4789.07,0.48724
4765.93,0.50018
4742.78,0.50781
4719.64,0.50455
4696.49,0.49793
4673.35,0.48355
4650.2,0.47366
4627.06,0.46974
4603.92,0.46669
4580.77,0.46904
4557.63,0.46532
4534.48,0.46313
4511.34,0.46021
4488.19,0.45112
4465.05,0.42828
4441.9,0.36814
4418.76,0.29663
4395.61,0.30333
4372.47,0.28362
4349.32,0.24338
4326.18,0.23239
4303.03,0.26734
4279.89,0.28866
4256.74,0.29858
4233.6,0.30893
4210.45,0.32773
4187.31,0.33642
4164.16,0.32611
4141.02,0.31849
4117.87,0.31268
4094.73,0.29768
4071.58,0.27687
4048.44,0.26538
4025.29,0.26195
4002.15,0.26606
3979,0.27748
3955.86,0.29831
3932.71,0.32718
3909.57,0.34784
3886.42,0.35552
3863.28,0.35911
3840.13,0.36520
3816.99,0.37601
3793.84,0.37899
3770.7,0.39363
3747.55,0.41773
3724.41,0.43384
3701.26,0.44070
3678.12,0.43203
3654.97,0.41006
3631.83,0.38324
3608.68,0.35816
3585.54,0.34151
3562.39,0.32202
3539.25,0.29959
3516.1,0.27493
3492.96,0.24979
3469.81,0.20661
3446.67,0.16613
3423.52,0.11006
3400.38,0.08256
3377.23,0.06159
3354.09,0.05338
3330.94,0.04756
3307.8,0.04513
3284.65,0.04444
3261.51,0.04668
3238.36,0.05232
3215.22,0.05776
3192.07,0.06234
3168.93,0.06804
3145.78,0.07370
3122.64,0.07746
3099.49,0.07842
3076.35,0.07466
3053.2,0.07557
3030.06,0.07441
3006.91,0.06723
2983.77,0.04129
2960.62,0.04481
2937.48,0.04133
2914.33,0.04155
2891.19,0.04261
2868.04,0.04230
2844.9,0.05126
2821.75,0.07233
2798.61,0.07985
2775.46,0.08929
2752.32,0.10178
2729.17,0.11435
2706.03,0.13858
2682.88,0.15944
2659.74,0.17139
2636.59,0.18369
2613.45,0.20267
2590.3,0.19972
2567.16,0.23137
2544.02,0.25341
2520.87,0.26489
2497.73,0.26583
2474.58,0.26553
2451.44,0.27298
2428.29,0.28541
2405.15,0.28074
2382,0.27026
2358.86,0.26543
2335.71,0.25283
2312.57,0.21136
2289.42,0.13162
2266.28,0.10955
2243.13,0.18379
2219.99,0.21404
2196.84,0.22859
2173.7,0.23559
2150.55,0.24057
2127.41,0.24723
2104.26,0.24979
2081.12,0.24384
2057.97,0.23690
2034.83,0.22214
2011.68,0.21287
1988.54,0.21622
1965.39,0.21686
1942.25,0.21502
1919.1,0.20934
1895.96,0.21107
1872.81,0.21367
1849.67,0.21044
1826.52,0.19563
1803.38,0.16796
1780.23,0.13347
1757.09,0.08876
1733.94,0.03330
1710.8,0.03692
1687.65,0.03862
1664.51,0.03412
1641.36,0.03065
1618.22,0.03538
1595.07,0.03324
1571.93,0.03223
1548.78,0.03197
1525.64,0.03625
1502.49,0.03842
1479.35,0.03781
1456.2,0.03728
1433.06,0.04505
1409.91,0.04057
1386.77,0.03925
1363.62,0.04393
1340.48,0.04033
1317.33,0.03715
1294.19,0.03482
1271.04,0.03540
1247.9,0.03323
1224.75,0.03306
1201.61,0.03629
1178.46,0.03240
1155.32,0.02924
1132.17,0.02838
1109.03,0.03542
1085.88,0.04240
1062.74,0.04608
1039.59,0.05212
1016.45,0.04993
993.304,0.06141
970.159,0.06867
947.014,0.06766
923.869,0.05341
900.724,0.06477
877.579,0.06067
854.434,0.06348
831.289,0.05717
808.144,0.05388
784.999,0.06388
761.854,0.05366
738.709,0.06846
715.565,0.05616
692.42,0.05200
669.275,0.04974
646.13,0.05455
622.985,0.05851
599.84,0.05912