File: 01_Data/PUF_Mattress_Pad/FTIR/IS/PUF_Mattress_Pad_IS_S_221003_R4.dpt
7497.03,0.67034
7473.89,0.68712
7450.74,0.66745
7427.6,0.67047
7404.45,0.67241
7381.31,0.66274
7358.16,0.66486
7335.02,0.65696
7311.87,0.66408
7288.73,0.65408
7265.58,0.63957
7242.44,0.64616
7219.29,0.65152
7196.15,0.64440
7173,0.64629
7149.86,0.65956
7126.71,0.64220
7103.57,0.65195
7080.42,0.65466
7057.28,0.65341
7034.13,0.66308
7010.99,0.65535
6987.84,0.65394
6964.7,0.65341
6941.55,0.64855
6918.41,0.66012
6895.26,0.65455
6872.12,0.65799
6848.97,0.66128
6825.83,0.65660
6802.68,0.65630
6779.54,0.65391
6756.39,0.64971
6733.25,0.65532
6710.1,0.63580
6686.96,0.62832
6663.82,0.62644
6640.67,0.62962
6617.53,0.62860
6594.38,0.63163
6571.24,0.63305
6548.09,0.63822
6524.95,0.64024
6501.8,0.64628
6478.66,0.65111
6455.51,0.64666
6432.37,0.65345
6409.22,0.64924
6386.08,0.64957
6362.93,0.65223
6339.79,0.65676
6316.64,0.65363
6293.5,0.65380
6270.35,0.65407
6247.21,0.65036
6224.06,0.65467
6200.92,0.65106
6177.77,0.65087
6154.63,0.64750
6131.48,0.64719
6108.34,0.64024
6085.19,0.63322
6062.05,0.63322
6038.9,0.62940
6015.76,0.61674
5992.61,0.60626
5969.47,0.57399
5946.32,0.53458
5923.18,0.53980
5900.03,0.52210
5876.89,0.54193
5853.74,0.54923
5830.6,0.53929
5807.45,0.52669
5784.31,0.51220
5761.16,0.51109
5738.02,0.53022
5714.87,0.54802
5691.73,0.55957
5668.58,0.55960
5645.44,0.56484
5622.29,0.57890
5599.15,0.58341
5576,0.58241
5552.86,0.58364
5529.71,0.58244
5506.57,0.58687
5483.42,0.58726
5460.28,0.59057
5437.13,0.59315
5413.99,0.60342
5390.84,0.61290
5367.7,0.61568
5344.55,0.61628
5321.41,0.61898
5298.26,0.61940
5275.12,0.61512
5251.97,0.60920
5228.83,0.60641
5205.68,0.60506
5182.54,0.60582
5159.39,0.60709
5136.25,0.60610
5113.1,0.60442
5089.96,0.59909
5066.81,0.58970
5043.67,0.58203
5020.52,0.57236
4997.38,0.55942
4974.23,0.54276
4951.09,0.52001
4927.94,0.50054
4904.8,0.48503
4881.65,0.47475
4858.51,0.46276
4835.36,0.46048
4812.22,0.47199
4789.07,0.48737
4765.93,0.50081
4742.78,0.50714
4719.64,0.50494
4696.49,0.49727
4673.35,0.48528
4650.2,0.47272
4627.06,0.46951
4603.92,0.46729
4580.77,0.46920
4557.63,0.46580
4534.48,0.46217
4511.34,0.45975
4488.19,0.45128
4465.05,0.42791
4441.9,0.36852
4418.76,0.29620
4395.61,0.30337
4372.47,0.28318
4349.32,0.24392
4326.18,0.23301
4303.03,0.26705
4279.89,0.28835
4256.74,0.29856
4233.6,0.30845
4210.45,0.32673
4187.31,0.33572
4164.16,0.32476
4141.02,0.31811
4117.87,0.31252
4094.73,0.29787
4071.58,0.27732
4048.44,0.26527
4025.29,0.26111
4002.15,0.26511
3979,0.27801
3955.86,0.29750
3932.71,0.32656
3909.57,0.34765
3886.42,0.35546
3863.28,0.35845
3840.13,0.36436
3816.99,0.37515
3793.84,0.37815
3770.7,0.39254
3747.55,0.41653
3724.41,0.43229
3701.26,0.43883
3678.12,0.42615
3654.97,0.40026
3631.83,0.37073
3608.68,0.34414
3585.54,0.32596
3562.39,0.30783
3539.25,0.28619
3516.1,0.26180
3492.96,0.23996
3469.81,0.20005
3446.67,0.16246
3423.52,0.10856
3400.38,0.08177
3377.23,0.06073
3354.09,0.05262
3330.94,0.04761
3307.8,0.04487
3284.65,0.04463
3261.51,0.04674
3238.36,0.05117
3215.22,0.05811
3192.07,0.06203
3168.93,0.06804
3145.78,0.07351
3122.64,0.07727
3099.49,0.07829
3076.35,0.07424
3053.2,0.07596
3030.06,0.07432
3006.91,0.06679
2983.77,0.04221
2960.62,0.04476
2937.48,0.04167
2914.33,0.04162
2891.19,0.04188
2868.04,0.04218
2844.9,0.05114
2821.75,0.07262
2798.61,0.08008
2775.46,0.08874
2752.32,0.10186
2729.17,0.11447
2706.03,0.13901
2682.88,0.15891
2659.74,0.17133
2636.59,0.18349
2613.45,0.20226
2590.3,0.19932
2567.16,0.23095
2544.02,0.25280
2520.87,0.26505
2497.73,0.26555
2474.58,0.26526
2451.44,0.27210
2428.29,0.28483
2405.15,0.28060
2382,0.26986
2358.86,0.26479
2335.71,0.25202
2312.57,0.21120
2289.42,0.13162
2266.28,0.10964
2243.13,0.18386
2219.99,0.21375
2196.84,0.22833
2173.7,0.23498
2150.55,0.24042
2127.41,0.24671
2104.26,0.24949
2081.12,0.24370
2057.97,0.23615
2034.83,0.22199
2011.68,0.21238
1988.54,0.21583
1965.39,0.21630
1942.25,0.21491
1919.1,0.20910
1895.96,0.21036
1872.81,0.21308
1849.67,0.21001
1826.52,0.19561
1803.38,0.16747
1780.23,0.13285
1757.09,0.08864
1733.94,0.03334
1710.8,0.03666
1687.65,0.03836
1664.51,0.03419
1641.36,0.03088
1618.22,0.03573
1595.07,0.03325
1571.93,0.03214
1548.78,0.03165
1525.64,0.03574
1502.49,0.03809
1479.35,0.03776
1456.2,0.03758
1433.06,0.04483
1409.91,0.04044
1386.77,0.03922
1363.62,0.04378
1340.48,0.04030
1317.33,0.03713
1294.19,0.03490
1271.04,0.03541
1247.9,0.03316
1224.75,0.03271
1201.61,0.03607
1178.46,0.03278
1155.32,0.02943
1132.17,0.02846
1109.03,0.03476
1085.88,0.04168
1062.74,0.04587
1039.59,0.05225
1016.45,0.04953
993.304,0.06104
970.159,0.06852
947.014,0.06765
923.869,0.05267
900.724,0.06450
877.579,0.06083
854.434,0.06366
831.289,0.05734
808.144,0.05362
784.999,0.06316
761.854,0.05469
738.709,0.06898
715.565,0.05620
692.42,0.05149
669.275,0.04945
646.13,0.05614
622.985,0.05795
599.84,0.05883