File: 01_Data/PUF_Mattress_Pad/FTIR/IS/PUF_Mattress_Pad_IS_S_221003_R2.dpt
7497.03,0.68954
7473.89,0.67556
7450.74,0.67161
7427.6,0.67307
7404.45,0.67321
7381.31,0.65834
7358.16,0.65645
7335.02,0.66355
7311.87,0.65612
7288.73,0.64837
7265.58,0.64398
7242.44,0.63977
7219.29,0.64575
7196.15,0.63755
7173,0.64730
7149.86,0.64879
7126.71,0.64907
7103.57,0.65051
7080.42,0.65316
7057.28,0.65148
7034.13,0.65440
7010.99,0.65468
6987.84,0.65087
6964.7,0.65785
6941.55,0.65825
6918.41,0.65592
6895.26,0.65267
6872.12,0.65745
6848.97,0.65378
6825.83,0.65794
6802.68,0.65374
6779.54,0.64963
6756.39,0.64174
6733.25,0.64339
6710.1,0.64003
6686.96,0.62657
6663.82,0.62898
6640.67,0.62513
6617.53,0.62499
6594.38,0.62401
6571.24,0.63233
6548.09,0.63611
6524.95,0.64339
6501.8,0.64546
6478.66,0.64587
6455.51,0.65232
6432.37,0.65094
6409.22,0.65055
6386.08,0.65502
6362.93,0.65560
6339.79,0.65388
6316.64,0.65525
6293.5,0.64949
6270.35,0.65068
6247.21,0.64928
6224.06,0.65432
6200.92,0.65123
6177.77,0.65041
6154.63,0.64886
6131.48,0.64948
6108.34,0.63784
6085.19,0.63264
6062.05,0.63613
6038.9,0.62707
6015.76,0.61314
5992.61,0.59855
5969.47,0.57579
5946.32,0.53452
5923.18,0.54449
5900.03,0.52210
5876.89,0.54462
5853.74,0.54799
5830.6,0.53785
5807.45,0.52639
5784.31,0.51238
5761.16,0.51067
5738.02,0.52719
5714.87,0.54733
5691.73,0.56095
5668.58,0.55715
5645.44,0.56433
5622.29,0.57583
5599.15,0.58050
5576,0.58204
5552.86,0.58202
5529.71,0.58149
5506.57,0.58453
5483.42,0.58894
5460.28,0.58927
5437.13,0.59175
5413.99,0.60210
5390.84,0.61295
5367.7,0.61435
5344.55,0.61475
5321.41,0.61797
5298.26,0.61903
5275.12,0.61158
5251.97,0.60575
5228.83,0.60147
5205.68,0.60011
5182.54,0.60272
5159.39,0.60399
5136.25,0.60139
5113.1,0.60028
5089.96,0.59571
5066.81,0.58819
5043.67,0.58083
5020.52,0.57158
4997.38,0.56044
4974.23,0.54182
4951.09,0.52017
4927.94,0.50146
4904.8,0.48273
4881.65,0.47477
4858.51,0.46176
4835.36,0.45970
4812.22,0.47209
4789.07,0.48736
4765.93,0.49943
4742.78,0.50525
4719.64,0.50356
4696.49,0.49735
4673.35,0.48437
4650.2,0.47248
4627.06,0.46820
4603.92,0.46685
4580.77,0.46717
4557.63,0.46520
4534.48,0.46273
4511.34,0.45918
4488.19,0.45032
4465.05,0.42700
4441.9,0.36775
4418.76,0.29509
4395.61,0.30315
4372.47,0.28297
4349.32,0.24219
4326.18,0.23344
4303.03,0.26652
4279.89,0.28849
4256.74,0.29853
4233.6,0.30753
4210.45,0.32674
4187.31,0.33554
4164.16,0.32524
4141.02,0.31833
4117.87,0.31208
4094.73,0.29748
4071.58,0.27696
4048.44,0.26430
4025.29,0.26069
4002.15,0.26465
3979,0.27731
3955.86,0.29769
3932.71,0.32611
3909.57,0.34616
3886.42,0.35456
3863.28,0.35820
3840.13,0.36342
3816.99,0.37470
3793.84,0.37709
3770.7,0.39169
3747.55,0.41483
3724.41,0.42893
3701.26,0.43206
3678.12,0.41042
3654.97,0.37574
3631.83,0.34006
3608.68,0.30959
3585.54,0.28999
3562.39,0.27364
3539.25,0.25284
3516.1,0.23153
3492.96,0.21648
3469.81,0.18574
3446.67,0.15405
3423.52,0.10633
3400.38,0.08134
3377.23,0.06102
3354.09,0.05323
3330.94,0.04714
3307.8,0.04446
3284.65,0.04460
3261.51,0.04636
3238.36,0.05104
3215.22,0.05745
3192.07,0.06176
3168.93,0.06816
3145.78,0.07318
3122.64,0.07657
3099.49,0.07785
3076.35,0.07443
3053.2,0.07576
3030.06,0.07415
3006.91,0.06643
2983.77,0.04152
2960.62,0.04470
2937.48,0.04105
2914.33,0.04135
2891.19,0.04168
2868.04,0.04253
2844.9,0.05102
2821.75,0.07224
2798.61,0.07982
2775.46,0.08881
2752.32,0.10148
2729.17,0.11379
2706.03,0.13859
2682.88,0.15881
2659.74,0.17129
2636.59,0.18339
2613.45,0.20179
2590.3,0.19900
2567.16,0.23081
2544.02,0.25269
2520.87,0.26425
2497.73,0.26489
2474.58,0.26494
2451.44,0.27228
2428.29,0.28400
2405.15,0.28019
2382,0.26960
2358.86,0.26439
2335.71,0.25175
2312.57,0.21060
2289.42,0.13173
2266.28,0.10900
2243.13,0.18388
2219.99,0.21363
2196.84,0.22752
2173.7,0.23418
2150.55,0.23936
2127.41,0.24584
2104.26,0.24821
2081.12,0.24216
2057.97,0.23504
2034.83,0.22098
2011.68,0.21148
1988.54,0.21525
1965.39,0.21556
1942.25,0.21411
1919.1,0.20861
1895.96,0.20984
1872.81,0.21257
1849.67,0.20958
1826.52,0.19529
1803.38,0.16750
1780.23,0.13317
1757.09,0.08873
1733.94,0.03377
1710.8,0.03672
1687.65,0.03816
1664.51,0.03434
1641.36,0.03046
1618.22,0.03538
1595.07,0.03317
1571.93,0.03194
1548.78,0.03181
1525.64,0.03613
1502.49,0.03828
1479.35,0.03793
1456.2,0.03726
1433.06,0.04495
1409.91,0.04034
1386.77,0.03951
1363.62,0.04374
1340.48,0.04016
1317.33,0.03695
1294.19,0.03482
1271.04,0.03501
1247.9,0.03286
1224.75,0.03269
1201.61,0.03571
1178.46,0.03259
1155.32,0.02885
1132.17,0.02822
1109.03,0.03443
1085.88,0.04175
1062.74,0.04632
1039.59,0.05155
1016.45,0.04987
993.304,0.06117
970.159,0.06835
947.014,0.06690
923.869,0.05245
900.724,0.06415
877.579,0.06130
854.434,0.06290
831.289,0.05610
808.144,0.05426
784.999,0.06253
761.854,0.05323
738.709,0.06851
715.565,0.05613
692.42,0.05123
669.275,0.04861
646.13,0.05422
622.985,0.05851
599.84,0.05876