File: 01_Data/PUF_Mattress_Pad/FTIR/IS/PUF_Mattress_Pad_IS_S_221003_R8.dpt
7497.03,0.67172
7473.89,0.67355
7450.74,0.67270
7427.6,0.66618
7404.45,0.66954
7381.31,0.66125
7358.16,0.66096
7335.02,0.65777
7311.87,0.65920
7288.73,0.65069
7265.58,0.65321
7242.44,0.65095
7219.29,0.64250
7196.15,0.64226
7173,0.64655
7149.86,0.64791
7126.71,0.65153
7103.57,0.65440
7080.42,0.64995
7057.28,0.65025
7034.13,0.65272
7010.99,0.65405
6987.84,0.65370
6964.7,0.64799
6941.55,0.64997
6918.41,0.65316
6895.26,0.65511
6872.12,0.66051
6848.97,0.66043
6825.83,0.65855
6802.68,0.65486
6779.54,0.65108
6756.39,0.64905
6733.25,0.63847
6710.1,0.63658
6686.96,0.62619
6663.82,0.63195
6640.67,0.62674
6617.53,0.62369
6594.38,0.62382
6571.24,0.62868
6548.09,0.63648
6524.95,0.63917
6501.8,0.64379
6478.66,0.64851
6455.51,0.64636
6432.37,0.65181
6409.22,0.65185
6386.08,0.65333
6362.93,0.65159
6339.79,0.64997
6316.64,0.65256
6293.5,0.65315
6270.35,0.65396
6247.21,0.64874
6224.06,0.65382
6200.92,0.64652
6177.77,0.64848
6154.63,0.64635
6131.48,0.64282
6108.34,0.63704
6085.19,0.63219
6062.05,0.63082
6038.9,0.62480
6015.76,0.61860
5992.61,0.60169
5969.47,0.57518
5946.32,0.53210
5923.18,0.54222
5900.03,0.52228
5876.89,0.54198
5853.74,0.54718
5830.6,0.53720
5807.45,0.52361
5784.31,0.50982
5761.16,0.50976
5738.02,0.52636
5714.87,0.54618
5691.73,0.56002
5668.58,0.55856
5645.44,0.56233
5622.29,0.57357
5599.15,0.58131
5576,0.58004
5552.86,0.58054
5529.71,0.58161
5506.57,0.58287
5483.42,0.58674
5460.28,0.58805
5437.13,0.59126
5413.99,0.60098
5390.84,0.61005
5367.7,0.61525
5344.55,0.61468
5321.41,0.61615
5298.26,0.61721
5275.12,0.61506
5251.97,0.61093
5228.83,0.60687
5205.68,0.60484
5182.54,0.60578
5159.39,0.60863
5136.25,0.60515
5113.1,0.60390
5089.96,0.59801
5066.81,0.58822
5043.67,0.57937
5020.52,0.57120
4997.38,0.55990
4974.23,0.54129
4951.09,0.51758
4927.94,0.50105
4904.8,0.48408
4881.65,0.47266
4858.51,0.46171
4835.36,0.46036
4812.22,0.47138
4789.07,0.48720
4765.93,0.49948
4742.78,0.50514
4719.64,0.50375
4696.49,0.49681
4673.35,0.48268
4650.2,0.47132
4627.06,0.46918
4603.92,0.46625
4580.77,0.46790
4557.63,0.46458
4534.48,0.46253
4511.34,0.45897
4488.19,0.45022
4465.05,0.42714
4441.9,0.36754
4418.76,0.29584
4395.61,0.30309
4372.47,0.28227
4349.32,0.24310
4326.18,0.23284
4303.03,0.26652
4279.89,0.28760
4256.74,0.29779
4233.6,0.30829
4210.45,0.32754
4187.31,0.33624
4164.16,0.32483
4141.02,0.31771
4117.87,0.31233
4094.73,0.29789
4071.58,0.27710
4048.44,0.26469
4025.29,0.26142
4002.15,0.26564
3979,0.27728
3955.86,0.29811
3932.71,0.32725
3909.57,0.34708
3886.42,0.35530
3863.28,0.35846
3840.13,0.36447
3816.99,0.37584
3793.84,0.37867
3770.7,0.39276
3747.55,0.41726
3724.41,0.43268
3701.26,0.44032
3678.12,0.43325
3654.97,0.41295
3631.83,0.38719
3608.68,0.36365
3585.54,0.34639
3562.39,0.32696
3539.25,0.30501
3516.1,0.27963
3492.96,0.25360
3469.81,0.20879
3446.67,0.16627
3423.52,0.10944
3400.38,0.08205
3377.23,0.06171
3354.09,0.05323
3330.94,0.04828
3307.8,0.04469
3284.65,0.04558
3261.51,0.04659
3238.36,0.05152
3215.22,0.05836
3192.07,0.06238
3168.93,0.06835
3145.78,0.07444
3122.64,0.07759
3099.49,0.07857
3076.35,0.07455
3053.2,0.07632
3030.06,0.07424
3006.91,0.06670
2983.77,0.04162
2960.62,0.04523
2937.48,0.04149
2914.33,0.04190
2891.19,0.04174
2868.04,0.04220
2844.9,0.05103
2821.75,0.07239
2798.61,0.07992
2775.46,0.08830
2752.32,0.10178
2729.17,0.11409
2706.03,0.13880
2682.88,0.15944
2659.74,0.17160
2636.59,0.18351
2613.45,0.20221
2590.3,0.19911
2567.16,0.23083
2544.02,0.25284
2520.87,0.26446
2497.73,0.26576
2474.58,0.26507
2451.44,0.27283
2428.29,0.28453
2405.15,0.27999
2382,0.27006
2358.86,0.26475
2335.71,0.25222
2312.57,0.21127
2289.42,0.13193
2266.28,0.10935
2243.13,0.18384
2219.99,0.21349
2196.84,0.22816
2173.7,0.23528
2150.55,0.24032
2127.41,0.24675
2104.26,0.24951
2081.12,0.24333
2057.97,0.23640
2034.83,0.22200
2011.68,0.21231
1988.54,0.21592
1965.39,0.21632
1942.25,0.21476
1919.1,0.20923
1895.96,0.21060
1872.81,0.21295
1849.67,0.21013
1826.52,0.19575
1803.38,0.16739
1780.23,0.13313
1757.09,0.08857
1733.94,0.03388
1710.8,0.03679
1687.65,0.03859
1664.51,0.03466
1641.36,0.03069
1618.22,0.03540
1595.07,0.03345
1571.93,0.03232
1548.78,0.03165
1525.64,0.03616
1502.49,0.03854
1479.35,0.03817
1456.2,0.03785
1433.06,0.04486
1409.91,0.04043
1386.77,0.03918
1363.62,0.04413
1340.48,0.04047
1317.33,0.03704
1294.19,0.03493
1271.04,0.03518
1247.9,0.03328
1224.75,0.03286
1201.61,0.03578
1178.46,0.03286
1155.32,0.02908
1132.17,0.02895
1109.03,0.03473
1085.88,0.04176
1062.74,0.04661
1039.59,0.05248
1016.45,0.05034
993.304,0.06129
970.159,0.06897
947.014,0.06775
923.869,0.05352
900.724,0.06465
877.579,0.06090
854.434,0.06330
831.289,0.05752
808.144,0.05469
784.999,0.06396
761.854,0.05499
738.709,0.06936
715.565,0.05655
692.42,0.05195
669.275,0.04992
646.13,0.05587
622.985,0.06072
599.84,0.06017