File: 01_Data/PUF_Mattress_Pad/FTIR/IS/PUF_Mattress_Pad_IS_S_221003_R3.dpt
7497.03,0.67949
7473.89,0.67131
7450.74,0.67507
7427.6,0.66548
7404.45,0.66296
7381.31,0.66198
7358.16,0.66091
7335.02,0.66591
7311.87,0.66144
7288.73,0.65291
7265.58,0.64797
7242.44,0.65045
7219.29,0.65011
7196.15,0.64717
7173,0.64793
7149.86,0.64230
7126.71,0.64537
7103.57,0.64919
7080.42,0.65428
7057.28,0.65295
7034.13,0.65495
7010.99,0.65478
6987.84,0.64827
6964.7,0.65051
6941.55,0.65562
6918.41,0.65436
6895.26,0.65654
6872.12,0.65934
6848.97,0.65837
6825.83,0.65440
6802.68,0.65951
6779.54,0.65553
6756.39,0.64277
6733.25,0.64554
6710.1,0.63403
6686.96,0.62959
6663.82,0.62570
6640.67,0.62687
6617.53,0.62726
6594.38,0.62579
6571.24,0.63011
6548.09,0.63134
6524.95,0.63869
6501.8,0.64515
6478.66,0.64847
6455.51,0.64701
6432.37,0.64875
6409.22,0.65013
6386.08,0.65037
6362.93,0.65252
6339.79,0.65429
6316.64,0.65541
6293.5,0.65233
6270.35,0.65281
6247.21,0.65055
6224.06,0.64848
6200.92,0.64972
6177.77,0.64869
6154.63,0.65104
6131.48,0.64179
6108.34,0.63679
6085.19,0.63185
6062.05,0.63111
6038.9,0.62635
6015.76,0.61889
5992.61,0.59997
5969.47,0.57469
5946.32,0.53512
5923.18,0.53922
5900.03,0.52213
5876.89,0.54300
5853.74,0.54572
5830.6,0.53756
5807.45,0.52573
5784.31,0.51072
5761.16,0.50969
5738.02,0.52845
5714.87,0.54950
5691.73,0.55907
5668.58,0.55968
5645.44,0.56345
5622.29,0.57402
5599.15,0.58155
5576,0.58162
5552.86,0.58042
5529.71,0.58066
5506.57,0.58508
5483.42,0.58849
5460.28,0.58825
5437.13,0.59146
5413.99,0.60088
5390.84,0.61170
5367.7,0.61740
5344.55,0.61746
5321.41,0.61925
5298.26,0.61849
5275.12,0.61390
5251.97,0.60832
5228.83,0.60367
5205.68,0.60147
5182.54,0.60526
5159.39,0.60584
5136.25,0.60518
5113.1,0.60333
5089.96,0.59696
5066.81,0.58899
5043.67,0.57980
5020.52,0.57112
4997.38,0.55943
4974.23,0.54216
4951.09,0.51841
4927.94,0.50139
4904.8,0.48515
4881.65,0.47461
4858.51,0.46138
4835.36,0.46014
4812.22,0.47035
4789.07,0.48650
4765.93,0.49991
4742.78,0.50566
4719.64,0.50353
4696.49,0.49668
4673.35,0.48267
4650.2,0.47304
4627.06,0.46806
4603.92,0.46712
4580.77,0.46843
4557.63,0.46504
4534.48,0.46197
4511.34,0.45857
4488.19,0.45065
4465.05,0.42808
4441.9,0.36801
4418.76,0.29599
4395.61,0.30311
4372.47,0.28294
4349.32,0.24188
4326.18,0.23327
4303.03,0.26679
4279.89,0.28735
4256.74,0.29762
4233.6,0.30809
4210.45,0.32672
4187.31,0.33604
4164.16,0.32506
4141.02,0.31738
4117.87,0.31211
4094.73,0.29731
4071.58,0.27731
4048.44,0.26405
4025.29,0.26198
4002.15,0.26466
3979,0.27704
3955.86,0.29744
3932.71,0.32638
3909.57,0.34707
3886.42,0.35422
3863.28,0.35821
3840.13,0.36360
3816.99,0.37464
3793.84,0.37784
3770.7,0.39204
3747.55,0.41600
3724.41,0.43044
3701.26,0.43701
3678.12,0.42263
3654.97,0.39315
3631.83,0.36263
3608.68,0.33475
3585.54,0.31610
3562.39,0.29755
3539.25,0.27699
3516.1,0.25299
3492.96,0.23359
3469.81,0.19623
3446.67,0.16053
3423.52,0.10777
3400.38,0.08151
3377.23,0.06074
3354.09,0.05219
3330.94,0.04779
3307.8,0.04470
3284.65,0.04414
3261.51,0.04718
3238.36,0.05166
3215.22,0.05672
3192.07,0.06276
3168.93,0.06805
3145.78,0.07381
3122.64,0.07657
3099.49,0.07765
3076.35,0.07446
3053.2,0.07615
3030.06,0.07387
3006.91,0.06677
2983.77,0.04142
2960.62,0.04451
2937.48,0.04106
2914.33,0.04178
2891.19,0.04199
2868.04,0.04262
2844.9,0.05107
2821.75,0.07240
2798.61,0.07963
2775.46,0.08838
2752.32,0.10171
2729.17,0.11341
2706.03,0.13864
2682.88,0.15899
2659.74,0.17109
2636.59,0.18329
2613.45,0.20149
2590.3,0.19917
2567.16,0.23026
2544.02,0.25268
2520.87,0.26416
2497.73,0.26493
2474.58,0.26485
2451.44,0.27230
2428.29,0.28456
2405.15,0.28015
2382,0.26960
2358.86,0.26427
2335.71,0.25194
2312.57,0.21075
2289.42,0.13199
2266.28,0.10923
2243.13,0.18342
2219.99,0.21333
2196.84,0.22775
2173.7,0.23434
2150.55,0.23993
2127.41,0.24621
2104.26,0.24856
2081.12,0.24273
2057.97,0.23566
2034.83,0.22173
2011.68,0.21218
1988.54,0.21582
1965.39,0.21614
1942.25,0.21435
1919.1,0.20904
1895.96,0.21009
1872.81,0.21241
1849.67,0.20984
1826.52,0.19546
1803.38,0.16728
1780.23,0.13273
1757.09,0.08861
1733.94,0.03337
1710.8,0.03658
1687.65,0.03835
1664.51,0.03435
1641.36,0.03065
1618.22,0.03581
1595.07,0.03335
1571.93,0.03214
1548.78,0.03171
1525.64,0.03620
1502.49,0.03815
1479.35,0.03794
1456.2,0.03765
1433.06,0.04499
1409.91,0.04030
1386.77,0.03913
1363.62,0.04370
1340.48,0.04014
1317.33,0.03748
1294.19,0.03513
1271.04,0.03505
1247.9,0.03311
1224.75,0.03337
1201.61,0.03617
1178.46,0.03247
1155.32,0.02933
1132.17,0.02900
1109.03,0.03489
1085.88,0.04220
1062.74,0.04583
1039.59,0.05170
1016.45,0.04923
993.304,0.06102
970.159,0.06826
947.014,0.06706
923.869,0.05245
900.724,0.06394
877.579,0.06095
854.434,0.06305
831.289,0.05708
808.144,0.05423
784.999,0.06337
761.854,0.05409
738.709,0.06850
715.565,0.05585
692.42,0.05255
669.275,0.04823
646.13,0.05533
622.985,0.05876
599.84,0.05898