File: 01_Data/PUF_Mattress_Pad/FTIR/IS/PUF_Mattress_Pad_IS_S_221003_R1.dpt
7497.03,0.66888
7473.89,0.68608
7450.74,0.66856
7427.6,0.67497
7404.45,0.66038
7381.31,0.65183
7358.16,0.65262
7335.02,0.66136
7311.87,0.65425
7288.73,0.65958
7265.58,0.64594
7242.44,0.64320
7219.29,0.63781
7196.15,0.63089
7173,0.64843
7149.86,0.64402
7126.71,0.65151
7103.57,0.65532
7080.42,0.65012
7057.28,0.64860
7034.13,0.65811
7010.99,0.64872
6987.84,0.65083
6964.7,0.65033
6941.55,0.65281
6918.41,0.65694
6895.26,0.65281
6872.12,0.65252
6848.97,0.65528
6825.83,0.65298
6802.68,0.65205
6779.54,0.65323
6756.39,0.64850
6733.25,0.64570
6710.1,0.63362
6686.96,0.62410
6663.82,0.62354
6640.67,0.62262
6617.53,0.62539
6594.38,0.62576
6571.24,0.62808
6548.09,0.63483
6524.95,0.64047
6501.8,0.64413
6478.66,0.64405
6455.51,0.64992
6432.37,0.64519
6409.22,0.64556
6386.08,0.65064
6362.93,0.65134
6339.79,0.65446
6316.64,0.64687
6293.5,0.65115
6270.35,0.64927
6247.21,0.64688
6224.06,0.65105
6200.92,0.65315
6177.77,0.64868
6154.63,0.64437
6131.48,0.64492
6108.34,0.63748
6085.19,0.63191
6062.05,0.62949
6038.9,0.62110
6015.76,0.61556
5992.61,0.60101
5969.47,0.57409
5946.32,0.53351
5923.18,0.53975
5900.03,0.51767
5876.89,0.53878
5853.74,0.54616
5830.6,0.53651
5807.45,0.52213
5784.31,0.50821
5761.16,0.51003
5738.02,0.52758
5714.87,0.54555
5691.73,0.55918
5668.58,0.55841
5645.44,0.55949
5622.29,0.57284
5599.15,0.57778
5576,0.57903
5552.86,0.58079
5529.71,0.57924
5506.57,0.58224
5483.42,0.58715
5460.28,0.58642
5437.13,0.58957
5413.99,0.60006
5390.84,0.61052
5367.7,0.61327
5344.55,0.61516
5321.41,0.61556
5298.26,0.61422
5275.12,0.60725
5251.97,0.59941
5228.83,0.59384
5205.68,0.59371
5182.54,0.59661
5159.39,0.59732
5136.25,0.59716
5113.1,0.59649
5089.96,0.59090
5066.81,0.58573
5043.67,0.57632
5020.52,0.56756
4997.38,0.55653
4974.23,0.53965
4951.09,0.51779
4927.94,0.49831
4904.8,0.48188
4881.65,0.47202
4858.51,0.45981
4835.36,0.45776
4812.22,0.46897
4789.07,0.48340
4765.93,0.49759
4742.78,0.50283
4719.64,0.50177
4696.49,0.49423
4673.35,0.48098
4650.2,0.47106
4627.06,0.46608
4603.92,0.46444
4580.77,0.46517
4557.63,0.46259
4534.48,0.45932
4511.34,0.45695
4488.19,0.44738
4465.05,0.42610
4441.9,0.36587
4418.76,0.29491
4395.61,0.30102
4372.47,0.28141
4349.32,0.24145
4326.18,0.23115
4303.03,0.26527
4279.89,0.28620
4256.74,0.29704
4233.6,0.30684
4210.45,0.32482
4187.31,0.33392
4164.16,0.32254
4141.02,0.31658
4117.87,0.31042
4094.73,0.29565
4071.58,0.27473
4048.44,0.26268
4025.29,0.25944
4002.15,0.26301
3979,0.27510
3955.86,0.29530
3932.71,0.32364
3909.57,0.34452
3886.42,0.35322
3863.28,0.35650
3840.13,0.36264
3816.99,0.37282
3793.84,0.37442
3770.7,0.38894
3747.55,0.41271
3724.41,0.42576
3701.26,0.42599
3678.12,0.39565
3654.97,0.35333
3631.83,0.31523
3608.68,0.28174
3585.54,0.26099
3562.39,0.24599
3539.25,0.22736
3516.1,0.20788
3492.96,0.19594
3469.81,0.17254
3446.67,0.14686
3423.52,0.10360
3400.38,0.08032
3377.23,0.06027
3354.09,0.05228
3330.94,0.04776
3307.8,0.04519
3284.65,0.04425
3261.51,0.04592
3238.36,0.05123
3215.22,0.05707
3192.07,0.06145
3168.93,0.06782
3145.78,0.07224
3122.64,0.07555
3099.49,0.07683
3076.35,0.07359
3053.2,0.07513
3030.06,0.07367
3006.91,0.06597
2983.77,0.04132
2960.62,0.04477
2937.48,0.04039
2914.33,0.04222
2891.19,0.04205
2868.04,0.04201
2844.9,0.05052
2821.75,0.07215
2798.61,0.07951
2775.46,0.08794
2752.32,0.10094
2729.17,0.11346
2706.03,0.13797
2682.88,0.15798
2659.74,0.17042
2636.59,0.18195
2613.45,0.20088
2590.3,0.19771
2567.16,0.22891
2544.02,0.25134
2520.87,0.26290
2497.73,0.26380
2474.58,0.26328
2451.44,0.27019
2428.29,0.28262
2405.15,0.27848
2382,0.26816
2358.86,0.26492
2335.71,0.25181
2312.57,0.21001
2289.42,0.13084
2266.28,0.10885
2243.13,0.18282
2219.99,0.21174
2196.84,0.22634
2173.7,0.23208
2150.55,0.23724
2127.41,0.24367
2104.26,0.24623
2081.12,0.24006
2057.97,0.23329
2034.83,0.21904
2011.68,0.20976
1988.54,0.21370
1965.39,0.21402
1942.25,0.21289
1919.1,0.20728
1895.96,0.20816
1872.81,0.21118
1849.67,0.20820
1826.52,0.19436
1803.38,0.16639
1780.23,0.13234
1757.09,0.08829
1733.94,0.03374
1710.8,0.03664
1687.65,0.03836
1664.51,0.03417
1641.36,0.03030
1618.22,0.03519
1595.07,0.03303
1571.93,0.03221
1548.78,0.03195
1525.64,0.03605
1502.49,0.03811
1479.35,0.03759
1456.2,0.03748
1433.06,0.04502
1409.91,0.04022
1386.77,0.03899
1363.62,0.04400
1340.48,0.03999
1317.33,0.03684
1294.19,0.03475
1271.04,0.03474
1247.9,0.03348
1224.75,0.03266
1201.61,0.03580
1178.46,0.03226
1155.32,0.02881
1132.17,0.02947
1109.03,0.03506
1085.88,0.04130
1062.74,0.04598
1039.59,0.05160
1016.45,0.04900
993.304,0.06053
970.159,0.06804
947.014,0.06707
923.869,0.05274
900.724,0.06350
877.579,0.06110
854.434,0.06264
831.289,0.05698
808.144,0.05351
784.999,0.06261
761.854,0.05365
738.709,0.06840
715.565,0.05460
692.42,0.05125
669.275,0.04831
646.13,0.05360
622.985,0.05893
599.84,0.05778