File: 01_Data/PUF_Mattress_Pad/FTIR/IS/PUF_Mattress_Pad_IS_S_221003_R5.dpt
7497.03,0.67420
7473.89,0.66840
7450.74,0.67096
7427.6,0.66728
7404.45,0.66326
7381.31,0.66335
7358.16,0.66748
7335.02,0.65745
7311.87,0.66537
7288.73,0.65961
7265.58,0.64956
7242.44,0.64958
7219.29,0.64821
7196.15,0.64599
7173,0.64159
7149.86,0.64610
7126.71,0.64680
7103.57,0.64991
7080.42,0.65394
7057.28,0.65282
7034.13,0.65731
7010.99,0.65729
6987.84,0.65771
6964.7,0.65195
6941.55,0.65655
6918.41,0.65848
6895.26,0.65873
6872.12,0.65251
6848.97,0.65381
6825.83,0.65530
6802.68,0.66245
6779.54,0.65412
6756.39,0.65048
6733.25,0.64465
6710.1,0.64131
6686.96,0.62892
6663.82,0.62693
6640.67,0.62558
6617.53,0.62851
6594.38,0.62641
6571.24,0.63105
6548.09,0.63843
6524.95,0.64065
6501.8,0.64467
6478.66,0.64755
6455.51,0.64959
6432.37,0.65211
6409.22,0.65375
6386.08,0.65445
6362.93,0.65546
6339.79,0.65354
6316.64,0.65076
6293.5,0.65433
6270.35,0.65557
6247.21,0.64859
6224.06,0.65404
6200.92,0.65285
6177.77,0.64886
6154.63,0.64534
6131.48,0.64560
6108.34,0.63783
6085.19,0.63607
6062.05,0.63381
6038.9,0.62660
6015.76,0.61687
5992.61,0.60106
5969.47,0.57395
5946.32,0.53427
5923.18,0.54013
5900.03,0.52339
5876.89,0.54411
5853.74,0.54636
5830.6,0.53664
5807.45,0.52445
5784.31,0.50986
5761.16,0.51232
5738.02,0.52849
5714.87,0.54997
5691.73,0.55999
5668.58,0.55953
5645.44,0.56511
5622.29,0.57637
5599.15,0.58235
5576,0.58107
5552.86,0.58220
5529.71,0.58231
5506.57,0.58546
5483.42,0.58689
5460.28,0.59044
5437.13,0.59358
5413.99,0.60244
5390.84,0.61182
5367.7,0.61648
5344.55,0.61652
5321.41,0.62025
5298.26,0.61844
5275.12,0.61490
5251.97,0.61112
5228.83,0.60848
5205.68,0.60593
5182.54,0.60629
5159.39,0.60812
5136.25,0.60651
5113.1,0.60461
5089.96,0.59849
5066.81,0.59031
5043.67,0.58183
5020.52,0.57095
4997.38,0.56085
4974.23,0.54380
4951.09,0.52159
4927.94,0.50179
4904.8,0.48549
4881.65,0.47493
4858.51,0.46337
4835.36,0.46162
4812.22,0.47313
4789.07,0.48851
4765.93,0.50052
4742.78,0.50581
4719.64,0.50459
4696.49,0.49729
4673.35,0.48436
4650.2,0.47277
4627.06,0.46911
4603.92,0.46826
4580.77,0.46959
4557.63,0.46549
4534.48,0.46194
4511.34,0.45921
4488.19,0.45111
4465.05,0.42922
4441.9,0.36903
4418.76,0.29660
4395.61,0.30335
4372.47,0.28417
4349.32,0.24240
4326.18,0.23282
4303.03,0.26784
4279.89,0.28856
4256.74,0.29859
4233.6,0.30889
4210.45,0.32781
4187.31,0.33695
4164.16,0.32569
4141.02,0.31841
4117.87,0.31265
4094.73,0.29751
4071.58,0.27790
4048.44,0.26552
4025.29,0.26196
4002.15,0.26509
3979,0.27841
3955.86,0.29847
3932.71,0.32699
3909.57,0.34800
3886.42,0.35590
3863.28,0.36008
3840.13,0.36532
3816.99,0.37623
3793.84,0.37883
3770.7,0.39397
3747.55,0.41843
3724.41,0.43310
3701.26,0.44058
3678.12,0.43029
3654.97,0.40646
3631.83,0.37896
3608.68,0.35393
3585.54,0.33562
3562.39,0.31695
3539.25,0.29437
3516.1,0.26951
3492.96,0.24629
3469.81,0.20495
3446.67,0.16451
3423.52,0.10905
3400.38,0.08251
3377.23,0.06118
3354.09,0.05333
3330.94,0.04782
3307.8,0.04497
3284.65,0.04489
3261.51,0.04682
3238.36,0.05129
3215.22,0.05748
3192.07,0.06208
3168.93,0.06846
3145.78,0.07395
3122.64,0.07753
3099.49,0.07848
3076.35,0.07466
3053.2,0.07597
3030.06,0.07488
3006.91,0.06635
2983.77,0.04140
2960.62,0.04498
2937.48,0.04155
2914.33,0.04245
2891.19,0.04202
2868.04,0.04257
2844.9,0.05125
2821.75,0.07263
2798.61,0.08018
2775.46,0.08864
2752.32,0.10154
2729.17,0.11468
2706.03,0.13896
2682.88,0.15916
2659.74,0.17171
2636.59,0.18363
2613.45,0.20208
2590.3,0.19974
2567.16,0.23108
2544.02,0.25353
2520.87,0.26497
2497.73,0.26630
2474.58,0.26548
2451.44,0.27318
2428.29,0.28532
2405.15,0.28065
2382,0.27062
2358.86,0.26564
2335.71,0.25241
2312.57,0.21127
2289.42,0.13202
2266.28,0.10934
2243.13,0.18393
2219.99,0.21398
2196.84,0.22821
2173.7,0.23499
2150.55,0.24102
2127.41,0.24718
2104.26,0.24970
2081.12,0.24352
2057.97,0.23678
2034.83,0.22236
2011.68,0.21252
1988.54,0.21621
1965.39,0.21668
1942.25,0.21502
1919.1,0.20919
1895.96,0.21094
1872.81,0.21357
1849.67,0.21034
1826.52,0.19582
1803.38,0.16801
1780.23,0.13324
1757.09,0.08868
1733.94,0.03335
1710.8,0.03676
1687.65,0.03870
1664.51,0.03458
1641.36,0.03073
1618.22,0.03531
1595.07,0.03337
1571.93,0.03215
1548.78,0.03154
1525.64,0.03582
1502.49,0.03818
1479.35,0.03773
1456.2,0.03771
1433.06,0.04503
1409.91,0.04073
1386.77,0.03940
1363.62,0.04347
1340.48,0.04060
1317.33,0.03707
1294.19,0.03461
1271.04,0.03482
1247.9,0.03325
1224.75,0.03292
1201.61,0.03623
1178.46,0.03250
1155.32,0.02842
1132.17,0.02809
1109.03,0.03523
1085.88,0.04185
1062.74,0.04561
1039.59,0.05216
1016.45,0.04953
993.304,0.06169
970.159,0.06868
947.014,0.06726
923.869,0.05236
900.724,0.06427
877.579,0.06086
854.434,0.06369
831.289,0.05700
808.144,0.05355
784.999,0.06363
761.854,0.05456
738.709,0.06981
715.565,0.05563
692.42,0.05148
669.275,0.04934
646.13,0.05557
622.985,0.05886
599.84,0.05744