File: 01_Data/PUF_Mattress_Pad/FTIR/IS/PUF_Mattress_Pad_IS_T_221003_R5.dpt
7497.03,0.03643
7473.89,0.02988
7450.74,0.02386
7427.6,0.02254
7404.45,0.02278
7381.31,0.02090
7358.16,0.02504
7335.02,0.01850
7311.87,0.02333
7288.73,0.02138
7265.58,0.02577
7242.44,0.02475
7219.29,0.03036
7196.15,0.02207
7173,0.03137
7149.86,0.02290
7126.71,0.01957
7103.57,0.02700
7080.42,0.01943
7057.28,0.02436
7034.13,0.02263
7010.99,0.02956
6987.84,0.02656
6964.7,0.02919
6941.55,0.02458
6918.41,0.02364
6895.26,0.02535
6872.12,0.02702
6848.97,0.02301
6825.83,0.02568
6802.68,0.01902
6779.54,0.02834
6756.39,0.01774
6733.25,0.02348
6710.1,0.02300
6686.96,0.02185
6663.82,0.02324
6640.67,0.02444
6617.53,0.02157
6594.38,0.02007
6571.24,0.02180
6548.09,0.02463
6524.95,0.02330
6501.8,0.02331
6478.66,0.02172
6455.51,0.02652
6432.37,0.02258
6409.22,0.01827
6386.08,0.02425
6362.93,0.02202
6339.79,0.02378
6316.64,0.02110
6293.5,0.02436
6270.35,0.02488
6247.21,0.02327
6224.06,0.02176
6200.92,0.02412
6177.77,0.02511
6154.63,0.02126
6131.48,0.02208
6108.34,0.02046
6085.19,0.02245
6062.05,0.02400
6038.9,0.02330
6015.76,0.02207
5992.61,0.02342
5969.47,0.02255
5946.32,0.01960
5923.18,0.02341
5900.03,0.01992
5876.89,0.02303
5853.74,0.02311
5830.6,0.02170
5807.45,0.02040
5784.31,0.02278
5761.16,0.02361
5738.02,0.02330
5714.87,0.01985
5691.73,0.02142
5668.58,0.02340
5645.44,0.02401
5622.29,0.02237
5599.15,0.02191
5576,0.02259
5552.86,0.02175
5529.71,0.02182
5506.57,0.02255
5483.42,0.02183
5460.28,0.02321
5437.13,0.02232
5413.99,0.02293
5390.84,0.02143
5367.7,0.02117
5344.55,0.02161
5321.41,0.02172
5298.26,0.02242
5275.12,0.02359
5251.97,0.02240
5228.83,0.02285
5205.68,0.02165
5182.54,0.02089
5159.39,0.02201
5136.25,0.02129
5113.1,0.02209
5089.96,0.02248
5066.81,0.02014
5043.67,0.02224
5020.52,0.02154
4997.38,0.02305
4974.23,0.02091
4951.09,0.02241
4927.94,0.02258
4904.8,0.02164
4881.65,0.02133
4858.51,0.02309
4835.36,0.02155
4812.22,0.02202
4789.07,0.02253
4765.93,0.02264
4742.78,0.02218
4719.64,0.02213
4696.49,0.02128
4673.35,0.02294
4650.2,0.02233
4627.06,0.02292
4603.92,0.02234
4580.77,0.02226
4557.63,0.02192
4534.48,0.02257
4511.34,0.02227
4488.19,0.02225
4465.05,0.02243
4441.9,0.02173
4418.76,0.02261
4395.61,0.02205
4372.47,0.02175
4349.32,0.02129
4326.18,0.02203
4303.03,0.02186
4279.89,0.02274
4256.74,0.02266
4233.6,0.02251
4210.45,0.02189
4187.31,0.02210
4164.16,0.02231
4141.02,0.02291
4117.87,0.02213
4094.73,0.02231
4071.58,0.02279
4048.44,0.02239
4025.29,0.02308
4002.15,0.02237
3979,0.02255
3955.86,0.02250
3932.71,0.02214
3909.57,0.02245
3886.42,0.02234
3863.28,0.02239
3840.13,0.02288
3816.99,0.02214
3793.84,0.02225
3770.7,0.02296
3747.55,0.02292
3724.41,0.02211
3701.26,0.02165
3678.12,0.02234
3654.97,0.02246
3631.83,0.02147
3608.68,0.02224
3585.54,0.02062
3562.39,0.02064
3539.25,0.02124
3516.1,0.02065
3492.96,0.02029
3469.81,0.02088
3446.67,0.02012
3423.52,0.02005
3400.38,0.02044
3377.23,0.01969
3354.09,0.02031
3330.94,0.01960
3307.8,0.02011
3284.65,0.01940
3261.51,0.02038
3238.36,0.02038
3215.22,0.02020
3192.07,0.02056
3168.93,0.02035
3145.78,0.01996
3122.64,0.02038
3099.49,0.02092
3076.35,0.01999
3053.2,0.01985
3030.06,0.02040
3006.91,0.02053
2983.77,0.02017
2960.62,0.01922
2937.48,0.01921
2914.33,0.02057
2891.19,0.02027
2868.04,0.02021
2844.9,0.02121
2821.75,0.02083
2798.61,0.02058
2775.46,0.02121
2752.32,0.02150
2729.17,0.02091
2706.03,0.02095
2682.88,0.02081
2659.74,0.02084
2636.59,0.02081
2613.45,0.02074
2590.3,0.02113
2567.16,0.02102
2544.02,0.02096
2520.87,0.02100
2497.73,0.02113
2474.58,0.02134
2451.44,0.02119
2428.29,0.02080
2405.15,0.02074
2382,0.02083
2358.86,0.02077
2335.71,0.02115
2312.57,0.02076
2289.42,0.02103
2266.28,0.02088
2243.13,0.02066
2219.99,0.02060
2196.84,0.02081
2173.7,0.02038
2150.55,0.02054
2127.41,0.02033
2104.26,0.02043
2081.12,0.02070
2057.97,0.02064
2034.83,0.02065
2011.68,0.02062
1988.54,0.02022
1965.39,0.02070
1942.25,0.02049
1919.1,0.02045
1895.96,0.02041
1872.81,0.01988
1849.67,0.02002
1826.52,0.01993
1803.38,0.01980
1780.23,0.01904
1757.09,0.01740
1733.94,0.01997
1710.8,0.02043
1687.65,0.01933
1664.51,0.01886
1641.36,0.01833
1618.22,0.01876
1595.07,0.01884
1571.93,0.01845
1548.78,0.01826
1525.64,0.01874
1502.49,0.01812
1479.35,0.01802
1456.2,0.01874
1433.06,0.01867
1409.91,0.01784
1386.77,0.01822
1363.62,0.01802
1340.48,0.01778
1317.33,0.01683
1294.19,0.01761
1271.04,0.01922
1247.9,0.02004
1224.75,0.01963
1201.61,0.01827
1178.46,0.01786
1155.32,0.01717
1132.17,0.01789
1109.03,0.01868
1085.88,0.01783
1062.74,0.01960
1039.59,0.01907
1016.45,0.01950
993.304,0.02061
970.159,0.02017
947.014,0.01941
923.869,0.01930
900.724,0.01913
877.579,0.01912
854.434,0.01937
831.289,0.01865
808.144,0.01919
784.999,0.01855
761.854,0.01837
738.709,0.01797
715.565,0.01809
692.42,0.01713
669.275,0.01672
646.13,0.01648
622.985,0.01603
599.84,0.01695