File: 01_Data/Bean_Bag_Chair_Outer_Cover/FTIR/IS/Bean_Bag_Chair_Outer_Cover_IS_S_220909_R7.dpt
7497.03,0.81321
7473.89,0.80176
7450.74,0.79412
7427.6,0.78785
7404.45,0.78923
7381.31,0.77320
7358.16,0.75795
7335.02,0.74899
7311.87,0.73668
7288.73,0.73536
7265.58,0.73711
7242.44,0.72880
7219.29,0.73872
7196.15,0.73049
7173,0.71415
7149.86,0.70610
7126.71,0.70495
7103.57,0.68294
7080.42,0.66084
7057.28,0.64140
7034.13,0.61252
7010.99,0.59956
6987.84,0.59028
6964.7,0.58161
6941.55,0.56904
6918.41,0.56262
6895.26,0.55375
6872.12,0.54815
6848.97,0.54455
6825.83,0.53350
6802.68,0.53016
6779.54,0.52142
6756.39,0.51381
6733.25,0.52126
6710.1,0.52516
6686.96,0.51838
6663.82,0.52021
6640.67,0.52158
6617.53,0.52773
6594.38,0.52845
6571.24,0.53787
6548.09,0.53462
6524.95,0.53534
6501.8,0.53758
6478.66,0.53699
6455.51,0.53699
6432.37,0.54064
6409.22,0.53994
6386.08,0.54285
6362.93,0.54300
6339.79,0.54379
6316.64,0.54736
6293.5,0.54797
6270.35,0.55595
6247.21,0.56272
6224.06,0.57334
6200.92,0.58426
6177.77,0.59242
6154.63,0.60508
6131.48,0.61212
6108.34,0.61909
6085.19,0.62552
6062.05,0.63212
6038.9,0.64172
6015.76,0.64739
5992.61,0.65534
5969.47,0.65793
5946.32,0.65230
5923.18,0.65149
5900.03,0.64500
5876.89,0.63166
5853.74,0.63314
5830.6,0.63074
5807.45,0.62665
5784.31,0.62596
5761.16,0.62436
5738.02,0.62078
5714.87,0.61859
5691.73,0.61542
5668.58,0.61119
5645.44,0.60803
5622.29,0.60888
5599.15,0.60889
5576,0.61108
5552.86,0.61255
5529.71,0.61387
5506.57,0.61462
5483.42,0.61407
5460.28,0.61603
5437.13,0.62159
5413.99,0.62941
5390.84,0.63450
5367.7,0.63479
5344.55,0.63105
5321.41,0.62205
5298.26,0.60355
5275.12,0.57062
5251.97,0.53119
5228.83,0.50033
5205.68,0.48071
5182.54,0.47470
5159.39,0.47671
5136.25,0.48609
5113.1,0.49740
5089.96,0.50813
5066.81,0.52008
5043.67,0.53050
5020.52,0.53766
4997.38,0.54256
4974.23,0.54038
4951.09,0.53103
4927.94,0.51377
4904.8,0.48783
4881.65,0.45898
4858.51,0.43664
4835.36,0.41990
4812.22,0.40356
4789.07,0.39304
4765.93,0.38771
4742.78,0.38854
4719.64,0.39612
4696.49,0.40548
4673.35,0.41821
4650.2,0.42836
4627.06,0.43864
4603.92,0.44839
4580.77,0.45798
4557.63,0.46873
4534.48,0.47722
4511.34,0.48339
4488.19,0.48549
4465.05,0.48192
4441.9,0.45866
4418.76,0.41994
4395.61,0.39832
4372.47,0.41039
4349.32,0.40685
4326.18,0.39393
4303.03,0.37988
4279.89,0.36875
4256.74,0.36729
4233.6,0.37012
4210.45,0.37400
4187.31,0.37970
4164.16,0.38269
4141.02,0.37486
4117.87,0.36318
4094.73,0.33975
4071.58,0.31319
4048.44,0.28549
4025.29,0.26960
4002.15,0.27234
3979,0.28165
3955.86,0.28737
3932.71,0.30009
3909.57,0.31135
3886.42,0.32181
3863.28,0.33405
3840.13,0.34757
3816.99,0.34987
3793.84,0.34783
3770.7,0.34554
3747.55,0.33839
3724.41,0.32118
3701.26,0.28888
3678.12,0.23803
3654.97,0.16610
3631.83,0.10992
3608.68,0.07297
3585.54,0.05087
3562.39,0.03881
3539.25,0.03100
3516.1,0.02630
3492.96,0.02440
3469.81,0.02398
3446.67,0.02605
3423.52,0.02625
3400.38,0.02582
3377.23,0.02537
3354.09,0.02696
3330.94,0.02845
3307.8,0.02880
3284.65,0.02974
3261.51,0.03078
3238.36,0.03290
3215.22,0.03352
3192.07,0.03566
3168.93,0.03796
3145.78,0.04156
3122.64,0.04678
3099.49,0.05393
3076.35,0.06277
3053.2,0.07220
3030.06,0.08197
3006.91,0.08895
2983.77,0.07692
2960.62,0.05685
2937.48,0.04595
2914.33,0.04051
2891.19,0.03928
2868.04,0.04553
2844.9,0.05832
2821.75,0.07445
2798.61,0.08888
2775.46,0.09789
2752.32,0.10311
2729.17,0.10326
2706.03,0.11216
2682.88,0.12598
2659.74,0.13677
2636.59,0.14790
2613.45,0.15675
2590.3,0.16375
2567.16,0.16720
2544.02,0.16538
2520.87,0.16831
2497.73,0.17992
2474.58,0.19212
2451.44,0.20162
2428.29,0.21585
2405.15,0.22801
2382,0.23664
2358.86,0.24536
2335.71,0.25607
2312.57,0.26167
2289.42,0.25897
2266.28,0.24867
2243.13,0.23685
2219.99,0.23416
2196.84,0.23385
2173.7,0.21934
2150.55,0.20728
2127.41,0.20494
2104.26,0.21694
2081.12,0.22568
2057.97,0.22321
2034.83,0.22899
2011.68,0.25067
1988.54,0.25871
1965.39,0.27031
1942.25,0.28574
1919.1,0.29660
1895.96,0.30191
1872.81,0.29994
1849.67,0.29118
1826.52,0.27928
1803.38,0.26538
1780.23,0.25023
1757.09,0.23425
1733.94,0.21209
1710.8,0.18391
1687.65,0.14286
1664.51,0.10131
1641.36,0.08870
1618.22,0.10350
1595.07,0.11935
1571.93,0.12988
1548.78,0.13071
1525.64,0.12413
1502.49,0.10140
1479.35,0.05986
1456.2,0.04115
1433.06,0.03265
1409.91,0.03873
1386.77,0.03298
1363.62,0.02904
1340.48,0.03053
1317.33,0.03022
1294.19,0.03983
1271.04,0.03866
1247.9,0.03923
1224.75,0.03658
1201.61,0.02781
1178.46,0.02444
1155.32,0.02930
1132.17,0.02034
1109.03,0.02932
1085.88,0.03175
1062.74,0.04884
1039.59,0.04196
1016.45,0.04680
993.304,0.05089
970.159,0.07234
947.014,0.10787
923.869,0.11051
900.724,0.07055
877.579,0.11308
854.434,0.12028
831.289,0.10584
808.144,0.09179
784.999,0.07850
761.854,0.06408
738.709,0.05049
715.565,0.04090
692.42,0.03956
669.275,0.03721
646.13,0.03812
622.985,0.03509
599.84,0.03709