File: 01_Data/Bean_Bag_Chair_Outer_Cover/FTIR/IS/Bean_Bag_Chair_Outer_Cover_IS_S_220909_R8.dpt
7497.03,0.81583
7473.89,0.81310
7450.74,0.80191
7427.6,0.80344
7404.45,0.77759
7381.31,0.77643
7358.16,0.75879
7335.02,0.74943
7311.87,0.74505
7288.73,0.73893
7265.58,0.73397
7242.44,0.73022
7219.29,0.73423
7196.15,0.72892
7173,0.72647
7149.86,0.71360
7126.71,0.70652
7103.57,0.68905
7080.42,0.65986
7057.28,0.63968
7034.13,0.61910
7010.99,0.59859
6987.84,0.58449
6964.7,0.57353
6941.55,0.56693
6918.41,0.55617
6895.26,0.56174
6872.12,0.54832
6848.97,0.54744
6825.83,0.53631
6802.68,0.52908
6779.54,0.52524
6756.39,0.51057
6733.25,0.51505
6710.1,0.51571
6686.96,0.51519
6663.82,0.51801
6640.67,0.52187
6617.53,0.53401
6594.38,0.53089
6571.24,0.54029
6548.09,0.53931
6524.95,0.53830
6501.8,0.53422
6478.66,0.54187
6455.51,0.53848
6432.37,0.54070
6409.22,0.54502
6386.08,0.54753
6362.93,0.54606
6339.79,0.54157
6316.64,0.54949
6293.5,0.55070
6270.35,0.55604
6247.21,0.56181
6224.06,0.57624
6200.92,0.58594
6177.77,0.59204
6154.63,0.60567
6131.48,0.61144
6108.34,0.61895
6085.19,0.62703
6062.05,0.63590
6038.9,0.64450
6015.76,0.64921
5992.61,0.65464
5969.47,0.65778
5946.32,0.65617
5923.18,0.65081
5900.03,0.64750
5876.89,0.63314
5853.74,0.63194
5830.6,0.63368
5807.45,0.63064
5784.31,0.62767
5761.16,0.62464
5738.02,0.62352
5714.87,0.61918
5691.73,0.61829
5668.58,0.61306
5645.44,0.61060
5622.29,0.61253
5599.15,0.61334
5576,0.61299
5552.86,0.61588
5529.71,0.61590
5506.57,0.61491
5483.42,0.61643
5460.28,0.61946
5437.13,0.62296
5413.99,0.63149
5390.84,0.63466
5367.7,0.63385
5344.55,0.63490
5321.41,0.62378
5298.26,0.60362
5275.12,0.57386
5251.97,0.53409
5228.83,0.50139
5205.68,0.48283
5182.54,0.47704
5159.39,0.47880
5136.25,0.48955
5113.1,0.49939
5089.96,0.51189
5066.81,0.52248
5043.67,0.53056
5020.52,0.53981
4997.38,0.54568
4974.23,0.54267
4951.09,0.53357
4927.94,0.51432
4904.8,0.48855
4881.65,0.46097
4858.51,0.43801
4835.36,0.41982
4812.22,0.40384
4789.07,0.39429
4765.93,0.38924
4742.78,0.39050
4719.64,0.39709
4696.49,0.40835
4673.35,0.41876
4650.2,0.42824
4627.06,0.43915
4603.92,0.44971
4580.77,0.45901
4557.63,0.46899
4534.48,0.47712
4511.34,0.48380
4488.19,0.48484
4465.05,0.48264
4441.9,0.45970
4418.76,0.42095
4395.61,0.39888
4372.47,0.41062
4349.32,0.40753
4326.18,0.39426
4303.03,0.38018
4279.89,0.36933
4256.74,0.36838
4233.6,0.37050
4210.45,0.37463
4187.31,0.38050
4164.16,0.38302
4141.02,0.37567
4117.87,0.36405
4094.73,0.34051
4071.58,0.31428
4048.44,0.28636
4025.29,0.26957
4002.15,0.27282
3979,0.28178
3955.86,0.28870
3932.71,0.30041
3909.57,0.31172
3886.42,0.32281
3863.28,0.33599
3840.13,0.34873
3816.99,0.35072
3793.84,0.34918
3770.7,0.34587
3747.55,0.33917
3724.41,0.32286
3701.26,0.29054
3678.12,0.23941
3654.97,0.16710
3631.83,0.11075
3608.68,0.07377
3585.54,0.05139
3562.39,0.03863
3539.25,0.03187
3516.1,0.02600
3492.96,0.02504
3469.81,0.02389
3446.67,0.02488
3423.52,0.02605
3400.38,0.02586
3377.23,0.02622
3354.09,0.02658
3330.94,0.02835
3307.8,0.02922
3284.65,0.02963
3261.51,0.03127
3238.36,0.03304
3215.22,0.03354
3192.07,0.03512
3168.93,0.03724
3145.78,0.04201
3122.64,0.04649
3099.49,0.05404
3076.35,0.06275
3053.2,0.07289
3030.06,0.08220
3006.91,0.08899
2983.77,0.07698
2960.62,0.05731
2937.48,0.04696
2914.33,0.04003
2891.19,0.03961
2868.04,0.04569
2844.9,0.05817
2821.75,0.07416
2798.61,0.08897
2775.46,0.09824
2752.32,0.10317
2729.17,0.10415
2706.03,0.11248
2682.88,0.12609
2659.74,0.13717
2636.59,0.14807
2613.45,0.15719
2590.3,0.16433
2567.16,0.16741
2544.02,0.16567
2520.87,0.16867
2497.73,0.18024
2474.58,0.19248
2451.44,0.20239
2428.29,0.21611
2405.15,0.22819
2382,0.23756
2358.86,0.24702
2335.71,0.25696
2312.57,0.26224
2289.42,0.25961
2266.28,0.24944
2243.13,0.23750
2219.99,0.23537
2196.84,0.23459
2173.7,0.22058
2150.55,0.20794
2127.41,0.20564
2104.26,0.21751
2081.12,0.22623
2057.97,0.22472
2034.83,0.22959
2011.68,0.25127
1988.54,0.25951
1965.39,0.27131
1942.25,0.28644
1919.1,0.29796
1895.96,0.30329
1872.81,0.30105
1849.67,0.29234
1826.52,0.28026
1803.38,0.26630
1780.23,0.25132
1757.09,0.23503
1733.94,0.21332
1710.8,0.18499
1687.65,0.14383
1664.51,0.10244
1641.36,0.08988
1618.22,0.10418
1595.07,0.11997
1571.93,0.13028
1548.78,0.13120
1525.64,0.12470
1502.49,0.10164
1479.35,0.06020
1456.2,0.04120
1433.06,0.03257
1409.91,0.03844
1386.77,0.03291
1363.62,0.02896
1340.48,0.03095
1317.33,0.03105
1294.19,0.03997
1271.04,0.03871
1247.9,0.03943
1224.75,0.03644
1201.61,0.02810
1178.46,0.02434
1155.32,0.02958
1132.17,0.01934
1109.03,0.02931
1085.88,0.03217
1062.74,0.04778
1039.59,0.04209
1016.45,0.04685
993.304,0.05105
970.159,0.07222
947.014,0.10835
923.869,0.11096
900.724,0.07085
877.579,0.11370
854.434,0.12108
831.289,0.10690
808.144,0.09311
784.999,0.07863
761.854,0.06415
738.709,0.05078
715.565,0.03985
692.42,0.03966
669.275,0.03533
646.13,0.03766
622.985,0.03335
599.84,0.03997