File: 01_Data/Bean_Bag_Chair_Outer_Cover/FTIR/IS/Bean_Bag_Chair_Outer_Cover_IS_S_220909_R3.dpt
7497.03,0.81320
7473.89,0.81184
7450.74,0.79785
7427.6,0.78842
7404.45,0.78322
7381.31,0.77066
7358.16,0.75962
7335.02,0.74164
7311.87,0.74348
7288.73,0.74642
7265.58,0.73638
7242.44,0.72969
7219.29,0.73506
7196.15,0.72674
7173,0.72468
7149.86,0.71143
7126.71,0.69730
7103.57,0.67910
7080.42,0.65726
7057.28,0.62958
7034.13,0.61248
7010.99,0.59841
6987.84,0.58143
6964.7,0.56980
6941.55,0.57070
6918.41,0.55671
6895.26,0.55597
6872.12,0.54751
6848.97,0.53971
6825.83,0.53572
6802.68,0.53122
6779.54,0.52172
6756.39,0.51282
6733.25,0.50923
6710.1,0.51241
6686.96,0.51638
6663.82,0.51545
6640.67,0.52091
6617.53,0.52547
6594.38,0.53274
6571.24,0.53663
6548.09,0.53286
6524.95,0.53139
6501.8,0.53163
6478.66,0.53212
6455.51,0.53357
6432.37,0.53708
6409.22,0.54061
6386.08,0.54047
6362.93,0.54005
6339.79,0.54404
6316.64,0.54639
6293.5,0.54646
6270.35,0.55417
6247.21,0.56089
6224.06,0.56948
6200.92,0.57993
6177.77,0.59618
6154.63,0.60251
6131.48,0.61039
6108.34,0.61889
6085.19,0.62455
6062.05,0.63229
6038.9,0.64054
6015.76,0.64417
5992.61,0.65102
5969.47,0.65811
5946.32,0.65315
5923.18,0.65111
5900.03,0.64306
5876.89,0.63107
5853.74,0.62933
5830.6,0.62756
5807.45,0.62626
5784.31,0.62502
5761.16,0.62107
5738.02,0.61869
5714.87,0.61668
5691.73,0.61553
5668.58,0.60923
5645.44,0.61057
5622.29,0.60878
5599.15,0.60855
5576,0.61058
5552.86,0.61202
5529.71,0.61197
5506.57,0.61259
5483.42,0.61310
5460.28,0.61506
5437.13,0.62104
5413.99,0.62640
5390.84,0.63267
5367.7,0.63236
5344.55,0.62937
5321.41,0.61764
5298.26,0.59656
5275.12,0.56089
5251.97,0.51915
5228.83,0.48636
5205.68,0.46786
5182.54,0.46161
5159.39,0.46237
5136.25,0.47062
5113.1,0.48326
5089.96,0.49474
5066.81,0.50551
5043.67,0.51809
5020.52,0.52602
4997.38,0.53105
4974.23,0.53186
4951.09,0.52403
4927.94,0.50877
4904.8,0.48555
4881.65,0.45808
4858.51,0.43660
4835.36,0.41863
4812.22,0.40281
4789.07,0.39313
4765.93,0.38761
4742.78,0.38867
4719.64,0.39600
4696.49,0.40582
4673.35,0.41879
4650.2,0.42784
4627.06,0.43786
4603.92,0.44794
4580.77,0.45753
4557.63,0.46855
4534.48,0.47637
4511.34,0.48240
4488.19,0.48413
4465.05,0.48052
4441.9,0.45814
4418.76,0.42039
4395.61,0.39897
4372.47,0.40963
4349.32,0.40720
4326.18,0.39323
4303.03,0.37971
4279.89,0.36908
4256.74,0.36666
4233.6,0.36933
4210.45,0.37262
4187.31,0.37943
4164.16,0.38139
4141.02,0.37282
4117.87,0.36133
4094.73,0.33777
4071.58,0.31196
4048.44,0.28504
4025.29,0.26946
4002.15,0.27100
3979,0.28045
3955.86,0.28674
3932.71,0.29754
3909.57,0.30892
3886.42,0.31973
3863.28,0.33234
3840.13,0.34537
3816.99,0.34726
3793.84,0.34379
3770.7,0.34019
3747.55,0.33269
3724.41,0.31443
3701.26,0.28052
3678.12,0.22706
3654.97,0.15494
3631.83,0.10065
3608.68,0.06739
3585.54,0.04775
3562.39,0.03727
3539.25,0.03095
3516.1,0.02694
3492.96,0.02359
3469.81,0.02462
3446.67,0.02480
3423.52,0.02623
3400.38,0.02546
3377.23,0.02623
3354.09,0.02646
3330.94,0.02805
3307.8,0.02866
3284.65,0.02985
3261.51,0.03065
3238.36,0.03272
3215.22,0.03355
3192.07,0.03504
3168.93,0.03758
3145.78,0.04029
3122.64,0.04554
3099.49,0.05165
3076.35,0.05981
3053.2,0.06933
3030.06,0.07826
3006.91,0.08599
2983.77,0.07439
2960.62,0.05630
2937.48,0.04632
2914.33,0.03988
2891.19,0.03936
2868.04,0.04503
2844.9,0.05740
2821.75,0.07295
2798.61,0.08751
2775.46,0.09721
2752.32,0.10193
2729.17,0.10287
2706.03,0.11129
2682.88,0.12494
2659.74,0.13563
2636.59,0.14710
2613.45,0.15626
2590.3,0.16319
2567.16,0.16620
2544.02,0.16442
2520.87,0.16756
2497.73,0.17872
2474.58,0.19094
2451.44,0.20107
2428.29,0.21441
2405.15,0.22590
2382,0.23505
2358.86,0.24275
2335.71,0.25331
2312.57,0.25818
2289.42,0.25486
2266.28,0.24430
2243.13,0.23287
2219.99,0.22963
2196.84,0.22871
2173.7,0.21470
2150.55,0.20272
2127.41,0.20059
2104.26,0.21183
2081.12,0.22039
2057.97,0.21882
2034.83,0.22402
2011.68,0.24598
1988.54,0.25369
1965.39,0.26532
1942.25,0.28059
1919.1,0.29137
1895.96,0.29602
1872.81,0.29444
1849.67,0.28538
1826.52,0.27355
1803.38,0.25952
1780.23,0.24463
1757.09,0.22830
1733.94,0.20547
1710.8,0.17476
1687.65,0.13284
1664.51,0.09320
1641.36,0.08217
1618.22,0.09654
1595.07,0.11440
1571.93,0.12503
1548.78,0.12665
1525.64,0.12094
1502.49,0.09951
1479.35,0.05948
1456.2,0.04129
1433.06,0.03274
1409.91,0.03866
1386.77,0.03265
1363.62,0.02944
1340.48,0.03086
1317.33,0.03055
1294.19,0.03945
1271.04,0.03852
1247.9,0.03943
1224.75,0.03686
1201.61,0.02762
1178.46,0.02429
1155.32,0.02940
1132.17,0.01992
1109.03,0.02895
1085.88,0.03160
1062.74,0.04745
1039.59,0.04153
1016.45,0.04673
993.304,0.05070
970.159,0.07240
947.014,0.10670
923.869,0.10839
900.724,0.06847
877.579,0.10924
854.434,0.11447
831.289,0.10004
808.144,0.08657
784.999,0.07330
761.854,0.06044
738.709,0.04846
715.565,0.03953
692.42,0.03879
669.275,0.03444
646.13,0.03647
622.985,0.03191
599.84,0.03533