File: 01_Data/Bean_Bag_Chair_Outer_Cover/FTIR/IS/Bean_Bag_Chair_Outer_Cover_IS_S_220909_R1.dpt
7497.03,0.81428
7473.89,0.80168
7450.74,0.79973
7427.6,0.78987
7404.45,0.77373
7381.31,0.76517
7358.16,0.74783
7335.02,0.74449
7311.87,0.73039
7288.73,0.72806
7265.58,0.72536
7242.44,0.73235
7219.29,0.72755
7196.15,0.72066
7173,0.72130
7149.86,0.70328
7126.71,0.68425
7103.57,0.66564
7080.42,0.64658
7057.28,0.63150
7034.13,0.60952
7010.99,0.59053
6987.84,0.58088
6964.7,0.56807
6941.55,0.56398
6918.41,0.55074
6895.26,0.54984
6872.12,0.54302
6848.97,0.53466
6825.83,0.53080
6802.68,0.52022
6779.54,0.51231
6756.39,0.50901
6733.25,0.51174
6710.1,0.51009
6686.96,0.51136
6663.82,0.51135
6640.67,0.51543
6617.53,0.52436
6594.38,0.53079
6571.24,0.52787
6548.09,0.53211
6524.95,0.53135
6501.8,0.53411
6478.66,0.53392
6455.51,0.53414
6432.37,0.53375
6409.22,0.53439
6386.08,0.53468
6362.93,0.54146
6339.79,0.53896
6316.64,0.53806
6293.5,0.54689
6270.35,0.54924
6247.21,0.55722
6224.06,0.56327
6200.92,0.57728
6177.77,0.58482
6154.63,0.59787
6131.48,0.60584
6108.34,0.61292
6085.19,0.61754
6062.05,0.62962
6038.9,0.63629
6015.76,0.64394
5992.61,0.64947
5969.47,0.64880
5946.32,0.64707
5923.18,0.64468
5900.03,0.63887
5876.89,0.62809
5853.74,0.62656
5830.6,0.62598
5807.45,0.62275
5784.31,0.61980
5761.16,0.61697
5738.02,0.61460
5714.87,0.61450
5691.73,0.60989
5668.58,0.60786
5645.44,0.60207
5622.29,0.60336
5599.15,0.60262
5576,0.60537
5552.86,0.60758
5529.71,0.60833
5506.57,0.60920
5483.42,0.61071
5460.28,0.60993
5437.13,0.61462
5413.99,0.61981
5390.84,0.62683
5367.7,0.62768
5344.55,0.61544
5321.41,0.60879
5298.26,0.58563
5275.12,0.55053
5251.97,0.50655
5228.83,0.47146
5205.68,0.45058
5182.54,0.44383
5159.39,0.44778
5136.25,0.45621
5113.1,0.46808
5089.96,0.47943
5066.81,0.49191
5043.67,0.50330
5020.52,0.51287
4997.38,0.52054
4974.23,0.52067
4951.09,0.51414
4927.94,0.50191
4904.8,0.47865
4881.65,0.45370
4858.51,0.43424
4835.36,0.41716
4812.22,0.40224
4789.07,0.39205
4765.93,0.38567
4742.78,0.38586
4719.64,0.39390
4696.49,0.40435
4673.35,0.41651
4650.2,0.42599
4627.06,0.43472
4603.92,0.44546
4580.77,0.45495
4557.63,0.46495
4534.48,0.47258
4511.34,0.47925
4488.19,0.48199
4465.05,0.47803
4441.9,0.45618
4418.76,0.41782
4395.61,0.39616
4372.47,0.40920
4349.32,0.40509
4326.18,0.39132
4303.03,0.37797
4279.89,0.36602
4256.74,0.36511
4233.6,0.36689
4210.45,0.37023
4187.31,0.37635
4164.16,0.37783
4141.02,0.36989
4117.87,0.35822
4094.73,0.33545
4071.58,0.31033
4048.44,0.28262
4025.29,0.26702
4002.15,0.26901
3979,0.27739
3955.86,0.28286
3932.71,0.29287
3909.57,0.30560
3886.42,0.31289
3863.28,0.32246
3840.13,0.33200
3816.99,0.33444
3793.84,0.33649
3770.7,0.33027
3747.55,0.31693
3724.41,0.30175
3701.26,0.26908
3678.12,0.21332
3654.97,0.14283
3631.83,0.09259
3608.68,0.06101
3585.54,0.04404
3562.39,0.03522
3539.25,0.02928
3516.1,0.02577
3492.96,0.02362
3469.81,0.02458
3446.67,0.02529
3423.52,0.02601
3400.38,0.02561
3377.23,0.02653
3354.09,0.02680
3330.94,0.02828
3307.8,0.02874
3284.65,0.02964
3261.51,0.03104
3238.36,0.03143
3215.22,0.03287
3192.07,0.03428
3168.93,0.03645
3145.78,0.03915
3122.64,0.04424
3099.49,0.04987
3076.35,0.05737
3053.2,0.06604
3030.06,0.07481
3006.91,0.08215
2983.77,0.07246
2960.62,0.05548
2937.48,0.04602
2914.33,0.04006
2891.19,0.03933
2868.04,0.04556
2844.9,0.05697
2821.75,0.07239
2798.61,0.08681
2775.46,0.09567
2752.32,0.10034
2729.17,0.10147
2706.03,0.10971
2682.88,0.12349
2659.74,0.13444
2636.59,0.14583
2613.45,0.15455
2590.3,0.16166
2567.16,0.16450
2544.02,0.16293
2520.87,0.16605
2497.73,0.17747
2474.58,0.18937
2451.44,0.19908
2428.29,0.21223
2405.15,0.22366
2382,0.23235
2358.86,0.24257
2335.71,0.25201
2312.57,0.25428
2289.42,0.25019
2266.28,0.23970
2243.13,0.22748
2219.99,0.22459
2196.84,0.22322
2173.7,0.20968
2150.55,0.19794
2127.41,0.19572
2104.26,0.20703
2081.12,0.21507
2057.97,0.21397
2034.83,0.21920
2011.68,0.24020
1988.54,0.24766
1965.39,0.25936
1942.25,0.27333
1919.1,0.28381
1895.96,0.28903
1872.81,0.28686
1849.67,0.27863
1826.52,0.26551
1803.38,0.25220
1780.23,0.23658
1757.09,0.21978
1733.94,0.19431
1710.8,0.16497
1687.65,0.12239
1664.51,0.08565
1641.36,0.07579
1618.22,0.09078
1595.07,0.10932
1571.93,0.11973
1548.78,0.12142
1525.64,0.11503
1502.49,0.09602
1479.35,0.05835
1456.2,0.03985
1433.06,0.03263
1409.91,0.03831
1386.77,0.03243
1363.62,0.02873
1340.48,0.03050
1317.33,0.03014
1294.19,0.03950
1271.04,0.03872
1247.9,0.03974
1224.75,0.03685
1201.61,0.02776
1178.46,0.02382
1155.32,0.02863
1132.17,0.02000
1109.03,0.02870
1085.88,0.03220
1062.74,0.04766
1039.59,0.04121
1016.45,0.04708
993.304,0.05110
970.159,0.07182
947.014,0.10556
923.869,0.10608
900.724,0.06713
877.579,0.10547
854.434,0.10867
831.289,0.09530
808.144,0.08092
784.999,0.06905
761.854,0.05761
738.709,0.04617
715.565,0.03853
692.42,0.03797
669.275,0.03612
646.13,0.03582
622.985,0.03244
599.84,0.03617