File: 01_Data/Bean_Bag_Chair_Outer_Cover/FTIR/IS/Bean_Bag_Chair_Outer_Cover_IS_S_220909_R5.dpt
7497.03,0.80633
7473.89,0.81136
7450.74,0.79677
7427.6,0.78512
7404.45,0.77647
7381.31,0.78295
7358.16,0.75618
7335.02,0.75605
7311.87,0.73505
7288.73,0.74095
7265.58,0.73509
7242.44,0.73821
7219.29,0.73442
7196.15,0.72651
7173,0.72107
7149.86,0.71098
7126.71,0.69579
7103.57,0.68596
7080.42,0.66024
7057.28,0.63591
7034.13,0.61729
7010.99,0.59502
6987.84,0.58288
6964.7,0.57178
6941.55,0.56826
6918.41,0.55647
6895.26,0.55710
6872.12,0.55142
6848.97,0.54185
6825.83,0.53919
6802.68,0.52753
6779.54,0.52384
6756.39,0.51850
6733.25,0.51512
6710.1,0.51559
6686.96,0.51764
6663.82,0.51394
6640.67,0.53109
6617.53,0.52724
6594.38,0.53406
6571.24,0.53591
6548.09,0.53542
6524.95,0.53637
6501.8,0.53620
6478.66,0.53522
6455.51,0.53479
6432.37,0.53772
6409.22,0.53766
6386.08,0.54385
6362.93,0.54151
6339.79,0.54450
6316.64,0.54622
6293.5,0.55099
6270.35,0.55525
6247.21,0.55933
6224.06,0.57202
6200.92,0.58128
6177.77,0.59182
6154.63,0.60087
6131.48,0.61023
6108.34,0.61860
6085.19,0.62706
6062.05,0.63544
6038.9,0.64140
6015.76,0.64909
5992.61,0.65037
5969.47,0.65640
5946.32,0.65379
5923.18,0.65112
5900.03,0.64519
5876.89,0.63144
5853.74,0.62952
5830.6,0.63217
5807.45,0.62702
5784.31,0.62597
5761.16,0.62368
5738.02,0.62126
5714.87,0.61903
5691.73,0.61472
5668.58,0.61235
5645.44,0.61034
5622.29,0.60868
5599.15,0.60793
5576,0.61288
5552.86,0.61458
5529.71,0.61284
5506.57,0.61398
5483.42,0.61451
5460.28,0.61830
5437.13,0.62222
5413.99,0.62871
5390.84,0.63240
5367.7,0.63305
5344.55,0.63101
5321.41,0.62255
5298.26,0.60132
5275.12,0.56606
5251.97,0.52763
5228.83,0.49595
5205.68,0.47476
5182.54,0.46929
5159.39,0.47139
5136.25,0.48095
5113.1,0.49117
5089.96,0.50199
5066.81,0.51468
5043.67,0.52439
5020.52,0.53343
4997.38,0.53917
4974.23,0.53609
4951.09,0.52917
4927.94,0.50979
4904.8,0.48646
4881.65,0.45949
4858.51,0.43729
4835.36,0.41987
4812.22,0.40341
4789.07,0.39388
4765.93,0.38827
4742.78,0.38856
4719.64,0.39688
4696.49,0.40553
4673.35,0.41823
4650.2,0.42761
4627.06,0.43774
4603.92,0.44742
4580.77,0.45852
4557.63,0.46935
4534.48,0.47645
4511.34,0.48243
4488.19,0.48487
4465.05,0.48069
4441.9,0.45881
4418.76,0.42036
4395.61,0.39873
4372.47,0.41045
4349.32,0.40660
4326.18,0.39330
4303.03,0.37942
4279.89,0.36806
4256.74,0.36706
4233.6,0.37051
4210.45,0.37347
4187.31,0.37978
4164.16,0.38180
4141.02,0.37493
4117.87,0.36223
4094.73,0.33946
4071.58,0.31367
4048.44,0.28549
4025.29,0.26895
4002.15,0.27195
3979,0.28076
3955.86,0.28714
3932.71,0.29882
3909.57,0.31104
3886.42,0.32130
3863.28,0.33436
3840.13,0.34749
3816.99,0.34923
3793.84,0.34735
3770.7,0.34361
3747.55,0.33761
3724.41,0.31893
3701.26,0.28646
3678.12,0.23423
3654.97,0.16136
3631.83,0.10628
3608.68,0.06998
3585.54,0.04987
3562.39,0.03767
3539.25,0.03028
3516.1,0.02641
3492.96,0.02416
3469.81,0.02469
3446.67,0.02549
3423.52,0.02603
3400.38,0.02571
3377.23,0.02595
3354.09,0.02714
3330.94,0.02833
3307.8,0.02933
3284.65,0.02927
3261.51,0.03062
3238.36,0.03182
3215.22,0.03410
3192.07,0.03471
3168.93,0.03715
3145.78,0.04100
3122.64,0.04622
3099.49,0.05308
3076.35,0.06146
3053.2,0.07124
3030.06,0.08044
3006.91,0.08716
2983.77,0.07602
2960.62,0.05709
2937.48,0.04659
2914.33,0.03962
2891.19,0.03946
2868.04,0.04568
2844.9,0.05776
2821.75,0.07380
2798.61,0.08826
2775.46,0.09729
2752.32,0.10277
2729.17,0.10350
2706.03,0.11204
2682.88,0.12490
2659.74,0.13652
2636.59,0.14764
2613.45,0.15664
2590.3,0.16387
2567.16,0.16703
2544.02,0.16504
2520.87,0.16798
2497.73,0.17931
2474.58,0.19182
2451.44,0.20182
2428.29,0.21497
2405.15,0.22726
2382,0.23616
2358.86,0.24472
2335.71,0.25551
2312.57,0.26003
2289.42,0.25729
2266.28,0.24693
2243.13,0.23510
2219.99,0.23259
2196.84,0.23154
2173.7,0.21745
2150.55,0.20577
2127.41,0.20322
2104.26,0.21514
2081.12,0.22311
2057.97,0.22168
2034.83,0.22658
2011.68,0.24891
1988.54,0.25686
1965.39,0.26851
1942.25,0.28359
1919.1,0.29483
1895.96,0.29991
1872.81,0.29795
1849.67,0.28910
1826.52,0.27777
1803.38,0.26311
1780.23,0.24806
1757.09,0.23180
1733.94,0.21000
1710.8,0.18008
1687.65,0.13909
1664.51,0.09812
1641.36,0.08613
1618.22,0.10077
1595.07,0.11744
1571.93,0.12786
1548.78,0.12855
1525.64,0.12299
1502.49,0.10072
1479.35,0.06024
1456.2,0.04113
1433.06,0.03296
1409.91,0.03850
1386.77,0.03268
1363.62,0.02919
1340.48,0.03085
1317.33,0.03047
1294.19,0.03956
1271.04,0.03889
1247.9,0.03925
1224.75,0.03614
1201.61,0.02791
1178.46,0.02396
1155.32,0.02935
1132.17,0.01960
1109.03,0.02917
1085.88,0.03161
1062.74,0.04800
1039.59,0.04202
1016.45,0.04680
993.304,0.05127
970.159,0.07231
947.014,0.10766
923.869,0.11021
900.724,0.06994
877.579,0.11165
854.434,0.11847
831.289,0.10359
808.144,0.08983
784.999,0.07681
761.854,0.06220
738.709,0.04986
715.565,0.03966
692.42,0.03948
669.275,0.03542
646.13,0.03646
622.985,0.03521
599.84,0.03859