File: 01_Data/Bean_Bag_Chair_Outer_Cover/FTIR/IS/Bean_Bag_Chair_Outer_Cover_IS_T_220909_R8.dpt
7497.03,0.03292
7473.89,0.02876
7450.74,0.02578
7427.6,0.01760
7404.45,0.02210
7381.31,0.01610
7358.16,0.02544
7335.02,0.02331
7311.87,0.02639
7288.73,0.02943
7265.58,0.03303
7242.44,0.01379
7219.29,0.01915
7196.15,0.02149
7173,0.02693
7149.86,0.03111
7126.71,0.02062
7103.57,0.01724
7080.42,0.02317
7057.28,0.02377
7034.13,0.02482
7010.99,0.02485
6987.84,0.02095
6964.7,0.02290
6941.55,0.02661
6918.41,0.02464
6895.26,0.02626
6872.12,0.02161
6848.97,0.02377
6825.83,0.02084
6802.68,0.02577
6779.54,0.02586
6756.39,0.02228
6733.25,0.02320
6710.1,0.02307
6686.96,0.02626
6663.82,0.02196
6640.67,0.02223
6617.53,0.02015
6594.38,0.02236
6571.24,0.02065
6548.09,0.02037
6524.95,0.02020
6501.8,0.01946
6478.66,0.02311
6455.51,0.02284
6432.37,0.02331
6409.22,0.02294
6386.08,0.02436
6362.93,0.02023
6339.79,0.02161
6316.64,0.02140
6293.5,0.02436
6270.35,0.02426
6247.21,0.02159
6224.06,0.02269
6200.92,0.02144
6177.77,0.02473
6154.63,0.02426
6131.48,0.02204
6108.34,0.02141
6085.19,0.02290
6062.05,0.02250
6038.9,0.02401
6015.76,0.02154
5992.61,0.02167
5969.47,0.02413
5946.32,0.02371
5923.18,0.02049
5900.03,0.02109
5876.89,0.02369
5853.74,0.02269
5830.6,0.02280
5807.45,0.02186
5784.31,0.02194
5761.16,0.02090
5738.02,0.02225
5714.87,0.02168
5691.73,0.02113
5668.58,0.02176
5645.44,0.02309
5622.29,0.02271
5599.15,0.02280
5576,0.02237
5552.86,0.02301
5529.71,0.02134
5506.57,0.02208
5483.42,0.02194
5460.28,0.02284
5437.13,0.02228
5413.99,0.02213
5390.84,0.02196
5367.7,0.02116
5344.55,0.02368
5321.41,0.02245
5298.26,0.02179
5275.12,0.02190
5251.97,0.02194
5228.83,0.02086
5205.68,0.02329
5182.54,0.02153
5159.39,0.02195
5136.25,0.02193
5113.1,0.02208
5089.96,0.02231
5066.81,0.02308
5043.67,0.02228
5020.52,0.02162
4997.38,0.02198
4974.23,0.02192
4951.09,0.02239
4927.94,0.02139
4904.8,0.02225
4881.65,0.02200
4858.51,0.02193
4835.36,0.02198
4812.22,0.02224
4789.07,0.02310
4765.93,0.02257
4742.78,0.02245
4719.64,0.02268
4696.49,0.02207
4673.35,0.02347
4650.2,0.02205
4627.06,0.02235
4603.92,0.02251
4580.77,0.02247
4557.63,0.02225
4534.48,0.02294
4511.34,0.02253
4488.19,0.02110
4465.05,0.02229
4441.9,0.02178
4418.76,0.02219
4395.61,0.02254
4372.47,0.02218
4349.32,0.02220
4326.18,0.02194
4303.03,0.02213
4279.89,0.02259
4256.74,0.02202
4233.6,0.02215
4210.45,0.02193
4187.31,0.02262
4164.16,0.02276
4141.02,0.02324
4117.87,0.02315
4094.73,0.02238
4071.58,0.02269
4048.44,0.02203
4025.29,0.02284
4002.15,0.02254
3979,0.02245
3955.86,0.02231
3932.71,0.02351
3909.57,0.02233
3886.42,0.02268
3863.28,0.02309
3840.13,0.02303
3816.99,0.02319
3793.84,0.02299
3770.7,0.02257
3747.55,0.02305
3724.41,0.02297
3701.26,0.02273
3678.12,0.02279
3654.97,0.02245
3631.83,0.02208
3608.68,0.02207
3585.54,0.02252
3562.39,0.02113
3539.25,0.02118
3516.1,0.02121
3492.96,0.02117
3469.81,0.02100
3446.67,0.02053
3423.52,0.02036
3400.38,0.02102
3377.23,0.02100
3354.09,0.02020
3330.94,0.01995
3307.8,0.02062
3284.65,0.01983
3261.51,0.02039
3238.36,0.01985
3215.22,0.02144
3192.07,0.02075
3168.93,0.02125
3145.78,0.02128
3122.64,0.02104
3099.49,0.02062
3076.35,0.02085
3053.2,0.02070
3030.06,0.02024
3006.91,0.02075
2983.77,0.01983
2960.62,0.01973
2937.48,0.01958
2914.33,0.02005
2891.19,0.02077
2868.04,0.02055
2844.9,0.02113
2821.75,0.02155
2798.61,0.02097
2775.46,0.02141
2752.32,0.02122
2729.17,0.02149
2706.03,0.02117
2682.88,0.02161
2659.74,0.02130
2636.59,0.02135
2613.45,0.02097
2590.3,0.02110
2567.16,0.02097
2544.02,0.02113
2520.87,0.02130
2497.73,0.02098
2474.58,0.02132
2451.44,0.02120
2428.29,0.02131
2405.15,0.02158
2382,0.02128
2358.86,0.02202
2335.71,0.02167
2312.57,0.02130
2289.42,0.02140
2266.28,0.02123
2243.13,0.02076
2219.99,0.02117
2196.84,0.02127
2173.7,0.02125
2150.55,0.02096
2127.41,0.02080
2104.26,0.02110
2081.12,0.02122
2057.97,0.02132
2034.83,0.02111
2011.68,0.02079
1988.54,0.02105
1965.39,0.02097
1942.25,0.02111
1919.1,0.02118
1895.96,0.02058
1872.81,0.02048
1849.67,0.02034
1826.52,0.02019
1803.38,0.01988
1780.23,0.01922
1757.09,0.01780
1733.94,0.01973
1710.8,0.02111
1687.65,0.01916
1664.51,0.01885
1641.36,0.01850
1618.22,0.01912
1595.07,0.01862
1571.93,0.01904
1548.78,0.01827
1525.64,0.01858
1502.49,0.01903
1479.35,0.01825
1456.2,0.01871
1433.06,0.01890
1409.91,0.01839
1386.77,0.01829
1363.62,0.01852
1340.48,0.01782
1317.33,0.01749
1294.19,0.01800
1271.04,0.01973
1247.9,0.02058
1224.75,0.01979
1201.61,0.01870
1178.46,0.01809
1155.32,0.01808
1132.17,0.01794
1109.03,0.01874
1085.88,0.01839
1062.74,0.01974
1039.59,0.02004
1016.45,0.01952
993.304,0.02134
970.159,0.02038
947.014,0.01981
923.869,0.01978
900.724,0.01948
877.579,0.01900
854.434,0.01920
831.289,0.01927
808.144,0.01798
784.999,0.01924
761.854,0.01836
738.709,0.01962
715.565,0.01803
692.42,0.01783
669.275,0.01801
646.13,0.01588
622.985,0.01516
599.84,0.01639