File: 01_Data/Bean_Bag_Chair_Outer_Cover/FTIR/IS/Bean_Bag_Chair_Outer_Cover_IS_S_220909_R2.dpt
7497.03,0.81604
7473.89,0.80281
7450.74,0.80275
7427.6,0.78744
7404.45,0.78543
7381.31,0.76209
7358.16,0.75897
7335.02,0.74458
7311.87,0.73381
7288.73,0.72874
7265.58,0.72196
7242.44,0.73395
7219.29,0.73077
7196.15,0.72512
7173,0.71706
7149.86,0.70841
7126.71,0.69182
7103.57,0.67584
7080.42,0.65563
7057.28,0.62689
7034.13,0.61246
7010.99,0.59346
6987.84,0.58220
6964.7,0.57857
6941.55,0.56065
6918.41,0.55996
6895.26,0.55510
6872.12,0.54842
6848.97,0.54566
6825.83,0.53488
6802.68,0.52203
6779.54,0.52263
6756.39,0.51025
6733.25,0.51095
6710.1,0.51583
6686.96,0.51608
6663.82,0.51914
6640.67,0.52417
6617.53,0.52374
6594.38,0.53132
6571.24,0.53243
6548.09,0.53517
6524.95,0.53281
6501.8,0.53548
6478.66,0.53010
6455.51,0.53193
6432.37,0.53651
6409.22,0.53507
6386.08,0.53710
6362.93,0.54290
6339.79,0.54467
6316.64,0.54313
6293.5,0.54676
6270.35,0.55386
6247.21,0.56222
6224.06,0.57053
6200.92,0.58047
6177.77,0.58857
6154.63,0.59928
6131.48,0.60769
6108.34,0.61595
6085.19,0.62243
6062.05,0.63169
6038.9,0.63811
6015.76,0.64671
5992.61,0.64970
5969.47,0.65624
5946.32,0.65043
5923.18,0.64678
5900.03,0.64227
5876.89,0.63153
5853.74,0.62952
5830.6,0.62857
5807.45,0.62619
5784.31,0.62396
5761.16,0.62291
5738.02,0.61832
5714.87,0.61449
5691.73,0.61316
5668.58,0.60913
5645.44,0.60989
5622.29,0.60668
5599.15,0.60918
5576,0.60829
5552.86,0.60975
5529.71,0.61292
5506.57,0.61311
5483.42,0.61123
5460.28,0.61578
5437.13,0.62051
5413.99,0.62756
5390.84,0.63088
5367.7,0.63083
5344.55,0.62580
5321.41,0.61529
5298.26,0.59333
5275.12,0.55804
5251.97,0.51664
5228.83,0.48147
5205.68,0.46233
5182.54,0.45463
5159.39,0.45839
5136.25,0.46591
5113.1,0.47694
5089.96,0.48957
5066.81,0.50026
5043.67,0.51230
5020.52,0.52155
4997.38,0.52749
4974.23,0.52819
4951.09,0.52100
4927.94,0.50707
4904.8,0.48453
4881.65,0.45780
4858.51,0.43546
4835.36,0.41841
4812.22,0.40264
4789.07,0.39255
4765.93,0.38830
4742.78,0.38887
4719.64,0.39576
4696.49,0.40611
4673.35,0.41766
4650.2,0.42798
4627.06,0.43725
4603.92,0.44699
4580.77,0.45718
4557.63,0.46817
4534.48,0.47518
4511.34,0.48155
4488.19,0.48376
4465.05,0.48053
4441.9,0.45896
4418.76,0.41969
4395.61,0.39857
4372.47,0.40981
4349.32,0.40662
4326.18,0.39359
4303.03,0.37975
4279.89,0.36780
4256.74,0.36699
4233.6,0.36879
4210.45,0.37282
4187.31,0.37826
4164.16,0.38083
4141.02,0.37242
4117.87,0.36165
4094.73,0.33730
4071.58,0.31225
4048.44,0.28399
4025.29,0.26829
4002.15,0.27143
3979,0.28016
3955.86,0.28559
3932.71,0.29679
3909.57,0.30850
3886.42,0.31862
3863.28,0.33043
3840.13,0.34318
3816.99,0.34475
3793.84,0.34175
3770.7,0.33731
3747.55,0.32991
3724.41,0.31120
3701.26,0.27687
3678.12,0.22266
3654.97,0.14972
3631.83,0.09860
3608.68,0.06432
3585.54,0.04602
3562.39,0.03636
3539.25,0.03020
3516.1,0.02562
3492.96,0.02428
3469.81,0.02336
3446.67,0.02528
3423.52,0.02607
3400.38,0.02578
3377.23,0.02623
3354.09,0.02620
3330.94,0.02877
3307.8,0.02915
3284.65,0.02967
3261.51,0.03145
3238.36,0.03211
3215.22,0.03343
3192.07,0.03464
3168.93,0.03687
3145.78,0.04025
3122.64,0.04492
3099.49,0.05162
3076.35,0.05930
3053.2,0.06784
3030.06,0.07733
3006.91,0.08374
2983.77,0.07380
2960.62,0.05660
2937.48,0.04611
2914.33,0.03995
2891.19,0.03955
2868.04,0.04605
2844.9,0.05766
2821.75,0.07314
2798.61,0.08724
2775.46,0.09649
2752.32,0.10168
2729.17,0.10222
2706.03,0.11058
2682.88,0.12436
2659.74,0.13513
2636.59,0.14675
2613.45,0.15607
2590.3,0.16293
2567.16,0.16596
2544.02,0.16392
2520.87,0.16725
2497.73,0.17856
2474.58,0.19002
2451.44,0.19991
2428.29,0.21387
2405.15,0.22524
2382,0.23399
2358.86,0.24309
2335.71,0.25283
2312.57,0.25707
2289.42,0.25346
2266.28,0.24283
2243.13,0.23058
2219.99,0.22770
2196.84,0.22657
2173.7,0.21299
2150.55,0.20086
2127.41,0.19845
2104.26,0.21007
2081.12,0.21849
2057.97,0.21713
2034.83,0.22213
2011.68,0.24364
1988.54,0.25168
1965.39,0.26330
1942.25,0.27822
1919.1,0.28870
1895.96,0.29404
1872.81,0.29201
1849.67,0.28309
1826.52,0.27160
1803.38,0.25770
1780.23,0.24258
1757.09,0.22542
1733.94,0.20254
1710.8,0.17132
1687.65,0.12901
1664.51,0.09008
1641.36,0.07927
1618.22,0.09457
1595.07,0.11282
1571.93,0.12321
1548.78,0.12500
1525.64,0.11969
1502.49,0.09816
1479.35,0.05906
1456.2,0.04071
1433.06,0.03342
1409.91,0.03829
1386.77,0.03268
1363.62,0.02902
1340.48,0.03113
1317.33,0.03083
1294.19,0.03978
1271.04,0.03834
1247.9,0.03911
1224.75,0.03651
1201.61,0.02828
1178.46,0.02422
1155.32,0.02899
1132.17,0.02001
1109.03,0.02913
1085.88,0.03119
1062.74,0.04712
1039.59,0.04098
1016.45,0.04666
993.304,0.05128
970.159,0.07210
947.014,0.10640
923.869,0.10781
900.724,0.06904
877.579,0.10788
854.434,0.11164
831.289,0.09865
808.144,0.08445
784.999,0.07154
761.854,0.05920
738.709,0.04727
715.565,0.03867
692.42,0.03743
669.275,0.03629
646.13,0.03646
622.985,0.03301
599.84,0.03811