File: 01_Data/Bean_Bag_Chair_Outer_Cover/FTIR/IS/Bean_Bag_Chair_Outer_Cover_IS_S_220909_R4.dpt
7497.03,0.81222
7473.89,0.80730
7450.74,0.79743
7427.6,0.78728
7404.45,0.77999
7381.31,0.77612
7358.16,0.76415
7335.02,0.73782
7311.87,0.74465
7288.73,0.73760
7265.58,0.73281
7242.44,0.73302
7219.29,0.72700
7196.15,0.72889
7173,0.72262
7149.86,0.71126
7126.71,0.69627
7103.57,0.68307
7080.42,0.65758
7057.28,0.63988
7034.13,0.61779
7010.99,0.59465
6987.84,0.58745
6964.7,0.57832
6941.55,0.56048
6918.41,0.56262
6895.26,0.55194
6872.12,0.54424
6848.97,0.54441
6825.83,0.53568
6802.68,0.52420
6779.54,0.52433
6756.39,0.51453
6733.25,0.51692
6710.1,0.51651
6686.96,0.52295
6663.82,0.51937
6640.67,0.51881
6617.53,0.52730
6594.38,0.52493
6571.24,0.53413
6548.09,0.53134
6524.95,0.53554
6501.8,0.53319
6478.66,0.53833
6455.51,0.53793
6432.37,0.54019
6409.22,0.54184
6386.08,0.54433
6362.93,0.54224
6339.79,0.54253
6316.64,0.54305
6293.5,0.54821
6270.35,0.55446
6247.21,0.56377
6224.06,0.57172
6200.92,0.58094
6177.77,0.59201
6154.63,0.60228
6131.48,0.61026
6108.34,0.61869
6085.19,0.62861
6062.05,0.63580
6038.9,0.64059
6015.76,0.64864
5992.61,0.65706
5969.47,0.65535
5946.32,0.65519
5923.18,0.64912
5900.03,0.64484
5876.89,0.63386
5853.74,0.63283
5830.6,0.63194
5807.45,0.62869
5784.31,0.62518
5761.16,0.62403
5738.02,0.62290
5714.87,0.62070
5691.73,0.61655
5668.58,0.61067
5645.44,0.61072
5622.29,0.61055
5599.15,0.61108
5576,0.61266
5552.86,0.61407
5529.71,0.61449
5506.57,0.61559
5483.42,0.61420
5460.28,0.61613
5437.13,0.62490
5413.99,0.62993
5390.84,0.63399
5367.7,0.63701
5344.55,0.63219
5321.41,0.62108
5298.26,0.59995
5275.12,0.56526
5251.97,0.52479
5228.83,0.49379
5205.68,0.47247
5182.54,0.46498
5159.39,0.46864
5136.25,0.47634
5113.1,0.48949
5089.96,0.49993
5066.81,0.51028
5043.67,0.52155
5020.52,0.53043
4997.38,0.53554
4974.23,0.53536
4951.09,0.52661
4927.94,0.51253
4904.8,0.48722
4881.65,0.46104
4858.51,0.43796
4835.36,0.42021
4812.22,0.40355
4789.07,0.39446
4765.93,0.38972
4742.78,0.38943
4719.64,0.39869
4696.49,0.40641
4673.35,0.42014
4650.2,0.42877
4627.06,0.43941
4603.92,0.44961
4580.77,0.45905
4557.63,0.46996
4534.48,0.47805
4511.34,0.48369
4488.19,0.48630
4465.05,0.48217
4441.9,0.46038
4418.76,0.42045
4395.61,0.39995
4372.47,0.41072
4349.32,0.40769
4326.18,0.39442
4303.03,0.38137
4279.89,0.36904
4256.74,0.36824
4233.6,0.37145
4210.45,0.37388
4187.31,0.38140
4164.16,0.38272
4141.02,0.37462
4117.87,0.36281
4094.73,0.33916
4071.58,0.31392
4048.44,0.28568
4025.29,0.26883
4002.15,0.27261
3979,0.28140
3955.86,0.28760
3932.71,0.29845
3909.57,0.31081
3886.42,0.32139
3863.28,0.33320
3840.13,0.34800
3816.99,0.34801
3793.84,0.34633
3770.7,0.34368
3747.55,0.33536
3724.41,0.31752
3701.26,0.28428
3678.12,0.23125
3654.97,0.15831
3631.83,0.10313
3608.68,0.06849
3585.54,0.04853
3562.39,0.03672
3539.25,0.03031
3516.1,0.02597
3492.96,0.02433
3469.81,0.02446
3446.67,0.02563
3423.52,0.02619
3400.38,0.02585
3377.23,0.02685
3354.09,0.02649
3330.94,0.02873
3307.8,0.02807
3284.65,0.02940
3261.51,0.03073
3238.36,0.03248
3215.22,0.03404
3192.07,0.03497
3168.93,0.03736
3145.78,0.04018
3122.64,0.04527
3099.49,0.05280
3076.35,0.06100
3053.2,0.07033
3030.06,0.08026
3006.91,0.08691
2983.77,0.07555
2960.62,0.05677
2937.48,0.04660
2914.33,0.04027
2891.19,0.03909
2868.04,0.04585
2844.9,0.05773
2821.75,0.07362
2798.61,0.08837
2775.46,0.09763
2752.32,0.10265
2729.17,0.10340
2706.03,0.11159
2682.88,0.12500
2659.74,0.13612
2636.59,0.14752
2613.45,0.15695
2590.3,0.16407
2567.16,0.16732
2544.02,0.16518
2520.87,0.16829
2497.73,0.17977
2474.58,0.19176
2451.44,0.20221
2428.29,0.21536
2405.15,0.22723
2382,0.23630
2358.86,0.24485
2335.71,0.25451
2312.57,0.25998
2289.42,0.25684
2266.28,0.24671
2243.13,0.23456
2219.99,0.23182
2196.84,0.23090
2173.7,0.21719
2150.55,0.20459
2127.41,0.20245
2104.26,0.21402
2081.12,0.22252
2057.97,0.22100
2034.83,0.22619
2011.68,0.24827
1988.54,0.25608
1965.39,0.26792
1942.25,0.28251
1919.1,0.29357
1895.96,0.29875
1872.81,0.29669
1849.67,0.28802
1826.52,0.27630
1803.38,0.26207
1780.23,0.24738
1757.09,0.23047
1733.94,0.20813
1710.8,0.17817
1687.65,0.13608
1664.51,0.09537
1641.36,0.08388
1618.22,0.09950
1595.07,0.11635
1571.93,0.12679
1548.78,0.12836
1525.64,0.12222
1502.49,0.10002
1479.35,0.06008
1456.2,0.04045
1433.06,0.03317
1409.91,0.03831
1386.77,0.03271
1363.62,0.02913
1340.48,0.03077
1317.33,0.03066
1294.19,0.04012
1271.04,0.03874
1247.9,0.03893
1224.75,0.03600
1201.61,0.02764
1178.46,0.02418
1155.32,0.02940
1132.17,0.01981
1109.03,0.02949
1085.88,0.03180
1062.74,0.04797
1039.59,0.04139
1016.45,0.04675
993.304,0.05129
970.159,0.07240
947.014,0.10811
923.869,0.10969
900.724,0.06897
877.579,0.11085
854.434,0.11672
831.289,0.10129
808.144,0.08827
784.999,0.07539
761.854,0.06178
738.709,0.04912
715.565,0.04022
692.42,0.03902
669.275,0.03659
646.13,0.03734
622.985,0.03353
599.84,0.04060