File: 01_Data/Bean_Bag_Chair_Outer_Cover/FTIR/IS/Bean_Bag_Chair_Outer_Cover_IS_S_220909_R6.dpt
7497.03,0.79677
7473.89,0.79886
7450.74,0.79825
7427.6,0.79185
7404.45,0.78644
7381.31,0.77690
7358.16,0.75532
7335.02,0.74608
7311.87,0.74827
7288.73,0.73965
7265.58,0.74131
7242.44,0.73751
7219.29,0.73407
7196.15,0.73004
7173,0.73022
7149.86,0.71579
7126.71,0.69608
7103.57,0.68297
7080.42,0.66127
7057.28,0.63262
7034.13,0.61474
7010.99,0.60437
6987.84,0.58718
6964.7,0.57038
6941.55,0.57216
6918.41,0.55645
6895.26,0.55553
6872.12,0.55054
6848.97,0.53672
6825.83,0.53806
6802.68,0.53384
6779.54,0.52349
6756.39,0.51121
6733.25,0.51538
6710.1,0.51582
6686.96,0.51517
6663.82,0.51625
6640.67,0.52171
6617.53,0.52859
6594.38,0.53181
6571.24,0.53445
6548.09,0.53333
6524.95,0.53484
6501.8,0.53774
6478.66,0.53469
6455.51,0.54243
6432.37,0.54303
6409.22,0.54124
6386.08,0.54384
6362.93,0.53973
6339.79,0.54234
6316.64,0.54548
6293.5,0.54960
6270.35,0.55293
6247.21,0.55969
6224.06,0.57226
6200.92,0.58400
6177.77,0.59568
6154.63,0.60503
6131.48,0.61112
6108.34,0.62073
6085.19,0.62651
6062.05,0.63576
6038.9,0.64168
6015.76,0.64653
5992.61,0.65591
5969.47,0.65820
5946.32,0.65589
5923.18,0.64987
5900.03,0.64509
5876.89,0.63569
5853.74,0.63285
5830.6,0.62902
5807.45,0.62701
5784.31,0.62495
5761.16,0.62570
5738.02,0.62261
5714.87,0.61961
5691.73,0.61636
5668.58,0.61415
5645.44,0.61280
5622.29,0.60816
5599.15,0.61246
5576,0.61368
5552.86,0.61531
5529.71,0.61573
5506.57,0.61577
5483.42,0.61551
5460.28,0.61633
5437.13,0.62340
5413.99,0.63074
5390.84,0.63450
5367.7,0.63520
5344.55,0.63212
5321.41,0.62245
5298.26,0.60172
5275.12,0.57012
5251.97,0.53099
5228.83,0.49935
5205.68,0.47812
5182.54,0.47192
5159.39,0.47554
5136.25,0.48315
5113.1,0.49617
5089.96,0.50782
5066.81,0.51937
5043.67,0.52772
5020.52,0.53714
4997.38,0.54097
4974.23,0.53956
4951.09,0.53063
4927.94,0.51226
4904.8,0.48912
4881.65,0.46212
4858.51,0.43792
4835.36,0.42033
4812.22,0.40332
4789.07,0.39412
4765.93,0.38941
4742.78,0.39002
4719.64,0.39747
4696.49,0.40657
4673.35,0.41928
4650.2,0.43016
4627.06,0.43999
4603.92,0.44903
4580.77,0.45840
4557.63,0.47004
4534.48,0.47828
4511.34,0.48337
4488.19,0.48639
4465.05,0.48366
4441.9,0.45932
4418.76,0.42076
4395.61,0.39901
4372.47,0.41096
4349.32,0.40855
4326.18,0.39415
4303.03,0.38077
4279.89,0.36909
4256.74,0.36822
4233.6,0.37102
4210.45,0.37381
4187.31,0.38031
4164.16,0.38333
4141.02,0.37502
4117.87,0.36312
4094.73,0.33986
4071.58,0.31403
4048.44,0.28660
4025.29,0.26991
4002.15,0.27293
3979,0.28121
3955.86,0.28774
3932.71,0.29995
3909.57,0.31264
3886.42,0.32197
3863.28,0.33464
3840.13,0.34886
3816.99,0.34951
3793.84,0.34868
3770.7,0.34545
3747.55,0.33786
3724.41,0.32159
3701.26,0.28849
3678.12,0.23611
3654.97,0.16379
3631.83,0.10799
3608.68,0.07180
3585.54,0.04981
3562.39,0.03792
3539.25,0.03090
3516.1,0.02642
3492.96,0.02391
3469.81,0.02396
3446.67,0.02531
3423.52,0.02588
3400.38,0.02575
3377.23,0.02669
3354.09,0.02633
3330.94,0.02898
3307.8,0.02953
3284.65,0.02932
3261.51,0.03090
3238.36,0.03203
3215.22,0.03355
3192.07,0.03547
3168.93,0.03728
3145.78,0.04044
3122.64,0.04689
3099.49,0.05412
3076.35,0.06193
3053.2,0.07231
3030.06,0.08139
3006.91,0.08859
2983.77,0.07616
2960.62,0.05672
2937.48,0.04610
2914.33,0.03976
2891.19,0.03954
2868.04,0.04583
2844.9,0.05798
2821.75,0.07409
2798.61,0.08830
2775.46,0.09754
2752.32,0.10329
2729.17,0.10365
2706.03,0.11255
2682.88,0.12566
2659.74,0.13647
2636.59,0.14822
2613.45,0.15713
2590.3,0.16401
2567.16,0.16737
2544.02,0.16559
2520.87,0.16856
2497.73,0.17982
2474.58,0.19209
2451.44,0.20265
2428.29,0.21610
2405.15,0.22792
2382,0.23688
2358.86,0.24540
2335.71,0.25614
2312.57,0.26128
2289.42,0.25864
2266.28,0.24861
2243.13,0.23669
2219.99,0.23432
2196.84,0.23325
2173.7,0.21909
2150.55,0.20696
2127.41,0.20483
2104.26,0.21627
2081.12,0.22487
2057.97,0.22309
2034.83,0.22841
2011.68,0.25028
1988.54,0.25816
1965.39,0.27025
1942.25,0.28509
1919.1,0.29662
1895.96,0.30162
1872.81,0.29996
1849.67,0.29078
1826.52,0.27888
1803.38,0.26505
1780.23,0.24986
1757.09,0.23375
1733.94,0.21160
1710.8,0.18262
1687.65,0.14169
1664.51,0.10033
1641.36,0.08807
1618.22,0.10221
1595.07,0.11881
1571.93,0.12910
1548.78,0.13026
1525.64,0.12413
1502.49,0.10150
1479.35,0.06007
1456.2,0.04107
1433.06,0.03323
1409.91,0.03818
1386.77,0.03285
1363.62,0.02919
1340.48,0.03137
1317.33,0.03029
1294.19,0.03990
1271.04,0.03860
1247.9,0.03919
1224.75,0.03685
1201.61,0.02805
1178.46,0.02494
1155.32,0.02966
1132.17,0.01953
1109.03,0.02874
1085.88,0.03184
1062.74,0.04821
1039.59,0.04227
1016.45,0.04723
993.304,0.05087
970.159,0.07277
947.014,0.10848
923.869,0.11013
900.724,0.07053
877.579,0.11256
854.434,0.11965
831.289,0.10533
808.144,0.09175
784.999,0.07802
761.854,0.06365
738.709,0.05102
715.565,0.04045
692.42,0.03933
669.275,0.03655
646.13,0.03639
622.985,0.03368
599.84,0.03732