File: 01_Data/HIPS/Cone/HIPS_HRRPUA_75.csv
Time after Ignition,HIPS_R1,HIPS_R2,HIPS_R3,Mean,Std. Dev.
0.0,7.2,24.3,11.3,14.3,9.0
0.5,9.2,29.8,18.9,19.3,10.3
1.0,16.1,32.7,25.0,24.6,8.3
1.5,21.6,47.4,40.1,36.4,13.4
2.0,39.2,59.4,52.3,50.3,10.2
2.5,52.8,77.4,80.1,70.1,15.1
3.0,77.5,99.4,99.2,92.1,12.6
3.5,99.2,124.7,136.0,120.0,18.8
4.0,133.1,152.7,156.6,147.5,12.6
4.5,162.1,183.0,192.8,179.3,15.7
5.0,186.7,216.4,221.1,208.1,18.6
5.5,219.8,243.8,240.2,234.6,13.0
6.0,239.6,285.8,268.1,264.5,23.3
6.5,279.8,313.0,288.2,293.7,17.2
7.0,306.3,333.9,308.0,316.1,15.5
7.5,324.5,366.7,346.0,345.8,21.1
8.0,348.4,385.7,379.3,371.1,19.9
8.5,377.7,415.8,392.0,395.1,19.3
9.0,399.9,432.3,420.9,417.7,16.5
9.5,410.0,465.6,436.9,437.5,27.8
10.0,432.6,493.7,444.9,457.0,32.3
10.5,462.9,530.3,458.4,483.8,40.3
11.0,463.6,530.4,505.7,499.9,33.8
11.5,478.5,545.2,516.8,513.5,33.5
12.0,493.5,571.0,524.4,529.6,39.1
12.5,490.4,582.3,527.2,533.3,46.3
13.0,554.9,587.5,558.8,567.1,17.8
13.5,552.8,625.9,542.2,573.6,45.6
14.0,582.7,627.1,575.7,595.1,27.9
14.5,615.7,635.3,599.3,616.8,18.0
15.0,630.9,680.6,616.8,642.8,33.5
15.5,651.7,680.4,616.5,649.5,32.0
16.0,652.7,698.7,634.9,662.1,32.9
16.5,645.6,717.4,624.2,662.4,48.8
17.0,712.8,742.4,651.0,702.1,46.6
17.5,704.0,738.2,668.2,703.5,35.0
18.0,727.0,725.2,698.1,716.8,16.2
18.5,715.4,757.8,711.6,728.3,25.6
19.0,763.5,812.8,700.4,758.9,56.4
19.5,762.7,790.7,730.7,761.4,30.0
20.0,771.3,816.7,740.1,776.0,38.5
20.5,806.7,833.6,784.5,808.3,24.6
21.0,807.3,871.9,757.5,812.3,57.4
21.5,813.7,836.0,772.3,807.3,32.3
22.0,816.1,876.4,789.0,827.2,44.7
22.5,847.0,869.2,780.5,832.2,46.1
23.0,872.4,884.0,807.7,854.7,41.1
23.5,818.2,890.5,787.5,832.1,52.9
24.0,846.9,868.7,826.3,847.3,21.2
24.5,855.4,863.2,834.2,850.9,15.0
25.0,892.2,867.5,847.1,869.0,22.6
25.5,867.0,926.2,839.4,877.5,44.3
26.0,873.4,914.5,855.0,880.9,30.5
26.5,914.8,956.3,904.6,925.2,27.4
27.0,926.2,942.5,894.3,921.0,24.5
27.5,965.7,948.4,869.5,927.9,51.3
28.0,935.6,905.0,901.8,914.1,18.6
28.5,939.7,942.2,877.4,919.7,36.7
29.0,934.8,993.6,930.1,952.8,35.3
29.5,972.2,965.1,909.0,948.7,34.6
30.0,931.0,1003.4,906.6,947.0,50.4
30.5,988.2,969.3,901.3,952.9,45.7
31.0,998.0,1010.9,986.3,998.4,12.3
31.5,1013.3,1002.9,942.7,986.3,38.1
32.0,1017.2,1014.9,925.8,986.0,52.1
32.5,995.6,1053.4,936.0,995.0,58.7
33.0,1006.6,1039.1,930.9,992.2,55.5
33.5,996.7,1030.5,998.0,1008.4,19.2
34.0,1023.9,1013.5,1000.2,1012.5,11.9
34.5,1024.1,1098.5,996.6,1039.7,52.7
35.0,1028.3,1068.5,1027.4,1041.4,23.5
35.5,1028.1,1091.7,1000.4,1040.1,46.8
36.0,1039.7,1146.7,1009.0,1065.1,72.3
36.5,1008.6,1104.0,1015.5,1042.7,53.2
37.0,1032.0,1066.5,1019.5,1039.3,24.3
37.5,1142.6,1176.5,1027.7,1115.6,78.0
38.0,1036.0,1166.1,1022.6,1074.9,79.2
38.5,1084.4,1138.2,1048.0,1090.2,45.4
39.0,1080.3,1200.1,1023.6,1101.3,90.1
39.5,1158.7,1085.7,1003.5,1082.6,77.7
40.0,1075.7,1194.6,1056.3,1108.9,74.9
40.5,1111.2,1215.5,1113.3,1146.7,59.6
41.0,1156.5,1129.2,1078.9,1121.5,39.4
41.5,1200.5,1199.9,1149.3,1183.2,29.4
42.0,1091.6,1189.6,1122.9,1134.7,50.1
42.5,1186.3,1171.1,1156.7,1171.4,14.8
43.0,1249.2,1283.0,1137.9,1223.4,75.9
43.5,1164.2,1230.2,1147.1,1180.5,43.9
44.0,1170.4,1225.6,1183.6,1193.2,28.8
44.5,1252.0,1203.2,1177.7,1211.0,37.8
45.0,1256.2,1258.6,1122.9,1212.6,77.7
45.5,1268.4,1256.0,1213.1,1245.8,29.0
46.0,1307.6,1221.2,1217.2,1248.6,51.1
46.5,1295.4,1286.2,1188.6,1256.7,59.2
47.0,1244.4,1347.3,1378.1,1323.3,70.0
47.5,1260.2,1238.4,1192.5,1230.4,34.6
48.0,1200.0,1305.3,1296.9,1267.4,58.5
48.5,1322.1,1344.0,1205.0,1290.4,74.7
49.0,1266.9,1354.2,1221.9,1281.0,67.3
49.5,1357.3,1294.9,1315.7,1322.6,31.8
50.0,1274.1,1310.0,1231.8,1272.0,39.1
50.5,1387.0,1341.4,1304.5,1344.3,41.3
51.0,1327.7,1303.7,1335.9,1322.5,16.7
51.5,1300.9,1282.4,1293.9,1292.4,9.3
52.0,1285.5,1305.1,1249.8,1280.1,28.1
52.5,1377.4,1342.9,1329.4,1349.9,24.8
53.0,1388.3,1385.6,1313.7,1362.5,42.3
53.5,1357.1,1326.0,1310.0,1331.0,23.9
54.0,1450.3,1338.0,1264.8,1351.0,93.4
54.5,1389.7,1343.5,1476.4,1403.2,67.5
55.0,1428.2,1442.3,1285.4,1385.3,86.8
55.5,1277.6,1288.3,1320.4,1295.4,22.3
56.0,1408.5,1379.9,1323.5,1370.6,43.2
56.5,1420.7,1409.8,1339.0,1389.8,44.4
57.0,1361.0,1371.3,1340.7,1357.7,15.6
57.5,1508.6,1430.3,1387.5,1442.1,61.4
58.0,1534.2,1591.7,1420.4,1515.4,87.2
58.5,1320.9,1397.8,1379.0,1365.9,40.1
59.0,1485.5,1453.2,1325.5,1421.4,84.6
59.5,1443.3,1509.3,1366.8,1439.8,71.3
60.0,1494.6,1424.7,1507.2,1475.5,44.4
60.5,1427.1,1457.1,1373.1,1419.1,42.6
61.0,1461.1,1660.4,1559.7,1560.4,99.7
61.5,1456.8,1315.2,1283.7,1351.9,92.2
62.0,1490.4,1562.6,1337.0,1463.4,115.2
62.5,1439.9,1484.2,1385.5,1436.5,49.4
63.0,1448.8,1546.7,1396.5,1464.0,76.2
63.5,1488.5,1558.4,1379.9,1475.6,89.9
64.0,1528.9,1544.7,1471.8,1515.1,38.3
64.5,1495.1,1461.6,1475.0,1477.2,16.9
65.0,1624.1,1567.7,1352.4,1514.7,143.4
65.5,1470.8,1699.3,1496.4,1555.5,125.2
66.0,1633.4,1578.6,1414.6,1542.2,113.8
66.5,1508.8,1553.0,1496.0,1519.2,29.9
67.0,1582.6,1642.1,1404.3,1543.0,123.8
67.5,1453.3,1594.4,1375.4,1474.4,111.0
68.0,1520.7,1431.7,1489.5,1480.7,45.2
68.5,1584.0,1561.1,1499.4,1548.2,43.7
69.0,1646.1,1488.5,1406.6,1513.7,121.7
69.5,1497.5,1559.9,1493.1,1516.9,37.4
70.0,1608.6,1528.7,1455.5,1531.0,76.6
70.5,1613.7,1462.0,1450.3,1508.7,91.1
71.0,1501.6,1495.9,1410.3,1469.3,51.1
71.5,1619.4,1508.1,1474.8,1534.1,75.7
72.0,1602.9,1497.2,1409.5,1503.2,96.8
72.5,1529.2,1487.5,1454.7,1490.5,37.3
73.0,1558.9,1544.7,1437.4,1513.7,66.5
73.5,1526.9,1531.0,1511.0,1523.0,10.6
74.0,1838.7,1531.4,1463.3,1611.2,200.0
74.5,1609.1,1630.0,1422.1,1553.7,114.5
75.0,1484.3,1471.3,1432.3,1462.6,27.1
75.5,1525.6,1473.3,1536.2,1511.7,33.7
76.0,1568.8,1552.4,1485.9,1535.7,43.9
76.5,1579.6,1596.7,1399.4,1525.2,109.3
77.0,1574.1,1454.9,1358.3,1462.4,108.1
77.5,1516.1,1484.9,1466.5,1489.2,25.1
78.0,1544.2,1394.8,1359.9,1433.0,97.9
78.5,1564.8,1460.8,1401.3,1475.6,82.7
79.0,1467.2,1387.0,1404.3,1419.5,42.2
79.5,1584.3,1496.2,1413.6,1498.0,85.3
80.0,1432.4,1438.2,1419.6,1430.1,9.5
80.5,1434.9,1342.5,1342.0,1373.1,53.5
81.0,1409.6,1390.3,1384.2,1394.7,13.2
81.5,1406.7,1430.9,1342.9,1393.5,45.5
82.0,1425.8,1326.1,1363.7,1371.9,50.3
82.5,1421.5,1380.3,1261.8,1354.5,82.9
83.0,1366.6,1282.8,1360.0,1336.5,46.6
83.5,1328.4,1305.0,1339.8,1324.4,17.7
84.0,1370.8,1272.4,1379.5,1340.9,59.5
84.5,1303.3,1248.3,1291.4,1281.0,29.0
85.0,1345.7,1235.1,1342.5,1307.8,62.9
85.5,1240.7,1202.2,1291.0,1244.6,44.5
86.0,1204.8,1120.4,1334.9,1220.0,108.1
86.5,1148.2,1172.1,1224.5,1181.6,39.0
87.0,1193.9,1106.5,1195.2,1165.2,50.9
87.5,1104.5,1098.5,1217.8,1140.3,67.2
88.0,1067.6,1085.3,1155.6,1102.8,46.6
88.5,988.3,1038.5,1118.0,1048.3,65.4
89.0,1047.0,997.0,1092.4,1045.5,47.7
89.5,1013.4,976.8,1116.3,1035.5,72.3
90.0,961.7,941.9,1088.7,997.4,79.6
90.5,947.3,913.9,1089.3,983.5,93.1
91.0,880.2,866.5,1068.5,938.4,112.9
91.5,851.4,877.8,1017.7,915.6,89.4
92.0,841.9,841.4,1015.9,899.7,100.6
92.5,798.3,799.3,954.6,850.8,89.9
93.0,751.9,739.0,919.6,803.5,100.8
93.5,703.8,729.2,916.7,783.2,116.3
94.0,689.3,715.6,890.5,765.1,109.4
94.5,627.5,669.6,823.7,706.9,103.3
95.0,598.4,655.4,798.5,684.1,103.1
95.5,587.3,624.4,757.9,656.6,89.7
96.0,552.9,578.9,743.4,625.1,103.3
96.5,517.8,561.9,700.7,593.5,95.4
97.0,491.7,516.1,674.9,560.9,99.5
97.5,450.5,484.3,633.7,522.8,97.5
98.0,413.8,442.3,619.1,491.7,111.2
98.5,381.3,413.1,579.1,457.8,106.3
99.0,347.5,369.5,562.2,426.4,118.1
99.5,311.9,333.1,536.8,393.9,124.2
100.0,285.7,,510.4,398.1,158.9
100.5,262.0,,481.7,371.9,155.4