File: 01_Data/HIPS/Cone/HIPS_Cone_HF25Scan_220218_R3.csv
Names,Time,Stack TC,Smoke TC,Exh Press,Smoke Comp,Smoke Meas,CO Meter,CO2 Meter,O2 Meter,Sample Mass,Ext Coeff,Start Test,Flame Verif
Chan Gain,,500,500,1,1,1,1,1,1,1,1,1.0,1.0
Offset,,0,0,0.134285,0,0,0,0,0,0,0,0.0,0.0
Gain,,1,1,25.011,13.3843,12.7012,1,1,1,1.00088,1.02252,1.0,1.0
Units,sec,C,C,Pa,%,%,%,%,%,g,/m,,
Baseline,,21.4363,20.8581,155.368,100.22,97.6802,0.000106534,0.0498375,21.0064,0.00717295,0.230215,,
18,4.25,19.7467,19.2078,153.981,99.4566,97.0183,0.0002562,0.0523379,21.0051,897.996,0.222644,0.0,0.0
36,8.75,19.6251,19.0027,151.402,99.7091,97.2443,0.000246659,0.0505823,21.0067,897.966,0.224513,0.0,0.0
54,13.25,19.6395,19.1644,156.164,99.9901,97.4447,0.000155063,0.0487998,21.0099,897.956,0.231292,0.0,0.0
72,17.75,20.0593,19.5631,150.399,100.239,97.6683,0.000109451,0.0474226,21.0108,897.966,0.233016,0.0,0.0
90,22.25,19.834,19.972,153.054,100.476,97.754,-1.25345e-05,0.0466997,21.0108,897.936,0.246362,0.0,0.0
108,26.75,19.8754,20.1879,156.312,100.686,98.4369,-0.000144604,0.0481673,21.0097,897.956,0.202636,0.0,0.0
126,31.25,19.9391,19.6781,156.671,100.847,98.235,-0.000196044,0.0494622,21.009,897.946,0.235381,0.0,0.0
144,35.75,19.9701,19.6939,151.379,100.955,98.3846,-0.000167195,0.0489031,21.0107,897.936,0.231317,0.0,0.0
162,40.25,19.7189,20.0603,152.488,101,98.4831,-2.90995e-05,0.0484188,21.0116,898.286,0.226372,0.0,0.0
180,44.75,20.2712,20.3046,151.718,101.014,98.2393,-1.48182e-05,0.0485712,21.0116,897.946,0.249838,0.0,0.0
198,49.25,19.879,19.7941,157.415,100.982,98.1474,-0.000175604,0.0495689,21.0088,897.946,0.2554,0.0,0.0
216,53.75,20.2139,20.311,155.026,100.895,97.9683,-0.000174365,0.0492241,21.0095,897.936,0.264013,0.0,0.0
234,58.25,19.8797,19.6202,150.263,100.78,97.514,-4.67608e-05,0.0483598,21.0119,897.956,0.295492,0.0,0.0
252,62.75,20.225,19.8048,154.095,100.693,97.6644,0.000239353,0.0478548,21.0128,897.916,0.273886,0.0,0.0
270,67.25,20.1004,19.9457,151.422,100.604,97.4485,-5.61821e-05,0.0474214,21.0126,897.926,0.285873,0.0,0.0
288,71.75,20.2486,19.7677,155.676,100.465,97.3582,3.61348e-05,0.047177,21.012,897.896,0.281728,0.0,0.0
306,76.25,19.8038,20.4152,151.587,100.392,97.2039,0.000195983,0.0469082,21.0119,897.916,0.289421,0.0,0.0
324,80.75,19.8172,20.0872,155.332,100.294,96.7148,0.000147983,0.046856,21.012,897.906,0.325947,0.0,0.0
342,85.25,20.1055,19.6943,154.922,100.334,97.114,4.85052e-05,0.0467153,21.0124,897.866,0.29254,0.0,0.0
360,89.75,20.2976,20.5706,155.684,100.597,97.2861,0.000159943,0.0475641,21.0115,897.866,0.300178,0.0,0.0
378,94.25,19.9767,20.3999,155.287,100.762,97.3877,0.000227941,0.0494148,21.0084,897.866,0.305522,0.0,0.0
396,98.75,19.8844,20.3076,154.696,100.887,97.4098,-4.50038e-06,0.0497935,21.0077,897.836,0.31457,0.0,0.0
414,103.25,20.5398,20.0181,151.404,100.925,97.1508,-7.60384e-05,0.0492278,21.006,897.826,0.341892,0.0,0.0
432,107.75,20.2177,20.2662,154.044,100.875,96.8295,-5.85466e-05,0.0487157,21.0074,897.846,0.367107,0.0,0.0
450,112.25,20.043,20.1416,155.205,100.735,97.0419,-0.000160158,0.0486097,21.0087,897.816,0.334985,0.0,0.0
468,116.75,20.0533,20.2733,152.785,100.5,96.3613,-6.07639e-06,0.0475505,21.0119,897.806,0.377182,0.0,0.0
486,121.25,20.0601,20.5046,155.713,100.167,96.4694,-8.19532e-06,0.0469347,21.014,897.826,0.337398,0.0,0.0
504,125.75,20.1156,20.5464,156.38,100.205,96.2745,-0.000322002,0.0470383,21.0129,897.786,0.358909,0.0,0.0
522,130.25,20.4577,20.4425,155.76,100.306,95.7368,0.000177115,0.0473466,21.0113,897.766,0.418162,0.0,0.0
540,134.75,20.1054,20.8485,156.624,100.375,96.0686,0.000342799,0.0491255,21.0096,897.726,0.393338,0.0,0.0
558,139.25,20.5992,20.7872,152.512,100.459,95.4454,0.000170977,0.0486752,21.009,897.726,0.459236,0.0,0.0
576,143.75,20.8945,20.5655,158.119,100.503,96.0462,0.000454691,0.0528318,21.0024,897.686,0.406818,0.0,0.0
594,148.25,20.0216,20.6873,149.282,100.514,87.1137,0.00214855,0.0815303,20.9508,897.606,1.28336,0.0,1.0
612,152.75,21.7332,23.236,135.692,100.479,58.4973,0.0102819,0.255603,20.6314,897.296,4.85218,0.0,1.0
630,157.25,26.5797,29.8567,128.923,100.415,50.5284,0.0225346,0.582816,20.1372,896.635,6.16002,0.0,0.0
648,161.75,32.0659,37.3948,122.25,100.366,48.1787,0.0286435,0.753194,19.9269,896.004,6.58275,0.0,0.0
666,166.25,37.5595,44.9081,119.506,100.25,46.0953,0.0311786,0.822371,19.821,895.374,6.96892,0.0,0.0
684,170.75,42.2923,50.8663,111.08,100.11,47.362,0.0330582,0.868219,19.7546,894.823,6.71322,0.0,0.0
702,175.25,46.9109,57.1255,107.701,99.9407,43.9379,0.0353376,0.918047,19.679,894.113,7.37113,0.0,0.0
720,179.75,52.2205,64.0916,108.78,99.7793,43.0506,0.0395498,0.993234,19.5525,893.412,7.53961,0.0,0.0
738,184.25,56.8598,70.0234,113.463,99.6098,41.0793,0.0432621,1.06653,19.4665,892.672,7.94479,0.0,0.0
756,188.75,61.9508,76.8796,115.49,99.4575,41.4382,0.0468459,1.16198,19.308,891.861,7.85303,0.0,0.0
774,193.25,68.1632,85.2059,107.536,99.2998,36.2446,0.0501275,1.26698,19.1518,890.95,9.03993,0.0,0.0
792,197.75,73.2897,91.567,111.047,99.1393,34.669,0.0533729,1.35755,19.0261,890.099,9.42407,0.0,0.0
810,202.25,78.3412,98.5072,98.0822,99.0286,35.9244,0.0569212,1.42923,18.9032,889.058,9.09498,0.0,0.0
828,206.75,83.4189,105.844,106.73,98.922,34.1496,0.0624361,1.50418,18.8089,888.188,9.53978,0.0,0.0
846,211.25,89.2342,112.664,105.396,98.873,32.0828,0.0672208,1.57811,18.6933,887.117,10.0953,0.0,0.0
864,215.75,93.3924,118.293,101.063,98.8174,31.1937,0.0711696,1.64742,18.5867,886.116,10.3423,0.0,0.0
882,220.25,98.5382,124.975,103.762,98.8109,32.0317,0.0723896,1.68425,18.5315,885.045,10.104,0.0,0.0
900,224.75,103.185,130.396,112.563,98.828,29.7424,0.0749921,1.73014,18.4615,883.934,10.7706,0.0,0.0
918,229.25,107.525,136.321,102.186,98.8799,29.5696,0.078486,1.78387,18.3899,882.843,10.8276,0.0,0.0
936,233.75,111.722,140.994,99.6889,98.9547,29.6754,0.0797188,1.81445,18.346,881.702,10.8023,0.0,0.0
954,238.25,115.789,145.76,105.749,99.0437,27.8428,0.0825591,1.84307,18.3011,880.571,11.3822,0.0,0.0
972,242.75,118.887,149.621,105.874,99.1552,28.0385,0.083083,1.83085,18.307,879.44,11.3294,0.0,0.0
990,247.25,121.676,152.92,100.935,99.2659,28.2048,0.0851957,1.86914,18.2424,878.299,11.2864,0.0,0.0
1008,251.75,125.124,157.046,96.8915,99.3868,28.2145,0.0855395,1.89918,18.2076,877.208,11.2942,0.0,0.0
1026,256.25,128.501,161.011,91.7455,99.5118,28.4451,0.0860803,1.92951,18.1745,876.057,11.2325,0.0,0.0
1044,260.75,131.31,164.034,89.6045,99.6184,28.8362,0.0869601,1.93817,18.1599,874.896,11.1196,0.0,0.0
1062,265.25,133.387,166.783,95.6054,99.7454,27.8199,0.0882606,1.94005,18.1595,873.745,11.4529,0.0,0.0
1080,269.75,135.433,168.805,100.799,99.8529,28.1478,0.086325,1.90495,18.2016,872.614,11.3574,0.0,0.0
1098,274.25,136.41,169.76,115.038,99.9746,32.2728,0.0839849,1.88121,18.2295,871.533,10.1417,0.0,0.0
1116,278.75,137.783,170.837,99.5767,100.071,30.5235,0.0782077,1.80108,18.3557,870.512,10.6502,0.0,0.0
1134,283.25,138.688,170.774,103.124,100.158,35.4527,0.0715034,1.68607,18.5284,869.551,9.31529,0.0,0.0
1152,287.75,138.176,168.938,111.863,100.223,40.2746,0.060214,1.48297,18.8452,868.741,8.17724,0.0,0.0
1170,292.25,134.039,162.964,117.618,100.307,45.9081,0.0452749,1.1595,19.3426,868.16,7.0105,0.0,0.0
1188,296.75,129.161,154.736,131.874,100.376,56.2867,0.0291395,0.803208,19.8453,867.75,5.1885,0.0,0.0
1206,301.25,121.658,143.604,140.626,100.448,87.7831,0.0155913,0.470662,20.3161,867.7,1.20886,0.0,0.0
1224,305.75,113.179,131.601,147.406,100.499,91.4421,0.00739275,0.234738,20.7185,867.65,0.847094,0.0,0.0
1242,310.25,105.627,121.105,145.061,100.53,94.0023,0.00365244,0.1362,20.8726,867.65,0.602228,0.0,0.0
1260,314.75,98.0911,110.687,143.752,100.564,93.9538,0.00178038,0.0927255,20.9407,867.64,0.609876,0.0,0.0
1278,319.25,91.61,102.345,147.294,100.558,94.1302,0.00124705,0.0744109,20.9684,867.63,0.592508,0.0,0.0
1296,323.75,86.267,94.9437,146.925,100.566,94.4581,0.000976085,0.0677233,20.9734,867.62,0.562009,0.0,0.0
1314,328.25,81.8375,88.4057,144.534,100.55,95.0112,0.000525529,0.0646665,20.9762,867.65,0.508254,0.0,0.0
1332,332.75,77.135,82.3872,145.29,100.532,94.3011,0.000203172,0.062868,20.9774,867.65,0.573904,0.0,0.0
1350,337.25,73.2477,76.99,151.563,100.493,95.1105,0.000263015,0.0614602,20.9789,867.61,0.493716,0.0,0.0
1368,341.75,69.4774,72.3282,150.721,100.463,94.1876,0.000148961,0.0604742,20.9805,867.62,0.578515,0.0,0.0
1386,346.25,66.193,67.8861,143.375,100.419,94.945,0.00029216,0.0595948,20.9808,867.62,0.502738,0.0,0.0
1404,350.75,63.204,64.7147,150.098,100.37,94.9081,0.000405317,0.058845,20.9815,867.63,0.501838,0.0,0.0
1422,355.25,60.7978,60.6744,151.504,100.335,94.8512,0.000229609,0.058375,20.981,867.61,0.504158,0.0,0.0
1440,359.75,59.0639,58.1079,154.95,100.281,95.3485,0.000242968,0.0580385,20.9809,867.61,0.45236,0.0,0.0
1458,364.25,55.641,54.8885,147.907,100.251,95.0225,4.20289e-05,0.0579312,20.9834,867.63,0.480446,0.0,0.0
1476,368.75,54.7809,53.6387,147.734,100.215,94.7577,0.000384648,0.0571672,20.9828,867.63,0.502254,0.0,0.0
1494,373.25,52.6389,51.1706,151.767,100.158,95.2485,0.000200334,0.0568699,20.9825,867.64,0.450768,0.0,0.0
1512,377.75,51.12,49.5735,147.486,100.127,95.6853,0.000138477,0.056592,20.9846,867.65,0.406945,0.0,0.0
1530,382.25,49.405,47.5802,151.689,100.07,95.1488,-5.36824e-06,0.0564507,20.9852,867.64,0.452323,0.0,0.0
1548,386.75,47.8345,45.7632,148.821,100.022,96.1051,0.000129747,0.0564511,20.9878,867.64,0.358272,0.0,0.0
1566,391.25,46.5031,43.6892,149.8,99.9619,95.6175,0.000632193,0.0560898,20.9878,867.63,0.398549,0.0,0.0
1584,395.75,45.7906,43.1877,145.253,99.9194,95.1469,0.000759411,0.0561932,20.9852,867.64,0.438986,0.0,0.0
1602,400.25,44.8378,42.1677,145.817,99.8247,95.1306,0.000647229,0.0560183,20.9863,867.66,0.43201,0.0,0.0
1620,404.75,44.0143,41.1074,146.623,99.7773,95.7113,0.000378061,0.056349,20.9869,867.65,0.373171,0.0,0.0
1638,409.25,43.0757,40.0774,149.935,99.7066,94.8988,0.000229499,0.0561504,20.987,867.67,0.443278,0.0,0.0
1656,413.75,41.6538,38.9381,150.947,99.5784,94.4969,0.000546996,0.0556291,20.9896,867.67,0.469805,0.0,0.0
1674,418.25,40.7941,37.6754,149.892,99.4044,95.2551,0.000454321,0.0544997,20.9915,867.67,0.382441,0.0,0.0
1692,422.75,40.0514,37.1096,149.907,99.2565,94.7546,,0.0537383,,867.66,0.416333,0.0,0.0
1710,427.25,39.6948,36.9821,145.317,99.1058,94.5942,,,,867.66,0.417905,0.0,0.0
1728,431.75,39.308,36.8942,148.298,98.9551,94.5721,,,,867.66,0.406349,0.0,0.0
1733,433,38.9111,36.0979,153.849,98.944,95.0205,,,,867.67,0.362917,0.0,0.0