File: 01_Data/HIPS/Cone/HIPS_Cone_HF25Scalar_220218_R1.csv
LABORATORY,FSRI
TEST IDENT,PlasticB_HF25_1
OPERATOR,Dow
MATERIAL,Plastic B
ORIENTATION,Horizontal
HEAT FLUX,25
SURF AREA,0.01
C FACTOR,0.0385692
SPEC HOLDER DIFF,302.95
SPECIMEN MASS,31.4
SCAN TIME,0.25
O2 DELAY TIME,11
CO DELAY TIME,11
CO2 DELAY TIME,8
FLOW FACTOR,1
SCAN COUNT,1816
TIME TO IGN,136.25
END OF TEST SCAN,1336
END OF TEST TIME,334
TEST STATUS,1
PRE TEST CMT,Dimensions: 100.0 x 99.6 x 2.91 mm