File: 01_Data/HIPS/Cone/HIPS_Cone_HF50Scan_220218_R2.csv
Names,Time,Stack TC,Smoke TC,Exh Press,Smoke Comp,Smoke Meas,CO Meter,CO2 Meter,O2 Meter,Sample Mass,Ext Coeff,Start Test,Flame Verif
Chan Gain,,500,500,1,1,1,1,1,1,1,1,1.0,1.0
Offset,,0,0,0.134285,0,0,0,0,0,0,0,0.0,0.0
Gain,,1,1,25.011,13.3843,12.7012,1,1,1,1.00088,1.02252,1.0,1.0
Units,sec,C,C,Pa,%,%,%,%,%,g,/m,,
Baseline,,31.4648,32.4345,149.192,100.266,95.0865,0.000262075,0.0471871,21.0104,-0.0793195,0.475841,,
12,2.75,27.7196,28.1491,147.573,101.073,95.4109,0.000159397,0.056206,20.999,897.706,0.517125,0.0,0.0
24,5.75,27.8538,28.4144,150.331,101.097,96.6004,0.000100003,0.0567105,21.0005,897.696,0.408124,0.0,0.0
36,8.75,28.5305,29.1434,148.845,101.107,95.6144,8.8764e-05,0.0549167,21.0023,897.726,0.501023,0.0,0.0
48,11.75,28.3622,28.9119,147.237,101.124,95.8907,-5.08664e-05,0.0525478,21.0051,897.716,0.476583,0.0,0.0
60,14.75,28.5484,29.2517,147.105,101.144,95.8407,-0.000332446,0.0501151,21.009,897.736,0.483109,0.0,0.0
72,17.75,28.8241,29.6912,149.978,101.164,96.1516,-0.000369079,0.0487549,21.0115,897.716,0.455767,0.0,0.0
84,20.75,28.6558,29.4748,146.165,101.176,95.5233,-0.000200388,0.0479967,21.0131,897.696,0.515693,0.0,0.0
96,23.75,29.0739,29.6173,149.755,101.168,95.1872,-4.72157e-05,0.0476501,21.0119,897.696,0.546616,0.0,0.0
108,26.75,29.1195,29.7275,145.354,101.16,95.3973,-7.89258e-05,0.0475141,21.0116,897.676,0.526044,0.0,0.0
120,29.75,28.9491,29.8671,149.633,101.151,94.5201,-9.57471e-07,0.047513,21.0115,897.686,0.608175,0.0,0.0
132,32.75,29.1047,29.9579,149.187,101.117,94.0015,0.000235841,0.048713,21.0098,897.656,0.654518,0.0,0.0
144,35.75,29.0787,30.3155,149.345,101.096,93.7259,0.000595188,0.0537309,21.0026,897.746,0.678933,0.0,0.0
156,38.75,29.4123,30.509,140.781,101.054,86.6408,0.00269406,0.0864623,20.9417,897.546,1.38024,0.0,1.0
168,41.75,30.0234,31.8943,132.544,100.999,55.2382,0.0087836,0.226216,20.705,897.266,5.41272,0.0,1.0
180,44.75,32.0323,35.2264,127.301,100.948,52.099,0.0173005,0.441787,20.3405,896.945,5.93295,0.0,0.0
192,47.75,35.8942,40.2707,118.608,100.885,42.8793,0.0245564,0.640636,20.0361,896.565,7.67419,0.0,0.0
204,50.75,39.8678,46.042,112.844,100.806,44.16,0.0309503,0.801536,19.831,896.125,7.40321,0.0,0.0
216,53.75,44.0711,52.1945,121.01,100.737,40.6114,0.0356249,0.919571,19.6557,895.604,8.14844,0.0,0.0
228,56.75,48.1597,58.2635,107.902,100.667,38.214,0.0401495,1.02167,19.526,895.084,8.68794,0.0,0.0
240,59.75,53.1734,64.4558,108.218,100.584,36.8109,0.0452041,1.124,19.3607,894.493,9.01616,0.0,0.0
252,62.75,58.3176,70.8629,108.772,100.538,33.5999,0.0502049,1.2209,19.2234,893.913,9.83068,0.0,0.0
264,65.75,62.451,77.2747,110.398,100.479,32.9507,0.0554519,1.30285,19.0853,893.312,10.0004,0.0,0.0
276,68.75,67.5147,83.6243,103.33,100.435,30.4727,0.0603928,1.39552,18.9395,892.632,10.6977,0.0,0.0
288,71.75,72.144,90.3178,99.8652,100.386,29.9091,0.0664255,1.50335,18.7944,891.981,10.8608,0.0,0.0
300,74.75,76.2087,97.0368,95.7939,100.442,26.0388,0.0734541,1.61973,18.599,891.24,12.1088,0.0,0.0
312,77.75,81.6286,104.659,99.8599,100.564,27.5842,0.0795541,1.74343,18.4493,890.5,11.6024,0.0,0.0
324,80.75,87.6036,112.184,97.7441,100.656,23.7461,0.0847722,1.86473,18.278,889.679,12.9545,0.0,0.0
336,83.75,92.9635,119.365,97.6364,100.746,25.94,0.0918409,1.97573,18.0972,888.778,12.1699,0.0,0.0
348,86.75,98.1152,127.319,90.7479,100.817,22.6221,0.101522,2.10902,17.9008,887.937,13.4038,0.0,0.0
360,89.75,103.697,134.37,108.84,100.882,20.4394,0.110373,2.22174,17.7242,887.107,14.3197,0.0,0.0
372,92.75,109.501,142.592,90.999,100.923,23.4434,0.117647,2.32514,17.5852,886.126,13.0934,0.0,0.0
384,95.75,114.952,149.436,86.0041,100.973,20.553,0.124342,2.42704,17.4238,885.155,14.278,0.0,0.0
396,98.75,120.111,156.757,90.9944,100.987,18.5084,0.131248,2.52914,17.2889,884.164,15.2191,0.0,0.0
408,101.75,125.1,164.192,82.09,100.982,19.3762,0.138286,2.65693,17.1196,883.093,14.8077,0.0,0.0
420,104.75,130.372,171.659,84.4783,100.969,17.7754,0.145851,2.78924,16.9466,882.152,15.58,0.0,0.0
432,107.75,136.351,179.636,83.9906,100.939,18.4285,0.152118,2.85705,16.8505,880.941,15.2537,0.0,0.0
444,110.75,139.868,184.657,83.8425,100.905,15.6668,0.1595,2.85925,16.7866,879.85,16.7069,0.0,0.0
456,113.75,144.752,191.553,79.5407,100.858,15.8335,0.170537,3.00869,16.5716,878.749,16.6078,0.0,0.0
468,116.75,150.115,199.223,91.1692,100.781,14.8869,0.179713,3.1437,16.4182,877.628,17.1538,0.0,0.0
480,119.75,154.507,205.398,70.3181,100.711,14.385,0.182923,3.13882,16.4117,876.598,17.4553,0.0,0.0
492,122.75,158.138,210.478,79.1598,100.63,15.1664,0.180048,3.09236,16.472,875.406,16.9736,0.0,0.0
504,125.75,161.371,214.255,79.4415,100.535,16.6955,0.173228,3.0568,16.5304,874.356,16.1035,0.0,0.0
516,128.75,164.871,218.612,82.2862,100.46,15.835,0.164477,3.03294,16.5905,873.385,16.5715,0.0,0.0
528,131.75,167.148,221.053,77.4249,100.311,17.4149,0.154405,2.91613,16.7638,872.354,15.7051,0.0,0.0
540,134.75,169.539,223.328,82.4961,100.211,18.0808,0.141953,2.79764,16.9264,871.423,15.3596,0.0,0.0
552,137.75,170.247,223.228,92.2973,100.167,20.4003,0.126818,2.56724,17.2963,870.582,14.2731,0.0,0.0
564,140.75,167.984,219.379,99.1073,100.169,24.7186,0.109005,2.25764,17.7207,869.822,12.551,0.0,0.0
576,143.75,168.559,218.104,100.474,100.186,31.0882,0.0911518,1.96725,18.1588,869.111,10.4961,0.0,0.0
588,146.75,166.708,213.929,101.105,100.215,33.9496,0.0759006,1.67578,18.5075,868.55,9.70893,0.0,0.0
600,149.75,163.536,208.045,109.308,100.24,37.7357,0.060241,1.41152,18.9331,868.14,8.76287,0.0,0.0
612,152.75,160.091,201.611,115.351,100.264,42.2107,0.0473423,1.10241,19.4513,867.72,7.75978,0.0,0.0
624,155.75,155.227,193.048,124.475,100.283,55.1491,0.0362255,0.831838,19.8339,867.49,5.36336,0.0,0.0
636,158.75,149.113,183.419,135.132,100.307,73.0063,0.0271766,0.574986,20.2596,867.349,2.84952,0.0,0.0
648,161.75,143.032,174.153,134.958,100.325,87.2606,0.0220723,0.341664,20.5902,867.299,1.25135,0.0,0.0
660,164.75,136.629,164.355,137.07,100.336,89.7502,0.0211294,0.205103,20.7931,867.299,1.00009,0.0,0.0
672,167.75,129.98,154.746,140.855,100.376,89.5979,0.0209226,0.133247,20.8856,867.309,1.01883,0.0,0.0
684,170.75,125.192,146.614,138.435,100.384,90.6456,0.0200048,0.102036,20.9254,867.279,0.915282,0.0,0.0
696,173.75,119.62,139.501,140.963,100.395,90.525,0.0186892,0.0879101,20.9458,867.279,0.92824,0.0,0.0
708,176.75,114.634,132.034,143.199,100.408,89.7836,0.0169577,0.0800977,20.9585,867.239,1.00314,0.0,0.0
720,179.75,110.616,126.117,140.93,100.425,90.7316,0.0151477,0.0752165,20.9672,867.239,0.910421,0.0,0.0
732,182.75,106.837,120.271,141.81,100.42,90.0479,0.0128179,0.0714489,20.9741,867.229,0.977868,0.0,0.0
744,185.75,103.291,115.471,141.485,100.429,89.932,0.0105822,0.0683835,20.9792,867.229,0.990186,0.0,0.0
756,188.75,100.273,110.701,143.362,100.436,91.0596,0.00856872,0.0655421,20.9843,867.239,0.879083,0.0,0.0
768,191.75,96.6588,105.923,141.896,100.437,91.4452,0.00691118,0.0630571,20.9893,867.219,0.84121,0.0,0.0
780,194.75,93.3789,101.992,138.782,100.441,91.139,0.00550146,0.0608442,20.9906,867.209,0.871698,0.0,0.0
792,197.75,90.3498,97.5036,141.364,100.445,90.9018,0.0042343,0.0590934,20.9937,867.199,0.895438,0.0,0.0
804,200.75,87.5715,94.09,143.471,100.441,91.0572,0.00330093,0.0575921,20.9958,867.219,0.879787,0.0,0.0
816,203.75,85.117,90.9048,141.881,100.444,91.7755,0.0027118,0.0559366,20.9978,867.199,0.80957,0.0,0.0
828,206.75,82.6842,87.6699,139.757,100.462,91.4735,0.0021288,0.0547995,20.9997,867.189,0.840733,0.0,0.0
840,209.75,80.1949,84.5478,143.257,100.456,90.275,0.00157582,0.0536007,21.0009,867.169,0.958445,0.0,0.0
852,212.75,78.7889,82.5228,142.135,100.472,92.0007,0.00123419,0.0528325,21.0044,867.179,0.79003,0.0,0.0
864,215.75,76.1998,79.4632,142.287,100.479,91.5991,0.00105005,0.052311,21.0059,867.189,0.82996,0.0,0.0
876,218.75,74.7522,77.3302,139.456,100.478,91.5073,0.000918537,0.0518616,21.0065,867.169,0.838812,0.0,0.0
888,221.75,73.3683,75.1177,141.186,100.476,91.2929,0.000698471,0.0514796,21.0061,867.179,0.859666,0.0,0.0
900,224.75,72.0295,73.4343,144.418,100.473,91.7704,0.000662768,0.0507232,21.0076,867.169,0.812615,0.0,0.0
912,227.75,70.4394,71.2093,143.333,100.478,91.47,0.000730194,0.0502551,21.0081,867.169,0.842461,0.0,0.0
924,230.75,68.936,69.7369,143.374,100.481,91.6247,0.000741781,0.049756,21.0084,867.159,0.827564,0.0,0.0
936,233.75,67.839,68.3217,140.442,100.448,91.7224,0.000776195,0.0494876,21.0097,867.179,0.815053,0.0,0.0
948,236.75,66.6985,67.0815,139.576,100.432,91.2227,0.000640026,0.0491346,21.0109,867.169,0.862695,0.0,0.0
960,239.75,65.634,65.4447,138.183,100.414,91.3092,0.000350792,0.0487719,21.0104,867.179,0.852559,0.0,0.0
972,242.75,63.9601,63.9234,145.034,100.394,91.8739,0.000195991,0.0485623,21.0105,867.199,0.795466,0.0,0.0
984,245.75,63.549,63.2112,143.329,100.363,91.9588,0.000366633,0.0483509,21.0106,867.169,0.784445,0.0,0.0
996,248.75,61.8785,61.9064,144.095,100.311,92.0065,0.000328307,0.0481681,21.012,867.189,0.775086,0.0,0.0
1008,251.75,61.5255,61.1111,147.806,100.257,92.0449,0.000273699,0.0478248,21.0127,867.189,0.766523,0.0,0.0
1020,254.75,60.9883,60.0666,139.847,100.228,91.3138,0.00036446,0.0475032,21.0123,867.189,0.835449,0.0,0.0
1032,257.75,59.8555,58.823,145.811,100.178,92.1088,0.000267757,0.0472062,21.0122,867.199,0.753237,0.0,0.0
1044,260.75,58.7986,58.2778,144.876,100.123,92.5495,0.000264934,0.0470725,21.0121,867.159,0.705521,0.0,0.0
1056,263.75,58.2629,57.3652,145.165,100.066,91.7499,0.000126807,0.0471046,21.0117,867.179,0.778268,0.0,0.0
1068,266.75,57.763,56.1376,143.775,100.002,91.5429,0.000129625,0.0470986,21.0115,867.179,0.792775,0.0,0.0
1080,269.75,56.6843,56.0658,142.917,99.9476,92.0146,0.000194362,0.0469186,21.0115,867.169,0.741764,0.0,0.0
1092,272.75,56.4174,54.8249,147.723,99.8631,91.996,8.59515e-05,0.0466859,21.0115,867.169,0.735987,0.0,0.0
1104,275.75,55.4357,54.2154,142.564,99.7985,90.9309,,0.0466361,,867.179,0.834645,0.0,0.0
1116,278.75,55.4943,53.2536,147.592,99.7483,91.8906,,,,867.179,0.735958,0.0,0.0
1128,281.75,55.1703,53.3363,144.06,99.6731,92.7212,,,,867.169,0.648481,0.0,0.0
1138,284.25,55.0259,52.8613,143.192,99.6327,91.8402,,,,867.179,0.730476,0.0,0.0