File: 01_Data/HIPS/Cone/HIPS_Cone_HF75Scan_220218_R3.csv
Names,Time,Stack TC,Smoke TC,Exh Press,Smoke Comp,Smoke Meas,CO Meter,CO2 Meter,O2 Meter,Sample Mass,Ext Coeff,Start Test,Flame Verif
Chan Gain,,500,500,1,1,1,1,1,1,1,1,1.0,1.0
Offset,,0,0,0.134285,0,0,0,0,0,0,0,0.0,0.0
Gain,,1,1,25.011,13.3843,12.7012,1,1,1,1.00088,1.02252,1.0,1.0
Units,sec,C,C,Pa,%,%,%,%,%,g,/m,,
Baseline,,50.5569,49.6248,151.252,100.834,93.7023,-0.000505934,0.0469659,21.0121,-0.319363,0.658132,,
10,2.25,44.7657,44.5253,153.824,100.623,93.6143,-0.000305166,0.0559356,21.0065,514.31,0.647559,0.0,0.0
20,4.75,44.9448,43.8256,155.622,100.577,94.231,-0.000496708,0.0537977,21.0107,514.23,0.584587,0.0,0.0
30,7.25,44.687,44.4555,154.906,100.543,93.4372,-0.000713586,0.0521862,21.0121,514.33,0.657444,0.0,0.0
40,9.75,45.1554,44.7534,152.429,100.506,93.5624,-0.00071795,0.0511142,21.0118,514.31,0.642153,0.0,0.0
50,12.25,45.2344,44.6321,151.774,100.45,92.9216,-0.000493173,0.051016,21.0098,514.3,0.698793,0.0,0.0
60,14.75,45.0837,44.6223,150.766,100.403,91.3499,-7.33516e-05,0.0528722,21.0019,514.29,0.847541,0.0,0.0
70,17.25,45.176,44.854,150.212,100.345,80.2836,0.0026475,0.0685829,20.9426,514.26,2.0006,0.0,1.0
80,19.75,46.1809,46.3528,135.375,100.299,42.6254,0.00930018,0.145328,20.6882,513.93,7.67526,0.0,1.0
90,22.25,47.9986,48.9602,129.733,100.264,43.7154,0.0177071,0.291708,20.3566,513.59,7.44561,0.0,0.0
100,24.75,52.2131,53.4052,120.524,100.227,41.0141,0.0268694,0.46055,20.0499,513.199,8.01446,0.0,0.0
110,27.25,56.2883,58.5814,120.675,100.241,36.8407,0.0349629,0.616969,19.8005,512.779,8.97821,0.0,0.0
120,29.75,60.5332,64.2264,121.569,100.238,28.4428,0.0437713,0.768525,19.5915,512.268,11.2985,0.0,0.0
130,32.25,65.9362,70.4444,114.487,100.26,28.4688,0.0530655,0.911341,19.4029,511.738,11.2922,0.0,0.0
140,34.75,69.9424,77.1617,108.421,100.254,24.5524,0.0609163,1.05778,19.1705,511.128,12.6191,0.0,0.0
150,37.25,75.2591,83.3112,104.426,100.266,23.9287,0.0679047,1.1937,18.9655,510.497,12.851,0.0,0.0
160,39.75,80.2444,90.2107,103.968,100.255,21.7352,0.0742218,1.32234,18.7968,509.886,13.7124,0.0,0.0
170,42.25,85.2178,96.8043,107.956,100.25,22.6019,0.0814312,1.43305,18.6154,509.196,13.3613,0.0,0.0
180,44.75,90.8572,104.334,101.4,100.268,22.5659,0.0881225,1.55066,18.4537,508.445,13.3772,0.0,0.0
190,47.25,95.7665,110.497,98.6211,100.252,18.0246,0.0944596,1.65977,18.298,507.755,15.3912,0.0,0.0
200,49.75,100.565,117.22,100.702,100.252,17.9789,0.101287,1.7657,18.1089,506.974,15.414,0.0,0.0
210,52.25,105.824,124.647,91.3928,100.234,17.5742,0.108421,1.89232,17.9406,506.173,15.6165,0.0,0.0
220,54.75,110.673,131.547,85.782,100.235,15.0404,0.116713,2.01137,17.8138,505.302,17.0131,0.0,0.0
230,57.25,116.211,138.622,99.5248,100.231,14.302,0.126653,2.1283,17.6175,504.422,17.4643,0.0,0.0
240,59.75,121.63,145.517,83.9761,100.234,13.7586,0.140163,2.27433,17.3618,503.461,17.812,0.0,0.0
250,62.25,126.988,153.422,94.9276,100.233,13.8919,0.151862,2.43618,17.0995,502.52,17.7254,0.0,0.0
260,64.75,133.182,162.139,79.3781,100.254,13.1217,0.161698,2.58988,16.9109,501.569,18.2388,0.0,0.0
270,67.25,138.35,169.933,84.157,100.268,12.2667,0.173944,2.70787,16.7523,500.708,18.8446,0.0,0.0
280,69.75,143.907,177.22,91.4852,100.289,11.4062,0.186269,2.82676,16.5679,499.597,19.4987,0.0,0.0
290,72.25,148.896,185.086,74.9183,100.307,10.938,0.197059,2.92743,16.4233,498.486,19.8763,0.0,0.0
300,74.75,153.845,191.865,79.4873,100.318,10.2794,0.207292,3.03308,16.256,497.536,20.4343,0.0,0.0
310,77.25,159.171,199.768,81.6313,100.339,13.1725,0.216946,3.1441,16.1333,496.395,18.2119,0.0,0.0
320,79.75,163.71,207.057,83.7693,100.345,11.824,0.224047,3.23602,16.0327,495.214,19.1811,0.0,0.0
330,82.25,168.973,213.869,84.1143,100.389,8.67664,0.22752,3.32128,15.8844,494.243,21.9611,0.0,0.0
340,84.75,173.878,220.779,84.4646,100.421,8.99758,0.227773,3.42033,15.791,493.112,21.6381,0.0,0.0
350,87.25,177.074,226.803,78.1027,100.464,11.7298,0.229119,3.46796,15.7483,491.911,19.2635,0.0,0.0
360,89.75,181.936,232.01,83.8914,100.496,10.4023,0.228622,3.50385,15.764,490.89,20.3436,0.0,0.0
370,92.25,184.121,236.87,87.2521,100.544,10.0778,0.223603,3.45684,15.8948,489.829,20.6321,0.0,0.0
380,94.75,186.785,238.864,85.2744,100.574,13.4051,0.21381,3.38816,15.9992,488.838,18.0759,0.0,0.0
390,97.25,188.53,240.919,85.5988,100.638,13.0717,0.201689,3.28758,16.1764,487.807,18.3074,0.0,0.0
400,99.75,190.268,243.258,85.8431,100.661,13.0528,0.185713,3.16812,16.3426,486.906,18.3225,0.0,0.0
410,102.25,190.157,243.609,89.2259,100.704,15.2687,0.164494,2.99524,16.6863,486.116,16.9199,0.0,0.0
420,104.75,189.47,240.947,95.4138,100.722,18.3351,0.136875,2.74388,17.2513,485.485,15.28,0.0,0.0
430,107.25,187.999,238.403,105.08,100.765,23.0197,0.110566,2.42161,17.7315,484.865,13.2429,0.0,0.0
440,109.75,184.816,232.592,115.019,100.785,27.0373,0.0848199,2.09009,18.3355,484.454,11.8018,0.0,0.0
450,112.25,181.249,226.636,119.154,100.815,35.0232,0.0644342,1.72429,18.9589,484.154,9.4832,0.0,0.0
460,114.75,175.406,219.35,128.013,100.827,49.3392,0.047362,1.36959,19.4123,483.894,6.41042,0.0,0.0
470,117.25,169.591,209.775,135.435,100.845,75.2063,0.0317821,1.06651,19.8839,483.794,2.63116,0.0,0.0
480,119.75,162.731,200.271,140.813,100.852,90.0886,0.0219451,0.805894,20.2907,483.774,1.01226,0.0,0.0
490,122.25,155.849,190.244,143.348,100.847,90.1619,0.0165774,0.590815,20.5563,483.754,1.0046,0.0,0.0
500,124.75,150.007,181.908,144.389,100.854,90.6665,0.0135909,0.451816,20.7132,483.764,0.955085,0.0,0.0
510,127.25,144.16,174.049,141.775,100.851,90.5219,0.0117947,0.351106,20.8096,483.774,0.969144,0.0,0.0
520,129.75,138.783,165.898,141.99,100.844,90.5526,0.0108437,0.285526,20.864,483.734,0.965494,0.0,0.0
530,132.25,134.389,159.612,141.313,100.835,90.8363,0.0103076,0.240826,20.9002,483.724,0.936669,0.0,0.0
540,134.75,130.462,153.279,143.474,100.828,90.0971,0.00976457,0.205863,20.9223,483.703,1.0093,0.0,0.0
550,137.25,126.1,147.343,144.526,100.824,91.0654,0.00906342,0.179354,20.9404,483.703,0.913097,0.0,0.0
560,139.75,122.417,141.73,146.134,100.809,90.8638,0.00826655,0.158964,20.9542,483.673,0.931591,0.0,0.0
570,142.25,118.699,136.665,146.655,100.777,90.1343,0.0072317,0.142431,20.9636,483.653,1.00106,0.0,0.0
580,144.75,115.521,132.226,146.847,100.768,90.7723,0.00620408,0.128755,20.9712,483.643,0.93699,0.0,0.0
590,147.25,112.322,127.315,145.546,100.727,90.6875,0.00528808,0.117956,20.9793,483.643,0.941783,0.0,0.0
600,149.75,109.192,122.936,143.287,100.702,91.17,0.00437167,0.108239,20.9844,483.623,0.891888,0.0,0.0
610,152.25,106.445,119.446,142.517,100.632,90.6549,0.00332803,0.099439,20.9895,483.653,0.936487,0.0,0.0
620,154.75,103.711,115.909,141.176,100.57,90.9786,0.0025367,0.0925817,20.9947,483.633,0.898986,0.0,0.0
630,157.25,101.524,112.257,149.188,100.5,91.803,0.00192521,0.086626,20.9991,483.653,0.81184,0.0,0.0
640,159.75,99.35,109.049,144.175,100.401,91.529,0.00161146,0.0812205,21.0017,483.653,0.829791,0.0,0.0
650,162.25,96.5052,106.338,145.525,100.322,90.4192,0.00141404,0.0768021,21.0028,483.633,0.932196,0.0,0.0
660,164.75,95.1782,103.24,145.082,100.194,91.2464,0.0011918,0.0731855,21.0044,483.643,0.839079,0.0,0.0
670,167.25,92.5535,100.553,146.859,100.06,91.084,0.000959684,0.0698167,21.007,483.673,0.84302,0.0,0.0
680,169.75,91.0681,97.9962,146.276,100.041,90.5406,0.00072331,0.0668938,21.0078,483.653,0.894972,0.0,0.0
690,172.25,88.9139,95.0767,147.622,100.069,90.7727,0.000447519,0.0645538,21.0078,483.643,0.874564,0.0,0.0
700,174.75,87.5993,93.2265,146.29,100.095,91.2305,0.000176759,0.062411,21.0086,483.673,0.831751,0.0,0.0
710,177.25,86.425,91.065,146.691,100.123,90.8603,-7.52928e-05,0.060314,21.0096,483.663,0.870744,0.0,0.0
720,179.75,84.2143,89.4732,144.186,100.133,90.2716,1.20538e-05,0.0587634,21.0109,483.673,0.92997,0.0,0.0
730,182.25,83.6313,87.337,146.033,100.199,90.3068,0.000171399,0.0573977,21.0119,483.653,0.932319,0.0,0.0
740,184.75,82.12,85.6863,141.709,100.223,91.3821,0.000155667,0.056069,21.0123,483.693,0.828348,0.0,0.0
750,187.25,80.5305,84.0427,145.986,100.253,90.7836,0.000154775,0.0550343,21.0132,483.653,0.889952,0.0,0.0
760,189.75,79.4543,82.5812,147.236,100.28,90.9964,0.00015864,0.0540803,21.0143,483.663,0.871363,0.0,0.0
770,192.25,78.464,80.7878,148.748,100.316,91.791,0.000117771,0.0532201,21.014,483.653,0.796557,0.0,0.0
780,194.75,77.3941,79.6192,146.282,100.326,90.9724,0.000119528,0.0524118,21.0131,483.633,0.877824,0.0,0.0
790,197.25,75.8997,78.1817,142.333,100.346,91.4255,9.45278e-05,0.0518163,21.0128,483.653,0.835085,0.0,0.0
800,199.75,75.5001,77.1704,148.523,100.332,91.3336,6.11843e-05,0.0512442,21.0127,483.653,0.84286,0.0,0.0
810,202.25,73.8912,75.5086,148.465,100.316,91.3049,1.83857e-05,0.0505723,21.0126,483.613,0.844181,0.0,0.0
820,204.75,73.6251,74.8539,149.838,100.301,91.9735,3.42435e-05,0.0500033,21.0137,483.563,0.777384,0.0,0.0
830,207.25,72.7309,73.9773,146.561,100.269,91.4778,2.22896e-05,0.0496326,21.0145,483.613,0.823013,0.0,0.0
840,209.75,72.0115,72.994,147.17,100.234,92.0201,4.45538e-05,0.0492121,21.0148,483.603,0.766858,0.0,0.0
850,212.25,70.8806,71.5479,147.233,100.154,91.7712,5.33775e-05,0.0488259,21.0149,483.643,0.784015,0.0,0.0
860,214.75,70.8032,70.9234,147.941,100.087,91.1968,-8.62236e-07,0.0485378,21.0149,483.623,0.834334,0.0,0.0
870,217.25,69.4147,70.0028,152.141,99.9599,92.2414,-3.78402e-05,0.0483259,21.0156,483.603,0.720787,0.0,0.0
880,219.75,69.2731,69.2012,147.339,99.839,91.4747,-4.36572e-05,0.0479493,21.0158,483.643,0.784796,0.0,0.0
890,222.25,67.8023,68.3158,146.972,99.6793,90.7336,-6.64388e-05,0.0476696,21.0159,483.623,0.843401,0.0,0.0
900,224.75,67.8871,67.8372,146.863,99.54,91.3545,-0.000136298,0.0474818,21.0155,483.633,0.769685,0.0,0.0
910,227.25,67.2281,66.6002,143.577,99.3643,91.2948,-0.000171275,0.0473884,21.0152,483.613,0.759706,0.0,0.0
920,229.75,66.6396,66.509,150.01,99.2152,90.8638,,0.0471732,,483.623,0.788685,0.0,0.0
930,232.25,66.3056,65.8242,149.402,99.0711,91.1654,,,,483.603,0.745922,0.0,0.0
940,234.75,65.1876,64.5932,149.104,98.9542,90.0533,,,,483.663,0.845424,0.0,0.0
950,237.25,65.105,64.4973,149.455,98.8832,90.8475,,,,483.593,0.760221,0.0,0.0
957,239,64.8359,64.8828,150.082,98.8223,91.4487,,,,483.593,0.695539,0.0,0.0