File: 01_Data/HIPS/Cone/HIPS_Cone_HF50Scan_220218_R1.csv
Names,Time,Stack TC,Smoke TC,Exh Press,Smoke Comp,Smoke Meas,CO Meter,CO2 Meter,O2 Meter,Sample Mass,Ext Coeff,Start Test,Flame Verif
Chan Gain,,500,500,1,1,1,1,1,1,1,1,1.0,1.0
Offset,,0,0,0.134285,0,0,0,0,0,0,0,0.0,0.0
Gain,,1,1,25.011,13.3843,12.7012,1,1,1,1.00088,1.02252,1.0,1.0
Units,sec,C,C,Pa,%,%,%,%,%,g,/m,,
Baseline,,27.4813,28.8729,150.695,100.242,96.3853,1.18734e-05,0.0472266,21.0154,-0.0312357,0.351909,,
12,2.75,24.2392,25.2876,149.759,100.673,97.2249,-2.36868e-05,0.0478278,21.0151,898.246,0.312635,0.0,0.0
24,5.75,24.7637,25.5353,150.452,100.816,97.4055,-0.000177829,0.0476441,21.0139,898.297,0.308679,0.0,0.0
36,8.75,24.7073,25.5907,151.821,100.907,97.5997,-7.44635e-05,0.047323,21.0135,898.307,0.298879,0.0,0.0
48,11.75,24.7359,25.6902,153.275,100.954,97.0338,-4.96625e-05,0.0469665,21.0134,898.297,0.355211,0.0,0.0
60,14.75,24.9233,26.1913,153.745,100.963,97.1667,-0.000105495,0.0465781,21.0147,898.297,0.343765,0.0,0.0
72,17.75,25.2329,25.9348,152.221,100.931,96.1566,-0.000170706,0.0462503,21.0154,898.236,0.434629,0.0,0.0
84,20.75,25.2558,26.2504,151.499,100.851,96.8047,-0.000245528,0.0461769,21.0148,898.206,0.367298,0.0,0.0
96,23.75,25.4507,26.4119,151.679,100.723,95.8958,-0.000270462,0.0465693,21.0142,898.997,0.440537,0.0,0.0
108,26.75,25.5796,26.6931,148.461,100.548,95.2702,-0.000121664,0.0477891,21.0124,897.626,0.483662,0.0,0.0
120,29.75,25.4174,27.0814,149.882,100.336,95.3012,8.01383e-05,0.0484852,21.0109,898.206,0.461813,0.0,0.0
132,32.75,25.7237,26.7058,151.645,100.191,94.9337,0.000224833,0.0492535,21.0084,898.266,0.483419,0.0,0.0
144,35.75,25.5498,27.2134,150.222,100.242,94.7535,0.000887057,0.0555238,20.9979,898.156,0.505034,0.0,0.0
156,38.75,26.0976,28.1384,140.587,100.275,70.1023,0.0048234,0.121138,20.9081,898.036,3.21071,0.0,1.0
168,41.75,27.4915,29.8323,129.7,100.33,51.1156,0.013058,0.314227,20.5587,897.716,6.04875,0.0,0.0
180,44.75,30.3691,33.9811,124.303,100.378,46.7535,0.0212941,0.539563,20.2033,897.376,6.85319,0.0,0.0
192,47.75,35.1474,40.1002,117.499,100.441,44.4639,0.0282123,0.708015,19.9671,896.905,7.30915,0.0,0.0
204,50.75,39.2998,45.7807,114.717,100.472,40.3149,0.0342288,0.845013,19.7757,896.475,8.1906,0.0,0.0
216,53.75,42.9032,51.5545,112.903,100.516,37.0299,0.040059,0.964274,19.5786,895.934,8.95683,0.0,0.0
228,56.75,48.4488,58.9042,114.445,100.533,33.3588,0.0450989,1.08389,19.4069,895.384,9.89476,0.0,0.0
240,59.75,52.7141,65.037,106.842,100.525,33.812,0.0493152,1.17798,19.3037,894.783,9.7731,0.0,0.0
252,62.75,57.723,71.6095,104.337,100.481,33.048,0.0548544,1.26935,19.1442,894.153,9.97418,0.0,0.0
264,65.75,62.7173,78.51,97.6784,100.443,30.7153,0.0600849,1.375,18.9714,893.472,10.6273,0.0,0.0
276,68.75,67.7828,85.4974,104.52,100.397,31.3518,0.0655678,1.46851,18.8433,892.782,10.4393,0.0,0.0
288,71.75,72.8194,92.7685,107.894,100.331,27.4044,0.0701867,1.55015,18.7273,892.081,11.6404,0.0,0.0
300,74.75,77.748,99.4267,94.9016,100.232,24.8702,0.0753168,1.6375,18.5909,891.31,12.5018,0.0,0.0
312,77.75,82.5858,106.006,100.306,100.108,25.4904,0.0821062,1.76471,18.3745,890.6,12.2698,0.0,0.0
324,80.75,88.2387,113.999,90.525,100.029,22.5193,0.0897926,1.92214,18.1714,889.729,13.3743,0.0,0.0
336,83.75,93.168,121.022,95.0527,99.9239,21.7899,0.0982764,2.04399,18.0135,888.878,13.6602,0.0,0.0
348,86.75,99.1423,129.057,93.7353,99.8124,22.35,0.107445,2.14012,17.8576,887.907,13.4226,0.0,0.0
360,89.75,104.532,136.423,83.5761,99.7005,18.118,0.117177,2.24266,17.7016,887.047,15.2953,0.0,0.0
372,92.75,109.799,143.376,82.3381,99.569,20.3092,0.123802,2.32947,17.5622,886.016,14.2595,0.0,0.0
384,95.75,114.685,150.051,95.5313,99.4436,17.5723,0.12796,2.42089,17.4365,885.105,15.5465,0.0,0.0
396,98.75,119.567,156.732,100.738,99.3341,18.1417,0.132415,2.50812,17.2841,884.004,15.2506,0.0,0.0
408,101.75,124.776,163.849,92.0203,99.2345,18.6401,0.13797,2.61631,17.1526,883.063,14.9985,0.0,0.0
420,104.75,129.208,170.192,82.1068,99.1458,15.8381,0.143997,2.70083,17.0497,882.022,16.4516,0.0,0.0
432,107.75,134.09,176.87,82.8022,99.0666,17.0161,0.148533,2.7737,16.9467,880.901,15.801,0.0,0.0
444,110.75,138.531,182.588,75.1236,99.011,15.6792,0.153102,2.81532,16.8757,879.86,16.5298,0.0,0.0
456,113.75,142.772,188.744,87.7146,98.9685,16.9428,0.15739,2.88976,16.7702,878.819,15.8308,0.0,0.0
468,116.75,147.572,194.483,79.6857,98.9342,16.3897,0.157026,2.9313,16.7225,877.758,16.1254,0.0,0.0
480,119.75,150.804,199.463,90.1296,98.9208,14.0772,0.157513,2.95063,16.6938,876.718,17.4884,0.0,0.0
492,122.75,154.549,204.787,92.937,98.9036,16.4447,0.158856,2.97394,16.6742,875.747,16.0925,0.0,0.0
504,125.75,157.751,209.172,80.049,98.9199,17.6405,0.155458,2.95618,16.7042,874.556,15.4644,0.0,0.0
516,128.75,161.189,212.111,86.8468,98.9216,17.9374,0.150891,2.90427,16.7668,873.525,15.3149,0.0,0.0
528,131.75,162.853,215.019,79.3621,98.9322,18.2056,0.14499,2.79677,16.951,872.534,15.1827,0.0,0.0
540,134.75,165.071,216.332,80.6436,98.9681,17.7661,0.13539,2.61926,17.1997,871.673,15.4052,0.0,0.0
552,137.75,165.972,216.55,92.3454,98.9935,21.417,0.121959,2.45385,17.4513,870.862,13.7311,0.0,0.0
564,140.75,165.653,215.133,90.6441,99.0519,23.5829,0.10603,2.24063,17.8331,870.052,12.8723,0.0,0.0
576,143.75,165.328,213.036,98.0059,99.1021,28.9789,0.0868452,1.9198,18.2848,869.351,11.0287,0.0,0.0
588,146.75,162.551,207.534,104.292,99.185,31.9088,0.0695025,1.59292,18.7572,868.781,10.1723,0.0,0.0
600,149.75,158.727,200.894,119.842,99.2671,37.2276,0.0538296,1.26341,19.1803,868.39,8.79696,0.0,0.0
612,152.75,154.397,192.969,123.393,99.3476,49.5687,0.0390758,0.952723,19.6382,868.1,6.23618,0.0,0.0
624,155.75,149.004,183.571,137.105,99.4277,77.5107,0.0279201,0.607885,20.197,868.04,2.23353,0.0,0.0
636,158.75,140.829,172.009,138.465,99.5167,90.563,0.0233717,0.346916,20.6035,868.03,0.845637,0.0,0.0
648,161.75,133.913,162.431,140.438,99.598,90.5247,0.0225536,0.194324,20.8154,868,0.856761,0.0,0.0
660,164.75,128.563,153.546,137.713,99.6952,91.2092,0.0220862,0.128777,20.8969,868,0.797942,0.0,0.0
672,167.75,123.381,145.297,143.388,99.7867,91.2778,0.0212788,0.101148,20.9343,867.95,0.799426,0.0,0.0
684,170.75,118.231,137.56,139.356,99.8863,90.891,0.0200168,0.08906,20.9514,867.96,0.846473,0.0,0.0
696,173.75,113.206,131.107,140.983,99.9734,92.0852,0.0181775,0.0848496,20.9573,867.92,0.7372,0.0,0.0
708,176.75,108.692,124.389,143.49,100.084,91.2929,0.0158268,0.0819193,20.9586,867.96,0.824665,0.0,0.0
720,179.75,105.089,118.295,145.999,100.181,92.2654,0.0134003,0.0771382,20.9661,867.95,0.738257,0.0,0.0
732,182.75,100.549,113.03,140.417,100.304,91.3983,0.0109842,0.07253,20.9753,867.95,0.833986,0.0,0.0
744,185.75,97.3804,108.303,140.446,100.353,91.4902,0.00883284,0.0687703,20.9819,867.94,0.82932,0.0,0.0
756,188.75,93.7007,103.579,138.268,100.443,91.0154,0.00691991,0.0652834,20.9876,867.89,0.884021,0.0,0.0
768,191.75,90.6161,99.7084,142.512,100.505,93.586,0.00534009,0.0621749,20.9925,867.87,0.639778,0.0,0.0
780,194.75,88.2104,95.4215,143.712,100.571,92.974,0.0043326,0.0595811,20.9972,867.86,0.704496,0.0,0.0
792,197.75,85.9792,91.8215,143.984,100.64,93.1038,0.00346496,0.0578098,20.9994,867.85,0.698169,0.0,0.0
804,200.75,82.8161,88.6779,144.058,100.677,92.1348,0.00268438,0.0562214,21.0022,867.89,0.795252,0.0,0.0
816,203.75,81.1485,85.627,141.819,100.709,91.8871,0.00207088,0.0549923,21.004,867.88,0.822235,0.0,0.0
828,206.75,78.5987,82.4191,140.323,100.759,92.2332,0.00151213,0.0543906,21.0046,867.91,0.792984,0.0,0.0
840,209.75,76.5728,80.0811,140.343,100.772,93.4189,0.00114569,0.0535645,21.0064,867.89,0.679575,0.0,0.0
852,212.75,74.1061,77.3338,141.88,100.778,93.6108,0.0011003,0.0528747,21.0085,867.9,0.661681,0.0,0.0
864,215.75,72.9623,75.6502,140.974,100.808,92.9701,0.00110862,0.0520235,21.0107,867.88,0.72601,0.0,0.0
876,218.75,71.2306,73.0988,143.944,100.804,93.2461,0.00105773,0.0513122,21.0115,867.9,0.699061,0.0,0.0
888,221.75,69.6453,71.439,141.874,100.826,92.9484,0.000965052,0.0509993,21.0088,867.88,0.729704,0.0,0.0
900,224.75,67.5237,68.9569,144.422,100.849,94.243,0.00091768,0.0511183,21.0095,867.88,0.60767,0.0,0.0
912,227.75,66.521,67.6156,142.931,100.869,94.05,0.000749906,0.0508553,21.0108,867.91,0.627805,0.0,0.0
924,230.75,65.7879,66.5026,144.286,100.902,93.824,0.000413628,0.0505561,21.0118,867.88,0.652359,0.0,0.0
936,233.75,64.3928,64.7496,140.823,100.924,93.8914,0.000341505,0.050102,21.0105,867.89,0.647837,0.0,0.0
948,236.75,63.1018,63.4719,142.343,100.928,93.4755,0.000358071,0.0494916,21.0112,867.9,0.688021,0.0,0.0
960,239.75,61.8235,62.1379,139.522,100.947,93.7682,0.000422907,0.0491572,21.0119,867.9,0.661653,0.0,0.0
972,242.75,60.7384,60.393,144.128,100.961,93.6476,0.000446829,0.048857,21.0121,867.89,0.674426,0.0,0.0
984,245.75,60.2165,59.6651,142.897,100.98,93.9732,0.000273993,0.0487073,21.0121,867.88,0.645001,0.0,0.0
996,248.75,59.0883,58.9618,145.098,100.994,94.0903,0.000374306,0.0485815,21.0138,867.88,0.63514,0.0,0.0
1008,251.75,58.6746,57.8683,143.504,100.998,94.8996,0.000346115,0.0485911,21.0128,867.89,0.558608,0.0,0.0
1020,254.75,57.606,56.4165,148.243,101.023,94.4139,0.000333022,0.048518,21.0123,867.87,0.606879,0.0,0.0
1032,257.75,56.8712,55.8198,146.276,101.033,94.3608,0.000276449,0.0487175,21.013,867.87,0.612796,0.0,0.0
1044,260.75,55.5363,54.7069,143.342,101.026,94.6434,0.000231917,0.0488221,21.0141,867.86,0.585395,0.0,0.0
1056,263.75,55.1899,54.4928,142.945,101.037,95.2392,0.000124679,0.0490535,21.0124,867.88,0.530055,0.0,0.0
1068,266.75,55.1337,53.521,139.527,101.05,93.6976,,0.0490048,,867.84,0.677546,0.0,0.0
1080,269.75,54.3814,52.8787,147.092,101.042,94.9543,,,,867.86,0.557397,0.0,0.0
1092,272.75,53.6836,52.5846,142.289,101.045,93.6748,,,,867.86,0.679336,0.0,0.0
1104,275.75,52.7767,51.7672,141.224,101.031,95,,,,867.87,0.552099,0.0,0.0
1110,277.25,52.9368,51.7429,145.136,101.012,94.35,,,,867.87,0.612014,0.0,0.0