File: 01_Data/HIPS/Cone/HIPS_Cone_HF50Scan_220218_R3.csv
Names,Time,Stack TC,Smoke TC,Exh Press,Smoke Comp,Smoke Meas,CO Meter,CO2 Meter,O2 Meter,Sample Mass,Ext Coeff,Start Test,Flame Verif
Chan Gain,,500,500,1,1,1,1,1,1,1,1,1.0,1.0
Offset,,0,0,0.134285,0,0,0,0,0,0,0,0.0,0.0
Gain,,1,1,25.011,13.3843,12.7012,1,1,1,1.00088,1.02252,1.0,1.0
Units,sec,C,C,Pa,%,%,%,%,%,g,/m,,
Baseline,,30.7323,31.7179,149.404,99.1881,95.1711,2.93522e-05,0.0473911,21.0091,0.01518,0.370866,,
11,2.5,27.3688,28.5067,152.514,100.4,95.8686,-5.91709e-05,0.0513367,21.0023,898.166,0.414257,0.0,0.0
22,5.25,28.2141,28.3587,149.486,100.343,96.1803,-0.000177126,0.0520848,21.0018,898.186,0.380038,0.0,0.0
33,8,28.0168,28.7384,148.12,100.284,96.0489,-0.000311128,0.0521021,21.0017,898.176,0.387041,0.0,0.0
44,10.75,28.0892,29.0623,149.886,100.232,96.0101,-0.000366431,0.0520059,21.0003,898.156,0.385984,0.0,0.0
55,13.5,28.5002,29.7241,150.703,100.226,95.7547,-0.00020173,0.0521255,20.9982,898.146,0.409331,0.0,0.0
66,16.25,28.382,29.418,149.728,100.504,96.0182,-1.91417e-06,0.0525077,20.9971,898.146,0.409535,0.0,0.0
77,19,28.3716,29.7597,155.689,100.692,96.1818,0.000133407,0.0529238,20.9968,898.116,0.41102,0.0,0.0
88,21.75,28.0395,29.6899,150.612,100.823,94.9771,0.00010083,0.052779,20.9969,898.116,0.535746,0.0,0.0
99,24.5,28.5653,29.8915,149.491,100.92,95.1826,4.66572e-05,0.0522386,20.9983,898.096,0.52501,0.0,0.0
110,27.25,28.7745,29.965,149.182,100.99,95.6593,6.42338e-05,0.0515052,20.9997,898.116,0.486436,0.0,0.0
121,30,28.9575,29.9855,150.957,101.022,95.1221,-4.26434e-05,0.0513495,20.9999,898.116,0.539744,0.0,0.0
132,32.75,28.9852,30.1048,148.683,101.008,94.581,0.00013445,0.0531774,20.9955,898.116,0.58968,0.0,0.0
143,35.5,29.3245,30.1716,145.822,100.946,87.3296,0.00198621,0.0833604,20.9522,898.066,1.29964,0.0,1.0
154,38.25,30.0315,31.4851,138.329,100.86,60.0667,0.00815018,0.199236,20.7895,897.826,4.64866,0.0,1.0
165,41,31.3642,33.972,120.996,100.776,51.3214,0.0157108,0.415434,20.4366,897.456,6.05257,0.0,0.0
176,43.75,35.1589,39.318,112.072,100.66,47.8043,0.0223478,0.606132,20.1532,897.195,6.67898,0.0,0.0
187,46.5,38.7835,44.3627,113.685,100.511,42.3184,0.0291699,0.731063,19.939,896.725,7.75903,0.0,0.0
198,49.25,42.1962,49.3904,114.964,100.373,43.1189,0.0347133,0.847256,19.7648,896.325,7.57864,0.0,0.0
209,52,46.1386,54.8039,108.209,100.421,37.4132,0.0399173,0.952535,19.6117,895.854,8.85596,0.0,0.0
220,54.75,50.0264,60.2837,106.848,100.49,32.6852,0.0446806,1.06068,19.4358,895.344,10.074,0.0,0.0
231,57.5,54.166,66.3914,108.849,100.564,35.3244,0.0496689,1.16355,19.2845,894.713,9.38409,0.0,0.0
242,60.25,58.1432,71.7235,92.7232,100.656,33.5511,0.055227,1.29579,19.1393,894.203,9.85422,0.0,0.0
253,63,63.5496,79.5129,105.762,100.722,29.6471,0.0609642,1.43498,18.9124,893.542,10.9697,0.0,0.0
264,65.75,68.578,86.2432,101.216,100.816,28.7099,0.0659459,1.52862,18.7745,892.962,11.2662,0.0,0.0
275,68.5,73.7638,93.2785,98.2272,100.905,26.6078,0.0724444,1.60115,18.6352,892.251,11.9561,0.0,0.0
286,71.25,78.6354,99.8948,90.6181,100.989,25.8319,0.078384,1.6981,18.4892,891.471,12.229,0.0,0.0
297,74,83.5036,107.024,107.616,101.046,26.3547,0.0843038,1.79036,18.3632,890.78,12.0543,0.0,0.0
308,76.75,88.045,113.314,108.284,101.104,22.2244,0.093523,1.88309,18.1782,890.099,13.5884,0.0,0.0
319,79.5,92.9873,120.193,101.232,101.162,21.3891,0.104414,2.04672,17.9359,889.148,13.9371,0.0,0.0
330,82.25,98.8151,128.567,97.3701,101.162,21.6647,0.113104,2.19128,17.7594,888.278,13.8223,0.0,0.0
341,85,104.31,135.966,100.409,101.149,18.8514,0.120682,2.29979,17.6253,887.497,15.0688,0.0,0.0
352,87.75,109.45,143.21,84.7753,101.111,18.8452,0.128297,2.41366,17.4477,886.506,15.0684,0.0,0.0
363,90.5,114.572,150.158,93.0545,101.055,18.9177,0.136972,2.51021,17.2792,885.625,15.029,0.0,0.0
374,93.25,119.757,157.2,88.7886,100.975,16.9506,0.144666,2.62778,17.118,884.675,16.0067,0.0,0.0
385,96,124.695,164.558,92.5561,100.864,16.0149,0.15033,2.7199,16.9923,883.664,16.5061,0.0,0.0
396,98.75,129.83,171.7,85.9889,100.715,17.9766,0.153544,2.82836,16.8307,882.803,15.4564,0.0,0.0
407,101.5,134.549,178.445,82.5495,100.497,16.6893,0.156778,2.91808,16.71,881.792,16.1034,0.0,0.0
418,104.25,139.023,185.001,86.3094,100.249,16.2397,0.160837,2.96417,16.6406,880.631,16.3263,0.0,0.0
429,107,143.697,191.192,75.0473,100.024,16.2738,0.164114,3.02164,16.5696,879.73,16.2873,0.0,0.0
440,109.75,147.92,196.958,89.0717,99.8055,16.23,0.167114,3.09378,16.4727,878.799,16.2918,0.0,0.0
451,112.5,152.073,202.458,108.599,99.5751,16.3862,0.171645,3.16836,16.3608,877.748,16.1852,0.0,0.0
462,115.25,156.392,208.656,87.1933,99.3611,14.652,0.172546,3.22304,16.3041,876.598,17.1692,0.0,0.0
473,118,159.868,212.962,89.7991,99.1805,14.959,0.170375,3.21707,16.2936,875.597,16.9669,0.0,0.0
484,120.75,163.059,217.357,82.245,99.0592,17.7796,0.166503,3.20599,16.3252,874.656,15.4066,0.0,0.0
495,123.5,166.016,221.124,79.6155,99.0319,16.4319,0.160406,3.13511,16.417,873.605,16.1111,0.0,0.0
506,126.25,168.37,223.59,83.0128,99.0866,16.6994,0.151985,3.00563,16.6099,872.704,15.9713,0.0,0.0
517,129,170.328,225.126,90.4304,99.2263,21.6782,0.140557,2.81108,16.829,871.883,13.6434,0.0,0.0
528,131.75,170.957,225.161,92.7385,99.4595,20.8747,0.126923,2.57375,17.208,871.113,14.0033,0.0,0.0
539,134.5,170.794,223.617,94.749,99.7458,25.3047,0.11242,2.29017,17.6343,870.452,12.3029,0.0,0.0
550,137.25,168.939,219.847,99.956,100.001,31.5855,0.0958757,2.00741,18.0404,869.812,10.3371,0.0,0.0
561,140,167.628,216.438,105.236,100.226,30.232,0.0815765,1.71401,18.4877,869.191,10.7502,0.0,0.0
572,142.75,165,211.058,107.017,100.389,35.4244,0.0665371,1.46238,18.8802,868.811,9.34306,0.0,0.0
583,145.5,161.468,204.672,119.753,100.456,36.345,0.0519955,1.20505,19.242,868.39,9.11893,0.0,0.0
594,148.25,156.894,197.396,124.058,100.494,46.3616,0.0394552,0.951264,19.6291,868.14,6.93905,0.0,0.0
605,151,152.171,189.391,132.264,100.481,65.1835,0.0287283,0.694726,19.994,868.01,3.88162,0.0,0.0
616,153.75,146.558,180.439,138.843,100.396,89.4332,0.0226101,0.456094,20.377,868.01,1.03712,0.0,0.0
627,156.5,140.056,170.338,138.109,100.318,90.3332,0.0211676,0.266684,20.6422,868.01,0.940371,0.0,0.0
638,159.25,133.794,162.292,140.713,100.24,89.9277,0.0215772,0.17506,20.8058,868.01,0.973705,0.0,0.0
649,162,129.38,153.954,137.521,100.263,90.0402,0.0218754,0.125873,20.8846,867.98,0.964583,0.0,0.0
660,164.75,123.894,147.071,138.407,100.609,89.4614,0.0213044,0.102992,20.9202,867.94,1.05331,0.0,0.0
671,167.5,119.338,140.227,141.118,100.858,90.8068,0.0201172,0.0914,20.9391,867.99,0.941578,0.0,0.0
682,170.25,115.446,133.973,142.728,100.999,90.6088,0.0183961,0.0848456,20.9514,867.97,0.973759,0.0,0.0
693,173,111.198,128.172,142.58,100.997,90.7592,0.0159183,0.0800191,20.9594,867.96,0.958666,0.0,0.0
704,175.75,107.048,122.733,139.191,100.894,89.8692,0.0136261,0.0754082,20.9634,867.95,1.03791,0.0,0.0
715,178.5,104.303,117.56,140.813,100.749,90.3301,0.0113709,0.0716745,20.9673,867.91,0.97909,0.0,0.0
726,181.25,100.816,113.55,140.326,100.517,90.006,0.0093401,0.068227,20.9749,867.91,0.990681,0.0,0.0
737,184,97.1912,109.192,139.32,100.396,90.0246,0.00760344,0.0648332,20.9806,867.89,0.977995,0.0,0.0
748,186.75,94.7099,105.055,141.566,100.473,90.3758,0.00602572,0.0622159,20.985,867.91,0.950006,0.0,0.0
759,189.5,91.8722,101.203,139.879,100.547,90.8293,0.00464377,0.0599109,20.9886,867.86,0.911671,0.0,0.0
770,192.25,89.2594,97.9599,142.289,100.642,91.165,0.00336101,0.0577698,20.9915,867.87,0.887034,0.0,0.0
781,195,87.031,94.9178,144.167,100.736,90.3708,0.00239721,0.0558352,20.9954,867.87,0.973958,0.0,0.0
792,197.75,84.8166,91.432,138.283,100.816,91.1755,0.0018323,0.054469,20.9981,867.89,0.901571,0.0,0.0
803,200.5,82.5326,88.7761,140.4,100.88,90.8177,0.00134604,0.0534752,21.0005,867.91,0.942503,0.0,0.0
814,203.25,80.5953,85.8839,142.823,100.939,91.5239,0.00105775,0.0527048,21.0012,867.9,0.878288,0.0,0.0
825,206,78.9877,83.8798,140.242,100.981,92.2189,0.000921276,0.0521222,21.003,867.88,0.8141,0.0,0.0
836,208.75,77.1491,81.3473,139.938,101.025,92.1185,0.000907507,0.051618,21.0038,867.88,0.827824,0.0,0.0
847,211.5,75.4129,79.3799,140.403,101.067,91.6573,0.000795821,0.0510734,21.006,867.87,0.876583,0.0,0.0
858,214.25,73.6623,77.2726,141.429,101.077,92.4751,0.000471589,0.0506485,21.008,867.86,0.797737,0.0,0.0
869,217,72.393,75.1997,141.453,101.082,91.5751,9.50925e-05,0.0504901,21.009,867.89,0.88597,0.0,0.0
880,219.75,70.9146,73.6584,141.29,101.082,91.817,1.26393e-05,0.0501489,21.0093,867.89,0.86231,0.0,0.0
891,222.5,69.7266,72.0701,141.116,101.083,92.4809,0.000166744,0.0498233,21.0071,867.89,0.797754,0.0,0.0
902,225.25,68.2327,69.861,141.166,101.086,91.6669,0.000227195,0.0492941,21.0071,867.86,0.877303,0.0,0.0
913,228,66.8706,68.6312,143.454,101.075,92.5968,0.000142874,0.0489294,21.0072,867.91,0.785758,0.0,0.0
924,230.75,65.7966,67.044,141.603,101.053,92.6833,9.89653e-05,0.0484944,21.0073,867.91,0.775505,0.0,0.0
935,233.5,64.9969,65.5048,145.888,101.048,91.9774,0.00016651,0.0481742,21.0073,867.88,0.843567,0.0,0.0
946,236.25,64.0324,64.0867,140.155,101.032,92.2794,0.000219896,0.0479352,21.0086,867.89,0.812755,0.0,0.0
957,239,62.8796,63.589,141.206,101.013,92.303,0.000254534,0.0477838,21.0093,867.91,0.808825,0.0,0.0
968,241.75,62.1389,62.2226,141.037,100.983,92.841,0.000352951,0.0476098,21.0095,867.9,0.754049,0.0,0.0
979,244.5,61.4769,61.1933,140.195,100.956,92.329,0.000124718,0.0472967,21.0089,867.88,0.801223,0.0,0.0
990,247.25,60.4638,60.4418,140.215,100.953,92.0088,-8.20203e-05,0.0472722,21.008,867.91,0.832089,0.0,0.0
1001,250,59.6536,59.2492,141.503,100.939,93.3596,-0.000263681,0.0470659,21.0077,867.88,0.700129,0.0,0.0
1012,252.75,59.0377,58.386,142.366,100.885,91.9518,-0.000301723,0.0469645,21.0077,867.85,0.831656,0.0,0.0
1023,255.5,58.235,58.0437,143.379,100.85,91.7941,-0.000138995,0.0470715,21.0087,867.86,0.843898,0.0,0.0
1034,258.25,57.6858,56.9689,142.965,100.818,92.0065,-0.000203312,0.0474032,21.0086,867.84,0.820333,0.0,0.0
1045,261,56.6538,56.455,143.52,100.783,92.4201,-0.000356623,0.0478729,21.0079,867.86,0.776978,0.0,0.0
1056,263.75,56.0318,55.7328,142.18,100.755,93.0034,,0.0481388,,867.84,0.718033,0.0,0.0
1067,266.5,55.2571,54.7443,143.295,100.721,92.0883,,,,867.84,0.803747,0.0,0.0
1078,269.25,55.1187,54.2536,142.623,100.684,93.0899,,,,867.86,0.703371,0.0,0.0
1089,272,55.0267,54.3133,139.606,100.654,92.5092,,,,867.87,0.756835,0.0,0.0
1098,274.25,54.0756,53.2704,145.817,100.623,93.1073,,,,867.85,0.696303,0.0,0.0