File: 01_Data/HIPS/Cone/HIPS_Cone_HF75Scan_220218_R2.csv
Names,Time,Stack TC,Smoke TC,Exh Press,Smoke Comp,Smoke Meas,CO Meter,CO2 Meter,O2 Meter,Sample Mass,Ext Coeff,Start Test,Flame Verif
Chan Gain,,500,500,1,1,1,1,1,1,1,1,1.0,1.0
Offset,,0,0,0.134285,0,0,0,0,0,0,0,0.0,0.0
Gain,,1,1,25.011,13.3843,12.7012,1,1,1,1.00088,1.02252,1.0,1.0
Units,sec,C,C,Pa,%,%,%,%,%,g,/m,,
Baseline,,45.2434,45.3596,151.714,100.866,93.7157,-0.000373721,0.046441,21.0152,-0.254264,0.659606,,
10,2.25,40.8508,40.8523,153.459,100.789,94.5705,-0.000405913,0.0507697,21.0123,898.056,0.57121,0.0,0.0
20,4.75,41.0539,41.4185,151.321,100.783,93.3724,-0.000464392,0.0510306,21.0106,898.006,0.685024,0.0,0.0
30,7.25,41.0791,41.4333,154.893,100.735,93.9868,-0.000460857,0.0527327,21.008,897.996,0.621946,0.0,0.0
40,9.75,41.0682,41.2959,151.361,100.725,92.5681,-0.000400903,0.054248,21.0071,897.976,0.757493,0.0,0.0
50,12.25,40.9258,41.7292,152.269,100.684,93.3686,-0.000308435,0.0542653,21.0068,897.946,0.676631,0.0,0.0
60,14.75,40.7297,41.56,153.355,100.67,91.5852,0.000253972,0.0536944,21.0028,897.936,0.8483,0.0,0.0
70,17.25,40.9483,41.2861,144.042,100.614,81.46,0.00272604,0.0686889,20.9528,897.776,1.89419,0.0,1.0
80,19.75,41.8098,42.5086,135.919,100.58,44.0235,0.00891689,0.147204,20.7784,897.566,7.41084,0.0,1.0
90,22.25,44.1595,45.2464,125.865,100.553,42.9588,0.0187878,0.280521,20.4234,897.226,7.62804,0.0,0.0
100,24.75,48.6295,50.5984,127.036,100.493,37.5369,0.0288584,0.469923,20.0462,896.785,8.83278,0.0,0.0
110,27.25,52.9251,55.9231,117.239,100.456,31.7239,0.0381457,0.647423,19.7335,896.365,10.3386,0.0,0.0
120,29.75,57.7858,62.3772,113.522,100.389,33.3949,0.0467449,0.820047,19.4645,895.864,9.87228,0.0,0.0
130,32.25,63.8739,69.9929,105.505,100.336,29.7304,0.0555437,0.982522,19.2187,895.284,10.9101,0.0,0.0
140,34.75,69.1484,77.5293,107.212,100.274,29.8173,0.0625679,1.14503,18.9819,894.723,10.8784,0.0,0.0
150,37.25,75.1593,84.2978,109.804,100.201,25.5105,0.0698878,1.28297,18.7935,894.053,12.271,0.0,0.0
160,39.75,80.5549,92.0526,99.2324,100.095,24.3295,0.0776489,1.41571,18.5956,893.352,12.6867,0.0,0.0
170,42.25,86.176,99.6153,100.83,100.105,23.2973,0.0843211,1.5512,18.4584,892.772,13.0765,0.0,0.0
180,44.75,91.7319,107.05,100.397,100.098,21.3457,0.0919685,1.65168,18.3133,892.091,13.8605,0.0,0.0
190,47.25,97.6263,114.557,94.3505,100.134,19.9774,0.100315,1.77016,18.1201,891.31,14.458,0.0,0.0
200,49.75,103.118,121.786,91.989,100.14,17.2591,0.109082,1.90707,17.9088,890.47,15.7704,0.0,0.0
210,52.25,108.255,129.523,100.374,100.18,17.6785,0.117534,2.04765,17.6789,889.629,15.5587,0.0,0.0
220,54.75,115.152,138.364,89.7846,100.216,16.7211,0.126336,2.21012,17.4235,888.668,16.0613,0.0,0.0
230,57.25,120.775,146.277,78.3263,100.242,13.9718,0.138018,2.38184,17.1753,887.827,17.6748,0.0,0.0
240,59.75,126.546,154.145,85.2935,100.279,15.3575,0.150683,2.55001,16.9713,886.907,16.83,0.0,0.0
250,62.25,133.407,163.19,77.4028,100.306,12.1775,0.163914,2.69678,16.7271,885.896,18.9133,0.0,0.0
260,64.75,139.251,172.511,84.7546,100.336,12.4004,0.173943,2.86655,16.5218,884.945,18.7533,0.0,0.0
270,67.25,145.317,180.907,107.358,100.363,11.8291,0.18681,2.99419,16.3613,883.914,19.1789,0.0,0.0
280,69.75,151.022,189.122,95.4321,100.379,12.0423,0.199058,3.11098,16.1775,882.883,19.0201,0.0,0.0
290,72.25,156.047,196.364,75.89,100.387,13.1636,0.210869,3.25197,15.9664,881.562,18.2222,0.0,0.0
300,74.75,161.879,204.81,72.3392,100.409,11.6659,0.225653,3.42551,15.6725,880.491,19.3076,0.0,0.0
310,77.25,167.749,213.533,77.0456,100.403,13.0438,0.239705,3.62778,15.3791,879.34,18.3056,0.0,0.0
320,79.75,174.066,222.988,106.281,100.388,10.8155,0.249787,3.82315,15.1317,878.249,19.9846,0.0,0.0
330,82.25,179.107,231.595,68.6503,100.383,13.2419,0.254134,3.95674,15.0351,877.008,18.1686,0.0,0.0
340,84.75,184.543,239.496,83.367,100.37,13.9121,0.254816,3.98122,15.1028,875.877,17.7247,0.0,0.0
350,87.25,188.063,244.225,89.3404,100.36,12.3136,0.253807,3.9448,15.1545,874.826,18.8185,0.0,0.0
360,89.75,192.463,250.947,90.6174,100.353,11.1814,0.24656,3.94556,15.1992,873.785,19.6831,0.0,0.0
370,92.25,195.958,255.945,81.9679,100.341,12.7934,0.234015,3.89033,15.2985,872.724,18.474,0.0,0.0
380,94.75,198.59,258.805,81.6336,100.319,13.6559,0.215965,3.78437,15.5312,871.713,17.8869,0.0,0.0
390,97.25,200.491,261.375,88.9267,100.305,14.8288,0.196402,3.60241,15.9773,870.903,17.1465,0.0,0.0
400,99.75,200.815,261.434,93.0805,100.289,16.8905,0.173439,3.34363,16.4239,869.972,15.9774,0.0,0.0
410,102.25,200.411,260.383,101.214,100.272,18.1665,0.144128,3.02613,17.0108,869.301,15.3226,0.0,0.0
420,104.75,198.271,255.712,105.984,100.249,24.4551,0.116707,2.63096,17.6389,868.651,12.6544,0.0,0.0
430,107.25,194.956,249.829,109.401,100.235,27.6935,0.0895392,2.23944,18.2441,868.12,11.5376,0.0,0.0
440,109.75,189.61,242.552,114.745,100.207,38.0396,0.0648566,1.84128,18.8646,867.87,8.6879,0.0,0.0
450,112.25,183.424,233.316,132.83,100.184,65.6913,0.0462825,1.45214,19.3837,867.7,3.78551,0.0,0.0
460,114.75,176.363,223.225,143.807,100.153,85.8009,0.029565,1.12969,19.9042,867.66,1.38728,0.0,0.0
470,117.25,168.006,211.44,147.671,100.147,89.2161,0.0200801,0.808842,20.3714,867.62,1.03663,0.0,0.0
480,119.75,161.12,200.964,139.941,100.107,89.5239,0.015352,0.590331,20.6326,867.63,1.00216,0.0,0.0
490,122.25,154.448,191.337,138.701,100.107,88.8614,0.012966,0.451771,20.7638,867.62,1.06877,0.0,0.0
500,124.75,148.651,183.03,144.27,100.066,89.5378,0.0117258,0.358375,20.8357,867.61,0.997171,0.0,0.0
510,127.25,142.622,174.541,140.581,100.065,89.6351,0.011167,0.295446,20.8777,867.61,0.987321,0.0,0.0
520,129.75,138.402,166.924,143.685,100.028,89.4653,0.010599,0.251221,20.907,867.61,1.00096,0.0,0.0
530,132.25,133.25,160.632,141.572,100.005,89.7091,0.00987146,0.215567,20.931,867.58,0.974533,0.0,0.0
540,134.75,128.951,153.547,144.121,99.9823,90.1076,0.00899944,0.189581,20.9456,867.56,0.932728,0.0,0.0
550,137.25,124.945,148.107,141.829,99.9542,89.7099,0.00792335,0.170563,20.9571,867.55,0.969875,0.0,0.0
560,139.75,121.562,142.866,146.511,99.9305,90.1409,0.00694889,0.151473,20.9682,867.54,0.924756,0.0,0.0
570,142.25,117.919,137.137,144.321,99.8986,89.8595,0.00593999,0.135977,20.9771,867.53,0.949941,0.0,0.0
580,144.75,114.693,132.632,143.814,99.8819,90.4781,0.00483625,0.12376,20.9835,867.55,0.8869,0.0,0.0
590,147.25,111.033,127.88,138.795,99.861,89.637,0.00384582,0.11363,20.9879,867.56,0.968802,0.0,0.0
600,149.75,108.406,123.951,141.622,99.8337,89.4417,0.0028473,0.104678,20.992,867.58,0.985913,0.0,0.0
610,152.25,105.099,119.693,143.582,99.7875,89.5138,0.00202185,0.0975099,20.9965,867.57,0.974537,0.0,0.0
620,154.75,103.156,116.584,148.148,99.7863,90.0491,0.00136835,0.0913375,21.0004,867.52,0.920951,0.0,0.0
630,157.25,99.7946,111.921,144.282,99.7614,89.994,0.000954594,0.0861895,21.0036,867.54,0.924195,0.0,0.0
640,159.75,98.1593,109.629,144.968,99.7254,90.113,0.000612487,0.0817219,21.004,867.56,0.909111,0.0,0.0
650,162.25,96.1734,107.1,142.551,99.6833,90.4398,0.000372906,0.0778417,21.0051,867.56,0.872861,0.0,0.0
660,164.75,94.3908,103.704,143.473,99.6776,88.9986,0.000298536,0.0746375,21.0056,867.55,1.01642,0.0,0.0
670,167.25,92.1829,101.365,140.067,99.6147,89.72,0.000239547,0.071651,21.0073,867.55,0.938356,0.0,0.0
680,169.75,90.6226,98.8444,141.29,99.5763,89.8983,0.000121704,0.0692682,21.0081,867.55,0.91709,0.0,0.0
690,172.25,89.0798,96.143,146.058,99.5294,89.6471,-0.000103244,0.067247,21.0091,867.55,0.937954,0.0,0.0
700,174.75,87.6155,94.265,142.341,99.4865,90.2611,-0.000213319,0.0655854,21.0085,867.55,0.872868,0.0,0.0
710,177.25,85.8639,92.0795,146.182,99.4399,89.9235,-0.000141245,0.0643065,21.0075,867.5,0.90228,0.0,0.0
720,179.75,84.584,90.3689,146.149,99.4452,90.1681,-0.000130064,0.063129,21.0064,867.5,0.878397,0.0,0.0
730,182.25,83.1516,87.9035,144.622,99.437,89.3622,-8.03539e-05,0.0618947,21.007,867.54,0.95818,0.0,0.0
740,184.75,81.474,86.4456,140.986,99.4174,89.9049,-7.02025e-05,0.0608496,21.008,867.479,0.902109,0.0,0.0
750,187.25,80.6264,85.2813,146.201,99.4223,90.2692,-0.00020308,0.0598374,21.0088,867.53,0.866275,0.0,0.0
760,189.75,78.568,83.317,147.977,99.3835,89.6994,-0.000311537,0.0586157,21.0085,867.51,0.91957,0.0,0.0
770,192.25,78.622,82.0127,145.953,99.3987,89.2192,-0.000377947,0.0576829,21.0098,867.5,0.969085,0.0,0.0
780,194.75,77.4393,80.8353,141.981,99.3868,89.618,-0.00042206,0.0566636,21.0106,867.51,0.928007,0.0,0.0
790,197.25,76.2815,79.4642,145.237,99.4023,90.5309,-0.00046617,0.0558269,21.0122,867.54,0.838509,0.0,0.0
800,199.75,75.7609,78.5342,148.229,99.3684,90.0812,-0.000387104,0.0549807,21.0127,867.53,0.880109,0.0,0.0
810,202.25,74.4731,76.8664,148.8,99.3774,89.6572,-0.000350652,0.0542554,21.0142,867.53,0.923243,0.0,0.0
820,204.75,74.0531,76.3333,149.096,99.3423,89.0587,-0.000378839,0.0535752,21.0153,867.52,0.980143,0.0,0.0
830,207.25,73.527,75.0227,148.164,99.3794,89.3711,-0.000410353,0.0529729,21.0166,867.52,0.952089,0.0,0.0
840,209.75,72.4577,74.0677,145.475,99.3982,90.1095,-0.000452601,0.0522687,21.017,867.5,0.879983,0.0,0.0
850,212.25,71.9497,72.8178,146.959,99.4955,90.6491,-0.00044313,0.0518171,21.0171,867.49,0.835203,0.0,0.0
860,214.75,70.8427,72.1772,145.614,99.5318,89.3859,-0.000409489,0.051176,21.0172,867.49,0.964352,0.0,0.0
870,217.25,70.5787,71.5333,146.575,99.591,89.6227,-0.000266542,0.0505949,21.0172,867.52,0.945954,0.0,0.0
880,219.75,69.7792,70.9818,147.076,99.6752,90.6871,-8.65905e-05,0.0501483,21.0172,867.49,0.847632,0.0,0.0
890,222.25,68.9464,70.0464,149.182,99.7401,90.2006,-0.000189914,0.0499533,21.0172,867.47,0.901718,0.0,0.0
900,224.75,68.3749,69.0789,147.306,99.8324,90.6522,-0.000333537,0.0499106,21.0164,867.51,0.865224,0.0,0.0
910,227.25,67.996,68.6473,143.985,99.9096,91.3863,,0.049849,,867.54,0.799812,0.0,0.0
920,229.75,67.1134,67.6855,147.26,99.9913,91.5983,,,,867.409,0.786357,0.0,0.0
930,232.25,66.8653,67.2409,152.773,100.053,90.1386,,,,867.47,0.93598,0.0,0.0
940,234.75,66.5689,66.4823,149.87,100.126,91.2522,,,,867.429,0.832398,0.0,0.0
945,236,65.71,66.432,143.749,100.151,90.1747,,,,867.46,0.941177,0.0,0.0