File: 01_Data/HIPS/Cone/HIPS_Cone_HF75Scalar_220218_R3.csv
LABORATORY,FSRI
TEST IDENT,PlasticB_HF75_3
OPERATOR,Dow
MATERIAL,Plastic B
ORIENTATION,Horizontal
HEAT FLUX,75
SURF AREA,0.01
C FACTOR,0.0385692
SPEC HOLDER DIFF,-84.19
SPECIMEN MASS,31.8
SCAN TIME,0.25
O2 DELAY TIME,11
CO DELAY TIME,11
CO2 DELAY TIME,8
FLOW FACTOR,1
SCAN COUNT,957
TIME TO IGN,16
END OF TEST SCAN,477
END OF TEST TIME,119.25
TEST STATUS,1
PRE TEST CMT,Dimensions: 99.95 x 99.81 x 2.84 mm