File: 01_Data/HIPS/Cone/HIPS_Cone_HF75Scalar_220218_R1.csv
LABORATORY,FSRI
TEST IDENT,PlasticB_HF75_1
OPERATOR,Dow
MATERIAL,Plastic B
ORIENTATION,Horizontal
HEAT FLUX,75
SURF AREA,0.01
C FACTOR,0.0385692
SPEC HOLDER DIFF,299.27
SPECIMEN MASS,31.5
SCAN TIME,0.25
O2 DELAY TIME,11
CO DELAY TIME,11
CO2 DELAY TIME,8
FLOW FACTOR,1
SCAN COUNT,941
TIME TO IGN,14.75
END OF TEST SCAN,461
END OF TEST TIME,115.25
TEST STATUS,1
PRE TEST CMT,Dimensions: 100.02 x 99.78 x 2.85 mm