File: 01_Data/HIPS/Cone/HIPS_Cone_HF75Scalar_220218_R2.csv
LABORATORY,FSRI
TEST IDENT,PlasticB_HF75_2
OPERATOR,Dow
MATERIAL,Plastic B
ORIENTATION,Horizontal
HEAT FLUX,75
SURF AREA,0.01
C FACTOR,0.0385692
SPEC HOLDER DIFF,299.92
SPECIMEN MASS,31.5
SCAN TIME,0.25
O2 DELAY TIME,11
CO DELAY TIME,11
CO2 DELAY TIME,8
FLOW FACTOR,1
SCAN COUNT,945
TIME TO IGN,16.5
END OF TEST SCAN,465
END OF TEST TIME,116.25
TEST STATUS,1
PRE TEST CMT,Dimensions: 99.70 x 100.02 x 2.83 mm