File: 01_Data/HIPS/Cone/HIPS_Cone_HF25Scan_220218_R2.csv
Names,Time,Stack TC,Smoke TC,Exh Press,Smoke Comp,Smoke Meas,CO Meter,CO2 Meter,O2 Meter,Sample Mass,Ext Coeff,Start Test,Flame Verif
Chan Gain,,500,500,1,1,1,1,1,1,1,1,1.0,1.0
Offset,,0,0,0.134285,0,0,0,0,0,0,0,0.0,0.0
Gain,,1,1,25.011,13.3843,12.7012,1,1,1,1.00088,1.02252,1.0,1.0
Units,sec,C,C,Pa,%,%,%,%,%,g,/m,,
Baseline,,21.8562,21.6363,154.587,99.7301,97.2106,-0.000243897,0.0461581,21.0158,-4.17032e-05,0.229523,,
17,4,18.9464,18.5956,153.033,100.932,98.6757,-0.000596667,0.0484695,21.0163,898.196,0.202785,0.0,0.0
34,8.25,18.8593,19.0248,153.736,100.924,98.6947,-0.000455269,0.0474997,21.0183,898.216,0.200368,0.0,0.0
51,12.5,19.0889,18.6152,155.897,100.847,98.4552,-0.000251618,0.0467705,21.0173,898.206,0.215301,0.0,0.0
68,16.75,19.4414,18.6383,150.629,100.7,98.2427,-0.000306614,0.0467061,21.0171,898.196,0.221549,0.0,0.0
85,21,19.4086,18.8711,154.52,100.472,98.2253,-0.000318188,0.0468794,21.0179,898.176,0.202854,0.0,0.0
102,25.25,19.7658,19.7021,154.117,100.188,98.021,-0.000246607,0.0469216,21.0148,898.196,0.196111,0.0,0.0
119,29.5,19.6638,19.6851,155.165,100.217,97.8303,-0.000358238,0.0468686,21.0129,898.176,0.216211,0.0,0.0
136,33.75,19.0853,19.6181,156.986,100.281,97.7059,-0.000156682,0.0466682,21.0138,898.166,0.233327,0.0,0.0
153,38,19.6604,19.7681,158.28,100.351,97.9206,-0.000151051,0.046656,21.0139,902.46,0.219881,0.0,0.0
170,42.25,19.672,19.9103,150.794,100.428,97.659,-0.000145288,0.0470502,21.0145,898.136,0.25074,0.0,0.0
187,46.5,19.4507,19.997,156.63,100.473,97.8741,-0.000179938,0.0471557,21.0132,898.156,0.235052,0.0,0.0
204,50.75,19.8267,19.9542,153.14,100.496,97.666,-0.000301412,0.0475141,21.0124,898.176,0.256226,0.0,0.0
221,55,19.4741,19.7821,156.37,100.509,97.9474,-0.00014201,0.0474301,21.0123,898.156,0.231549,0.0,0.0
238,59.25,19.489,19.9959,153.572,100.511,97.6043,-0.000132774,0.0502528,21.0097,898.136,0.263236,0.0,0.0
255,63.5,19.4191,20.0428,155.171,100.523,97.5761,-8.25126e-05,0.0552478,21.0075,898.146,0.266894,0.0,0.0
272,67.75,20.0812,19.9598,155.724,100.493,97.159,-5.23302e-05,0.054007,21.0092,898.146,0.302653,0.0,0.0
289,72,20.03,19.5672,155.74,100.446,97.426,-0.00033272,0.0505686,21.0144,898.166,0.273766,0.0,0.0
306,76.25,19.6061,20.0234,152.059,100.397,97.3854,-0.000353253,0.0481612,21.0164,898.136,0.273172,0.0,0.0
323,80.5,19.8089,19.8787,151.179,100.308,97.2237,-0.000437371,0.0469479,21.0168,898.126,0.280113,0.0,0.0
340,84.75,19.5516,20.2299,155.737,100.185,96.6512,-0.000433197,0.0463297,21.0169,898.116,0.322121,0.0,0.0
357,89,20.068,20.4078,152.128,100.036,96.4535,-0.000170667,0.0460148,21.0158,898.116,0.327129,0.0,0.0
374,93.25,20.0588,20.6579,156.728,99.868,96.4962,-5.42576e-05,0.0462468,21.0156,898.096,0.308062,0.0,0.0
391,97.5,19.7832,20.4735,156.206,99.6674,96.0415,5.81292e-05,0.0461581,21.0154,898.096,0.332393,0.0,0.0
408,101.75,20.1634,20.444,151.745,99.5179,95.5543,7.44921e-05,0.0461545,21.0136,898.076,0.36455,0.0,0.0
425,106,19.9499,20.6325,154.557,99.3272,95.6927,-0.000156968,0.046371,21.0152,898.076,0.334361,0.0,0.0
442,110.25,19.5745,20.1494,156.27,99.1413,95.3822,-0.000201313,0.0462356,21.0164,898.046,0.346711,0.0,0.0
459,114.5,19.8133,20.2456,157.686,99.0122,95.1636,-0.000223858,0.0461548,21.0168,898.046,0.355607,0.0,0.0
476,118.75,19.4921,20.1398,155.806,98.9154,94.9213,1.78291e-05,0.0463858,21.0169,898.036,0.369696,0.0,0.0
493,123,20.4366,21.0521,152.715,98.8464,94.2097,-0.000151883,0.0463898,21.0169,898.016,0.430934,0.0,0.0
510,127.25,19.9039,20.4592,155.846,98.8105,94.5345,-0.000337883,0.0461106,21.0155,897.966,0.3968,0.0,0.0
527,131.5,20.4212,21.0308,157.301,98.8305,94.3546,-2.06381e-05,0.0472299,21.0147,897.956,0.415697,0.0,0.0
544,135.75,20.6078,20.5229,155.404,98.8717,94.6903,0.000466523,0.0475677,21.0147,897.936,0.387588,0.0,0.0
561,140,20.6715,20.7837,153.055,98.9203,94.16,0.000549195,0.0492353,21.0096,897.866,0.442365,0.0,0.0
578,144.25,20.8073,21.4076,147.71,99.0131,77.2087,0.00328853,0.116331,20.8864,897.826,2.23106,0.0,1.0
595,148.5,23.0262,24.8389,128.165,99.1213,49.4919,0.0150572,0.35171,20.4236,897.276,6.22962,0.0,0.0
612,152.75,28.0815,32.2359,123.361,99.2438,47.6089,0.0260813,0.678366,19.9777,896.775,6.58862,0.0,0.0
629,157,34.2531,39.7899,125.886,99.3839,45.4786,0.0317182,0.835537,19.7996,896.125,7.01188,0.0,0.0
646,161.25,39.3398,47.4452,121.309,99.5355,44.867,0.0349631,0.914107,19.6791,895.484,7.147,0.0,0.0
663,165.5,45.2475,55.27,119.336,99.6927,43.9933,0.0378826,1.00015,19.5569,894.773,7.33754,0.0,0.0
680,169.75,50.6731,62.3367,111.703,99.8819,40.6168,0.041944,1.0705,19.4398,894.083,8.07079,0.0,0.0
697,174,56.2071,69.8745,114.604,100.031,39.7734,0.0462977,1.1567,19.3197,893.312,8.27235,0.0,0.0
714,178.25,61.5632,77.0776,108.142,100.182,36.1655,0.0501847,1.23795,19.2092,892.461,9.13882,0.0,0.0
731,182.5,67.1598,84.6244,103.681,100.342,38.2706,0.0558593,1.34035,19.047,891.641,8.64572,0.0,0.0
748,186.75,72.9743,91.9547,106.032,100.479,34.2616,0.0600547,1.45231,18.8954,890.74,9.65049,0.0,0.0
765,191,78.6576,99.6668,103.346,100.625,29.9653,0.0651727,1.5534,18.7343,889.719,10.8653,0.0,0.0
782,195.25,84.275,106.896,100.408,100.739,31.9778,0.071909,1.64143,18.604,888.668,10.2924,0.0,0.0
799,199.5,90.1692,114.662,101.765,100.845,29.7576,0.0771932,1.73936,18.4532,887.627,10.9473,0.0,0.0
816,203.75,95.7795,122.197,103.156,100.948,30.7522,0.0817501,1.82973,18.3366,886.536,10.6615,0.0,0.0
833,208,101.017,128.769,95.6832,101.001,29.7859,0.0844661,1.87775,18.263,885.405,10.9526,0.0,0.0
850,212.25,105.79,134.67,102.029,101.027,27.7831,0.0877529,1.93499,18.1644,884.394,11.5792,0.0,0.0
867,216.5,110.815,140.897,94.317,101.02,25.7245,0.0902876,2.00008,18.0781,883.203,12.2691,0.0,0.0
884,220.75,114.921,146.215,99.7805,100.985,28.0967,0.0918951,2.02761,18.0404,882.072,11.4749,0.0,0.0
901,225,119.204,151.609,99.2851,100.94,26.5668,0.0937529,2.0775,17.9719,880.941,11.9731,0.0,0.0
918,229.25,123.24,156.686,102.66,100.864,27.6071,0.0930672,2.12314,17.9147,879.81,11.6218,0.0,0.0
935,233.5,127.08,161.31,91.7485,100.776,24.9388,0.0948489,2.13745,17.8924,878.659,12.5256,0.0,0.0
952,237.75,130.4,165.286,88.597,100.684,25.647,0.0973472,2.1348,17.8971,877.518,12.2663,0.0,0.0
969,242,133.131,168.443,96.1534,100.6,29.1246,0.0966,2.10644,17.9336,876.227,11.1183,0.0,0.0
986,246.25,135.809,171.595,102.266,100.523,28.6098,0.0947525,2.07991,17.9691,875.166,11.2714,0.0,0.0
1003,250.5,137.636,173.271,95.3596,100.45,25.1935,0.0937661,2.0506,18.0162,874.045,12.4055,0.0,0.0
1020,254.75,139.47,174.99,97.4097,100.369,26.7144,0.0900883,1.98516,18.1092,872.934,11.8725,0.0,0.0
1037,259,139.837,175.214,96.9693,100.363,29.0413,0.0851626,1.94606,18.1683,871.923,11.1228,0.0,0.0
1054,263.25,141.309,176.127,98.7485,100.344,30.1983,0.0769558,1.83898,18.346,870.953,10.7707,0.0,0.0
1071,267.5,140.994,174.459,99.5172,100.319,35.155,0.0665957,1.6494,18.6496,869.972,9.40528,0.0,0.0
1088,271.75,139.337,170.845,108.65,100.304,39.0311,0.0550797,1.41911,18.9382,869.321,8.46583,0.0,0.0
1105,276,134.982,163.971,116.538,100.341,47.1434,0.0430339,1.09934,19.4535,868.801,6.77537,0.0,0.0
1122,280.25,129.745,155.704,128.04,100.444,45.9166,0.0312552,0.808821,19.9105,868.3,7.0211,0.0,0.0
1139,284.5,122.878,145.89,141.538,100.541,74.4811,0.0195598,0.49807,20.3284,868.17,2.691,0.0,0.0
1156,288.75,114.785,134.402,149.283,100.64,93.0096,0.0110323,0.268028,20.7247,868.15,0.707247,0.0,0.0
1173,293,106.748,123.663,145.564,100.693,94.2717,0.0051211,0.142373,20.8827,868.16,0.591016,0.0,0.0
1190,297.25,100.638,114.528,149.603,100.754,93.6817,0.00204641,0.0930259,20.952,868.19,0.652743,0.0,0.0
1207,301.5,94.0456,106.218,146.717,100.762,94.6151,0.00100466,0.0743332,20.9793,868.19,0.56462,0.0,0.0
1224,305.75,88.4671,98.7047,145.539,100.742,94.4008,0.000831733,0.0656011,20.9894,868.17,0.583109,0.0,0.0
1241,310,83.3844,92.0098,147.41,100.688,95.0291,0.000429757,0.0606458,20.9967,868.18,0.518842,0.0,0.0
1258,314.25,79.0578,86.227,143.411,100.602,95.0124,0.000112042,0.0577011,21.0013,868.19,0.512698,0.0,0.0
1275,318.5,75.1383,80.5858,146.652,100.466,94.5085,0.00023736,0.0551799,21.0019,868.18,0.548331,0.0,0.0
1292,322.75,71.6942,76.2957,146.45,100.326,94.1263,9.0433e-05,0.0528339,21.0052,868.19,0.57216,0.0,0.0
1309,327,68.103,71.3927,144.901,100.289,95.0143,-1.56933e-05,0.0515414,21.007,868.17,0.484612,0.0,0.0
1326,331.25,65.3645,67.8839,148.347,100.372,94.8101,-0.000287916,0.0503523,21.0086,868.22,0.511329,0.0,0.0
1343,335.5,63.3472,64.303,148.771,100.477,95.3531,-0.000150771,0.0496237,21.0093,868.2,0.469477,0.0,0.0
1360,339.75,60.3923,61.5002,150.705,100.65,94.3345,0.000175964,0.0490326,21.0103,868.21,0.581223,0.0,0.0
1377,344,57.9334,58.3218,146.833,100.816,94.986,0.000309164,0.0486255,21.01,868.22,0.534322,0.0,0.0
1394,348.25,55.7816,55.8008,144.76,100.934,95.6671,5.16217e-05,0.0483887,21.0109,868.17,0.480738,0.0,0.0
1411,352.5,54.1878,54.0964,143.718,101.009,95.4915,2.7418e-05,0.0481217,21.0121,868.19,0.503819,0.0,0.0
1428,356.75,52.6702,51.6138,145.783,100.971,94.8942,-6.43054e-05,0.0478846,21.0123,868.24,0.556763,0.0,0.0
1445,361,51.5595,50.3591,150.799,100.765,94.9368,-3.4464e-05,0.0478894,21.0126,868.2,0.534428,0.0,0.0
1462,365.25,49.8256,48.9433,145.488,100.452,95.2229,-0.000395864,0.0479859,21.0123,868.23,0.479476,0.0,0.0
1479,369.5,48.6767,47.3171,149.915,99.9966,94.9159,-0.000274186,0.0482098,21.0123,868.2,0.467716,0.0,0.0
1496,373.75,47.4584,46.0889,146.598,99.5126,94.4496,-7.91545e-05,0.048151,21.0135,868.21,0.46837,0.0,0.0
1513,378,46.0416,44.8101,147.384,99.0931,94.2128,0.000152449,0.0479366,21.0151,868.21,0.452998,0.0,0.0
1530,382.25,45.2579,43.1916,144.453,98.8566,93.9899,0.000148358,0.0479056,21.0154,868.18,0.45281,0.0,0.0
1547,386.5,44.325,42.4221,146.409,98.8489,94.0376,5.28319e-05,0.0476678,21.013,868.2,0.447557,0.0,0.0
1564,390.75,43.8539,41.109,152.068,99.0833,94.712,2.2269e-05,0.0480599,21.0108,868.21,0.404707,0.0,0.0
1581,395,43.2771,40.7286,149.896,99.524,94.712,-4.16518e-05,0.0478479,21.0111,868.21,0.444515,0.0,0.0
1598,399.25,42.154,39.493,151.905,99.9121,94.7147,,0.0477395,,868.21,0.47916,0.0,0.0
1615,403.5,41.1821,39.1163,149.249,100.263,96.1919,,,,868.2,0.371795,0.0,0.0
1632,407.75,40.5557,37.9031,152.585,100.441,95.9651,,,,868.17,0.408881,0.0,0.0
1636,408.75,40.2054,37.9859,151.869,100.484,96.1919,,,,868.16,0.391541,0.0,0.0