File: 01_Data/HIPS/Cone/HIPS_HRRPUA_50.csv
Time after Ignition,HIPS_R1,HIPS_R2,HIPS_R3,Mean,Std. Dev.
0.0,15.4,14.0,14.9,14.7,0.7
0.5,22.0,17.4,21.9,20.4,2.7
1.0,27.6,28.3,27.8,27.9,0.4
1.5,37.2,37.2,39.1,37.8,1.1
2.0,51.7,55.5,49.9,52.4,2.9
2.5,71.7,67.8,61.5,67.0,5.2
3.0,96.5,87.3,76.9,86.9,9.8
3.5,123.4,111.0,88.8,107.7,17.5
4.0,149.8,126.6,113.2,129.8,18.5
4.5,169.0,151.8,133.0,151.3,18.0
5.0,209.3,175.9,167.3,184.2,22.2
5.5,237.3,207.4,192.8,212.5,22.7
6.0,270.9,231.1,223.1,241.7,25.6
6.5,295.8,253.3,251.2,266.8,25.1
7.0,320.6,280.1,287.3,296.0,21.6
7.5,341.1,314.8,307.2,321.0,17.8
8.0,360.2,328.4,336.3,341.6,16.5
8.5,368.5,357.0,354.3,359.9,7.5
9.0,383.3,373.0,353.5,369.9,15.1
9.5,411.5,398.4,392.1,400.7,9.9
10.0,428.5,410.7,395.3,411.5,16.6
10.5,431.5,437.0,422.4,430.3,7.4
11.0,446.5,439.0,428.0,437.8,9.3
11.5,471.1,441.8,446.1,453.0,15.8
12.0,482.0,475.3,445.5,467.6,19.4
12.5,484.0,459.9,467.2,470.3,12.4
13.0,502.8,499.8,475.8,492.8,14.8
13.5,499.1,498.4,488.8,495.4,5.8
14.0,516.4,510.8,492.5,506.6,12.5
14.5,544.0,526.5,516.4,529.0,14.0
15.0,543.4,514.8,533.7,530.6,14.5
15.5,562.9,561.3,538.8,554.3,13.4
16.0,571.3,569.1,522.8,554.4,27.4
16.5,581.8,559.6,560.6,567.3,12.6
17.0,588.3,560.9,581.8,577.0,14.3
17.5,632.8,571.8,557.6,587.4,39.9
18.0,597.2,583.7,578.7,586.5,9.6
18.5,630.3,595.8,586.8,604.3,23.0
19.0,641.8,590.1,616.2,616.0,25.9
19.5,635.1,602.7,627.8,621.9,17.0
20.0,655.3,615.3,635.1,635.2,20.0
20.5,634.0,643.6,632.0,636.6,6.2
21.0,650.7,643.8,654.1,649.5,5.2
21.5,647.5,641.9,666.9,652.1,13.1
22.0,702.6,629.8,686.5,672.9,38.2
22.5,666.6,631.8,669.4,655.9,20.9
23.0,668.0,667.7,677.6,671.1,5.6
23.5,697.6,639.9,698.7,678.7,33.6
24.0,680.9,677.1,710.2,689.4,18.1
24.5,664.5,668.3,682.5,671.8,9.5
25.0,702.1,705.7,685.6,697.8,10.7
25.5,733.1,694.6,685.3,704.3,25.3
26.0,714.1,702.0,703.9,706.7,6.5
26.5,749.9,695.6,707.9,717.8,28.5
27.0,752.1,720.9,732.0,735.0,15.8
27.5,747.8,717.5,761.8,742.3,22.6
28.0,742.5,716.8,747.1,735.5,16.4
28.5,773.3,745.7,795.2,771.4,24.8
29.0,746.7,725.1,799.9,757.2,38.5
29.5,786.7,768.9,807.5,787.7,19.3
30.0,782.0,733.3,810.3,775.2,38.9
30.5,822.9,782.6,839.6,815.0,29.3
31.0,780.6,796.6,845.7,807.6,33.9
31.5,802.5,791.3,813.4,802.4,11.1
32.0,812.8,779.0,799.5,797.1,17.0
32.5,796.0,817.4,844.5,819.3,24.3
33.0,855.4,783.0,839.5,825.9,38.0
33.5,838.1,781.1,818.4,812.5,29.0
34.0,825.0,822.0,850.5,832.5,15.7
34.5,831.6,803.0,883.9,839.5,41.0
35.0,861.8,798.6,880.7,847.0,43.0
35.5,877.2,838.3,874.3,863.3,21.7
36.0,856.3,860.8,905.9,874.4,27.4
36.5,892.0,829.2,943.1,888.1,57.0
37.0,865.1,863.8,846.2,858.4,10.6
37.5,859.0,820.0,857.7,845.6,22.2
38.0,848.2,898.9,951.1,899.4,51.4
38.5,821.2,877.8,899.4,866.1,40.4
39.0,867.5,903.3,913.0,894.6,24.0
39.5,903.9,936.7,973.8,938.1,34.9
40.0,944.1,876.7,975.0,931.9,50.3
40.5,912.6,923.3,894.7,910.2,14.4
41.0,939.7,859.4,950.8,916.6,49.9
41.5,978.3,903.9,952.5,944.9,37.8
42.0,962.0,909.8,967.4,946.4,31.8
42.5,953.9,900.4,943.9,932.7,28.4
43.0,899.4,925.0,972.2,932.2,36.9
43.5,968.6,900.1,967.1,945.3,39.1
44.0,950.4,933.0,1011.6,965.0,41.3
44.5,955.2,954.7,1043.5,984.5,51.1
45.0,980.3,972.0,1074.4,1008.9,56.9
45.5,1043.4,960.7,995.3,999.8,41.6
46.0,963.6,983.8,1061.0,1002.8,51.4
46.5,1013.3,1012.8,1028.6,1018.2,9.0
47.0,1018.1,977.2,1036.0,1010.4,30.1
47.5,1022.3,1016.7,1045.4,1028.1,15.2
48.0,1036.0,995.4,1061.3,1030.9,33.3
48.5,1008.8,962.8,996.4,989.3,23.8
49.0,1059.1,1048.6,1036.5,1048.1,11.3
49.5,1036.3,1067.9,1056.5,1053.6,16.0
50.0,1052.0,1086.0,1062.3,1066.8,17.4
50.5,1056.3,1053.3,1153.9,1087.9,57.2
51.0,1040.0,1040.3,1095.8,1058.7,32.1
51.5,1030.0,1069.9,1142.7,1080.9,57.1
52.0,982.8,1067.3,1077.6,1042.6,52.0
52.5,1079.5,1038.0,1150.2,1089.2,56.7
53.0,1032.0,1073.0,1117.5,1074.2,42.7
53.5,1105.0,1137.4,1172.9,1138.5,34.0
54.0,1197.3,1055.8,1125.9,1126.3,70.8
54.5,1004.0,1048.5,1196.9,1083.1,101.0
55.0,1129.7,1027.4,1153.4,1103.5,67.0
55.5,1118.8,1154.8,1110.1,1127.9,23.7
56.0,1057.5,1090.0,1200.7,1116.1,75.1
56.5,1101.6,1084.1,1184.7,1123.4,53.7
57.0,1095.7,1132.8,1092.7,1107.1,22.3
57.5,1138.4,1097.9,1216.5,1150.9,60.3
58.0,1090.4,1096.3,1123.2,1103.3,17.5
58.5,1167.3,1156.4,1268.4,1197.4,61.8
59.0,1170.4,1114.9,1168.2,1151.2,31.4
59.5,1114.6,1174.9,1218.7,1169.4,52.3
60.0,1138.1,1145.5,1190.0,1157.9,28.1
60.5,1179.4,1126.3,1160.7,1155.5,26.9
61.0,1176.1,1169.3,1188.8,1178.1,9.9
61.5,1179.4,1091.3,1266.7,1179.1,87.7
62.0,1241.9,1235.8,1219.6,1232.4,11.5
62.5,1154.9,1144.8,1203.6,1167.8,31.5
63.0,1134.2,1120.1,1250.3,1168.2,71.4
63.5,1244.2,1145.1,1232.6,1207.3,54.1
64.0,1143.0,1166.7,1236.8,1182.2,48.8
64.5,1093.5,1192.2,1246.0,1177.3,77.3
65.0,1217.9,1147.8,1198.8,1188.2,36.2
65.5,1128.5,1233.8,1299.2,1220.5,86.1
66.0,1121.8,1149.8,1364.5,1212.0,132.7
66.5,1210.6,1259.0,1168.5,1212.7,45.3
67.0,1211.6,1225.9,1258.4,1232.0,24.0
67.5,1144.0,1205.1,1227.3,1192.1,43.2
68.0,1172.4,1149.0,1300.4,1207.3,81.5
68.5,1143.3,1263.7,1333.6,1246.9,96.3
69.0,1173.5,1202.7,1282.2,1219.5,56.3
69.5,1253.1,1224.2,1274.5,1250.6,25.2
70.0,1282.7,1165.1,1313.0,1253.6,78.1
70.5,1143.5,1190.4,1244.9,1192.9,50.7
71.0,1198.5,1272.7,1251.6,1240.9,38.2
71.5,1179.9,1193.7,1237.9,1203.8,30.3
72.0,1158.9,1168.3,1258.5,1195.2,55.0
72.5,1233.2,1230.8,1222.4,1228.8,5.6
73.0,1260.0,1258.5,1332.2,1283.6,42.2
73.5,1223.2,1276.6,1319.2,1273.0,48.1
74.0,1153.8,1276.5,1249.4,1226.5,64.5
74.5,1174.8,1178.0,1238.1,1197.0,35.6
75.0,1256.9,1282.6,1325.6,1288.4,34.7
75.5,1328.9,1222.8,1294.3,1282.0,54.2
76.0,1244.9,1319.7,1273.1,1279.2,37.8
76.5,1220.1,1271.4,1371.8,1287.8,77.2
77.0,1269.6,1276.5,1342.8,1296.3,40.4
77.5,1258.6,1278.3,1361.4,1299.4,54.5
78.0,1197.2,1310.7,1518.9,1342.2,163.1
78.5,1258.7,1228.9,1297.4,1261.7,34.4
79.0,1252.2,1228.1,1289.4,1256.6,30.9
79.5,1262.3,1295.5,1298.7,1285.5,20.2
80.0,1215.6,1245.3,1389.0,1283.3,92.7
80.5,1280.5,1404.2,1270.7,1318.5,74.4
81.0,1283.4,1271.4,1360.3,1305.0,48.2
81.5,1190.7,1348.1,1363.0,1300.6,95.5
82.0,1310.2,1351.5,1306.2,1322.6,25.1
82.5,1245.8,1397.8,1291.5,1311.7,78.0
83.0,1295.9,1277.4,1262.6,1278.6,16.7
83.5,1245.8,1364.4,1386.8,1332.4,75.8
84.0,1201.2,1278.9,1375.1,1285.1,87.2
84.5,1235.9,1316.4,1303.0,1285.1,43.1
85.0,1253.6,1310.7,1330.7,1298.3,40.0
85.5,1379.4,1295.4,1286.2,1320.3,51.4
86.0,1315.6,1317.7,1351.3,1328.2,20.0
86.5,1250.8,1229.0,1298.1,1259.3,35.3
87.0,1265.5,1286.0,1289.5,1280.4,13.0
87.5,1279.3,1253.7,1261.7,1264.9,13.1
88.0,1242.5,1325.6,1356.6,1308.2,59.0
88.5,1268.7,1239.2,1316.7,1274.9,39.1
89.0,1208.7,1309.2,1265.4,1261.1,50.4
89.5,1223.2,1179.1,1274.0,1225.5,47.5
90.0,1272.2,1375.8,1274.8,1307.6,59.0
90.5,1294.5,1214.3,1259.7,1256.2,40.2
91.0,1199.6,1258.7,1265.7,1241.3,36.3
91.5,1258.0,1246.1,1278.3,1260.8,16.3
92.0,1237.1,1265.0,1271.5,1257.9,18.2
92.5,1198.4,1190.1,1244.3,1210.9,29.2
93.0,1247.8,1214.9,1242.5,1235.1,17.7
93.5,1190.2,1249.4,1288.7,1242.8,49.6
94.0,1177.4,1305.3,1230.2,1237.6,64.3
94.5,1208.5,1205.9,1230.5,1215.0,13.5
95.0,1132.8,1203.9,1206.1,1180.9,41.7
95.5,1199.6,1186.9,1170.1,1185.5,14.8
96.0,1156.2,1216.9,1234.2,1202.4,41.0
96.5,1116.3,1174.1,1131.4,1140.6,30.0
97.0,1144.8,1163.3,1131.4,1146.5,16.0
97.5,1158.7,1165.3,1131.3,1151.8,18.1
98.0,1074.1,1133.2,1120.7,1109.3,31.2
98.5,1099.4,1171.1,1039.1,1103.2,66.1
99.0,1116.9,1180.1,1023.3,1106.8,78.9
99.5,1082.8,1181.6,1037.8,1100.8,73.5
100.0,1088.4,1123.9,1031.0,1081.1,46.9
100.5,1078.2,1105.3,999.5,1061.0,55.0
101.0,1077.3,1144.7,1034.1,1085.4,55.7
101.5,1088.0,1082.1,987.8,1052.6,56.2
102.0,1062.8,1043.3,980.2,1028.8,43.1
102.5,998.4,1026.0,900.0,974.8,66.2
103.0,999.6,1091.4,908.7,999.9,91.4
103.5,990.7,977.8,889.4,952.7,55.1
104.0,959.8,995.6,865.5,940.3,67.2
104.5,918.2,990.0,834.8,914.3,77.7
105.0,939.0,956.7,856.7,917.4,53.4
105.5,940.0,916.9,827.3,894.7,59.5
106.0,921.6,905.5,800.6,875.9,65.7
106.5,930.4,880.3,764.6,858.4,85.0
107.0,863.7,859.5,750.6,824.6,64.1
107.5,847.5,870.9,742.9,820.4,68.2
108.0,885.5,861.6,750.4,832.5,72.1
108.5,837.6,835.9,713.3,795.6,71.3
109.0,786.9,835.3,705.7,776.0,65.5
109.5,809.9,790.9,686.2,762.3,66.6
110.0,745.5,797.1,653.6,732.1,72.7
110.5,717.3,776.4,640.6,711.4,68.1
111.0,714.4,768.8,631.5,704.9,69.1
111.5,685.7,737.0,592.7,671.8,73.2
112.0,675.8,713.3,582.6,657.2,67.3
112.5,650.2,698.2,562.1,636.8,69.0
113.0,657.4,661.6,535.7,618.2,71.5
113.5,624.9,639.0,515.3,593.1,67.7
114.0,593.7,609.5,497.8,567.0,60.5
114.5,580.9,586.4,470.0,545.8,65.7
115.0,567.2,560.7,446.5,524.8,67.9
115.5,546.3,553.9,427.4,509.2,70.9
116.0,507.4,520.8,411.9,480.0,59.3
116.5,481.7,496.0,390.8,456.1,57.0
117.0,453.2,481.0,372.3,435.5,56.4
117.5,420.9,468.2,338.8,409.3,65.5
118.0,378.8,441.4,318.6,379.6,61.4
118.5,354.8,422.4,291.4,356.2,65.5
119.0,323.2,394.9,265.4,327.8,64.8
119.5,293.2,375.2,241.8,303.4,67.3
120.0,266.7,355.1,218.1,280.0,69.4
120.5,236.9,329.1,,283.0,65.2
120.75,227.5,316.3,,271.9,62.8