File: 01_Data/HIPS/Cone/HIPS_Cone_HF50Scalar_220218_R1.csv
LABORATORY,FSRI
TEST IDENT,PlasticB_HF50_1
OPERATOR,Dow
MATERIAL,Plastic B
ORIENTATION,Horizontal
HEAT FLUX,50
SURF AREA,0.01
C FACTOR,0.0385692
SPEC HOLDER DIFF,299.86
SPECIMEN MASS,31.5
SCAN TIME,0.25
O2 DELAY TIME,11
CO DELAY TIME,11
CO2 DELAY TIME,8
FLOW FACTOR,1
SCAN COUNT,1110
TIME TO IGN,36.75
END OF TEST SCAN,630
END OF TEST TIME,157.5
TEST STATUS,1
PRE TEST CMT,Dimensions: 99.80 x 100.12 x 2.93 mm