File: 01_Data/HIPS/Cone/HIPS_Cone_HF25Scalar_220218_R2.csv
LABORATORY,FSRI
TEST IDENT,PlasticB_HF25_2
OPERATOR,Dow
MATERIAL,Plastic B
ORIENTATION,Horizontal
HEAT FLUX,25
SURF AREA,0.01
C FACTOR,0.0385692
SPEC HOLDER DIFF,299.87
SPECIMEN MASS,31.7
SCAN TIME,0.25
O2 DELAY TIME,11
CO DELAY TIME,11
CO2 DELAY TIME,8
FLOW FACTOR,1
SCAN COUNT,1636
TIME TO IGN,141.25
END OF TEST SCAN,1156
END OF TEST TIME,289
TEST STATUS,1
PRE TEST CMT,Dimensions: 99.91 x 99.91 x 2.92 mm