File: 01_Data/HIPS/Cone/HIPS_Cone_HF50Scalar_220218_R2.csv
LABORATORY,FSRI
TEST IDENT,PlasticB_HF50_2
OPERATOR,Dow
MATERIAL,Plastic B
ORIENTATION,Horizontal
HEAT FLUX,50
SURF AREA,0.01
C FACTOR,0.0385692
SPEC HOLDER DIFF,299.21
SPECIMEN MASS,31.7
SCAN TIME,0.25
O2 DELAY TIME,11
CO DELAY TIME,11
CO2 DELAY TIME,8
FLOW FACTOR,1
SCAN COUNT,1138
TIME TO IGN,37.5
END OF TEST SCAN,658
END OF TEST TIME,164.5
TEST STATUS,1
PRE TEST CMT,Dimensions: 100.03 x 100.04 x 2.91 mm