File: 01_Data/HIPS/Cone/HIPS_Cone_HF25Scan_220218_R1.csv
Names,Time,Stack TC,Smoke TC,Exh Press,Smoke Comp,Smoke Meas,CO Meter,CO2 Meter,O2 Meter,Sample Mass,Ext Coeff,Start Test,Flame Verif
Chan Gain,,500,500,1,1,1,1,1,1,1,1,1.0,1.0
Offset,,0,0,0.134285,0,0,0,0,0,0,0,0.0,0.0
Gain,,1,1,25.011,13.3843,12.7012,1,1,1,1.00088,1.02252,1.0,1.0
Units,sec,C,C,Pa,%,%,%,%,%,g,/m,,
Baseline,,18.6392,19.6947,155.763,100.675,98.6251,0.000165577,0.0518636,21.0047,-0.0026273,0.184579,,
19,4.5,17.8446,18.7092,154.66,100.628,98.1846,6.7919e-05,0.0570453,20.9945,901.349,0.220453,0.0,0.0
38,9.25,17.9962,18.5417,156.48,100.575,98.2916,2.33897e-05,0.0558979,20.9952,901.329,0.205951,0.0,0.0
57,14,17.5146,19.1508,155.704,100.993,98.6962,-0.00031959,0.0557695,20.9944,901.269,0.206361,0.0,0.0
76,18.75,17.3554,18.5499,155.114,100.956,98.6431,0.000125262,0.0568867,20.9923,901.319,0.207886,0.0,0.0
95,23.5,17.6239,18.5994,153.07,100.291,98.171,0.000348739,0.0592128,20.9894,901.309,0.191643,0.0,0.0
114,28.25,18.0089,19.0464,153.92,99.3656,97.1404,0.000126614,0.0682176,20.9773,901.299,0.203145,0.0,0.0
133,33,17.7391,19.185,154.275,98.8656,96.4566,-0.000112274,0.0716916,20.9758,901.319,0.221258,0.0,0.0
152,37.75,18.3481,19.027,156.161,99.1442,96.8144,0.000297769,0.0674342,20.9794,901.309,0.213289,0.0,0.0
171,42.5,18.5374,19.5289,151.044,99.9121,97.1617,0.000247637,0.0622669,20.985,901.309,0.250375,0.0,0.0
190,47.25,18.1809,19.7101,156.584,100.466,97.466,-3.24116e-05,0.0655594,20.9773,901.299,0.271915,0.0,0.0
209,52,18.8628,19.4777,154.044,100.527,97.6137,-0.00020838,0.0714428,20.9711,901.309,0.263766,0.0,0.0
228,56.75,18.666,19.9623,156.747,100.229,97.0667,3.82659e-05,0.0738634,20.9685,901.299,0.287519,0.0,0.0
247,61.5,18.6739,19.949,152.313,100.989,98.0648,-5.98204e-05,0.0706306,20.9755,901.289,0.263566,0.0,0.0
266,66.25,18.435,19.9168,156.022,100.492,97.3454,7.86952e-05,0.0676419,20.9773,901.279,0.285348,0.0,0.0
285,71,19.0307,19.6561,155.685,100.729,97.2121,0.00023743,0.0693525,20.9743,901.259,0.3188,0.0,0.0
304,75.75,18.7185,20.3198,158.857,101.071,97.1563,0.000108597,0.0681457,20.9771,901.269,0.354306,0.0,0.0
323,80.5,19.1248,19.4406,154.981,100.477,97.0489,-0.000134983,0.0669548,20.9772,901.279,0.311327,0.0,0.0
342,85.25,18.8646,20.1213,151.356,99.4138,95.9508,-0.000136566,0.0676204,20.9752,901.279,0.318013,0.0,0.0
361,90,18.7098,19.8195,152.491,98.8852,94.9422,-9.13972e-05,0.0644395,20.9815,901.319,0.364978,0.0,0.0
380,94.75,19.1559,20.2941,157.412,99.299,95.3051,-0.000312098,0.0592015,20.9913,901.279,0.36822,0.0,0.0
399,99.5,19.0084,19.7796,153.3,100.04,96.0179,3.90705e-05,0.0557049,20.9958,901.249,0.368063,0.0,0.0
418,104.25,18.7915,20.3699,150.051,100.432,96.1446,0.000577804,0.0540341,20.9956,901.279,0.39132,0.0,0.0
437,109,19.434,20.399,155.533,100.422,95.9202,0.000485073,0.0524411,20.9988,901.209,0.411369,0.0,0.0
456,113.75,19.1246,20.5464,157.044,100.183,95.7868,6.36411e-05,0.0511619,21.0002,901.179,0.402515,0.0,0.0
475,118.5,19.1402,20.7924,152.568,100.818,96.1601,-0.000241303,0.0507966,21.0004,901.169,0.424244,0.0,0.0
494,123.25,18.8183,20.1248,153.328,100.909,96.2148,-0.000256788,0.0522453,20.9994,901.169,0.427284,0.0,0.0
513,128,19.4725,20.7028,153.638,100.412,95.7962,0.000102763,0.0530212,21.0029,901.139,0.4221,0.0,0.0
532,132.75,19.3067,20.4492,157.936,100.492,95.714,0.000203819,0.0537033,21.0032,901.129,0.436945,0.0,0.0
551,137.5,19.328,20.6403,146.528,100.816,86.2001,0.00175949,0.0864413,20.9209,901.079,1.40485,0.0,1.0
570,142.25,20.3053,22.2671,138.501,101.018,59.7659,0.0111127,0.267149,20.5645,900.699,4.70774,0.0,0.0
589,147,26.2521,30.0544,120.583,101.032,50.754,0.023027,0.600943,20.0749,900.038,6.17502,0.0,0.0
608,151.75,32.2302,38.5527,130.99,100.881,47.6651,0.0294671,0.77873,19.8754,899.427,6.72476,0.0,0.0
627,156.5,37.8409,46.1922,116.17,100.64,42.3471,0.0340342,0.864343,19.7405,898.667,7.76443,0.0,0.0
646,161.25,42.9838,53.0514,116.656,100.336,45.0022,0.0370939,0.948622,19.6275,897.966,7.19185,0.0,0.0
665,166,48.3635,60.4448,121.376,100.016,43.0595,0.0389882,1.01172,19.5423,897.236,7.55899,0.0,0.0
684,170.75,54.1481,67.7011,109.674,99.7303,42.2626,0.0419038,1.0628,19.4662,896.505,7.7009,0.0,0.0
703,175.5,59.1438,74.2736,111.46,99.4803,37.7586,0.0446628,1.12775,19.3749,895.604,8.68916,0.0,0.0
722,180.25,63.9412,80.455,113.263,99.2659,39.6102,0.047563,1.17925,19.2919,894.733,8.2404,0.0,0.0
741,185,69.3131,86.945,108.495,99.0833,35.0779,0.0519527,1.24329,19.1914,893.853,9.31383,0.0,0.0
760,189.75,73.7488,92.9496,113.793,98.9555,37.2776,0.0556019,1.3379,19.0492,892.892,8.75671,0.0,0.0
779,194.5,79.0654,100.081,102.595,98.8909,34.3379,0.0593169,1.41233,18.9484,891.791,9.48762,0.0,0.0
798,199.25,83.3061,105.666,98.3928,98.8746,32.8185,0.0644896,1.4761,18.8426,890.81,9.89208,0.0,0.0
817,204,88.9414,112.336,114.912,98.9163,32.9383,0.0677486,1.56869,18.7135,889.759,9.86319,0.0,0.0
836,208.75,93.799,118.574,101.563,98.9677,33.0189,0.0688657,1.63319,18.6272,888.718,9.84593,0.0,0.0
855,213.5,98.0775,124.379,111.189,99.0796,31.4332,0.0704574,1.68019,18.5576,887.607,10.2975,0.0,0.0
874,218.25,102.763,129.383,98.6363,99.2361,30.1083,0.0732462,1.72661,18.4965,886.516,10.6979,0.0,0.0
893,223,106.67,135.022,96.8907,99.4415,26.5528,0.0771242,1.76571,18.4402,885.315,11.8436,0.0,0.0
912,227.75,110.709,139.391,90.8196,99.6339,26.1237,0.079198,1.77941,18.4122,884.124,12.0071,0.0,0.0
931,232.5,113.199,143.279,91.373,99.8292,27.8385,0.0808026,1.79958,18.3836,882.953,11.4544,0.0,0.0
950,237.25,117.501,147.82,102.853,100.018,29.3634,0.0798396,1.83122,18.3364,881.802,10.993,0.0,0.0
969,242,120.861,151.58,102.375,100.179,31.4824,0.079515,1.8438,18.3283,880.581,10.3824,0.0,0.0
988,246.75,123.258,154.542,97.6189,100.292,28.3439,0.0812002,1.83254,18.3457,879.48,11.3345,0.0,0.0
1007,251.5,125.529,157.027,109.09,100.373,31.2859,0.0805365,1.82777,18.3542,878.349,10.4559,0.0,0.0
1026,256.25,127.367,159.252,99.3897,100.408,29.1637,0.0786727,1.7876,18.4273,877.288,11.0891,0.0,0.0
1045,261,128.228,159.825,106.668,100.451,31.1824,0.0754176,1.72539,18.5003,876.127,10.4926,0.0,0.0
1064,265.75,129.697,160.894,105.289,100.426,33.1666,0.0718096,1.70912,18.5291,875.066,9.93706,0.0,0.0
1083,270.5,129.994,160.554,96.1061,100.4,33.6147,0.0655285,1.59258,18.7304,874.035,9.81443,0.0,0.0
1102,275.25,129.662,158.591,110.439,100.352,37.4473,0.0579571,1.44328,18.9621,873.114,8.84162,0.0,0.0
1121,280,127.839,154.877,112.423,100.305,41.8707,0.0481118,1.22125,19.3015,872.424,7.836,0.0,0.0
1140,284.75,124.652,149.664,127.413,100.259,44.1549,0.0376166,0.947803,19.6984,871.883,7.35544,0.0,0.0
1159,289.5,118.619,141.041,137.612,100.228,71.6395,0.0227268,0.664818,20.1485,871.523,3.01198,0.0,0.0
1178,294.25,110.015,129.302,146.161,100.189,87.466,0.010929,0.324569,20.6601,871.493,1.21816,0.0,0.0
1197,299,102.276,117.693,144.546,100.151,89.5227,0.0049587,0.178854,20.8406,871.503,1.0063,0.0,0.0
1216,303.75,95.6833,108.049,145.129,100.147,91.5375,0.00244653,0.123999,20.912,871.483,0.80623,0.0,0.0
1235,308.5,89.0233,99.3807,148.198,100.169,91.0421,0.00140881,0.0995916,20.942,871.443,0.856913,0.0,0.0
1254,313.25,83.6002,92.0162,151.388,100.343,92.0375,0.000945097,0.0871015,20.9553,871.453,0.774912,0.0,0.0
1273,318,78.7135,84.9896,146.978,100.542,92.6325,0.000474871,0.0756811,20.9724,871.433,0.734914,0.0,0.0
1292,322.75,74.1028,79.3558,148.709,100.665,93.898,0.000200211,0.0671809,20.9861,871.423,0.624165,0.0,0.0
1311,327.5,70.3743,74.0874,145.42,100.749,94.0438,3.2639e-08,0.0608983,20.9957,871.403,0.617711,0.0,0.0
1330,332.25,66.7149,69.3734,149.948,100.8,94.4643,-7.33051e-05,0.0567446,21.0021,871.413,0.582269,0.0,0.0
1349,337,63.1123,64.6966,147.49,100.842,95.374,0.000153961,0.052962,21.0048,871.393,0.500047,0.0,0.0
1368,341.75,60.3692,60.7073,147.892,100.877,94.3837,0.000200627,0.0503659,21.0079,871.403,0.596759,0.0,0.0
1387,346.5,56.9535,57.6113,146.968,100.88,94.8031,0.000124877,0.0492646,21.008,871.423,0.557283,0.0,0.0
1406,351.25,55.0932,55.0962,146.256,100.899,95.6679,-3.76587e-06,0.0486133,21.0097,871.393,0.477507,0.0,0.0
1425,356,52.7672,51.904,153.624,100.894,94.5849,-0.000204069,0.0479531,21.0118,871.403,0.579224,0.0,0.0
1444,360.75,51.1933,50.18,150.246,100.885,95.5093,9.38084e-06,0.0473206,21.0113,871.383,0.491184,0.0,0.0
1463,365.5,48.6755,47.7274,150.874,100.904,95.2895,-9.51574e-05,0.0471089,21.0093,871.403,0.513519,0.0,0.0
1482,370.25,48.1509,46.152,147.716,100.905,95.5578,4.08971e-05,0.0468709,21.0093,871.403,0.488379,0.0,0.0
1501,375,46.449,44.3868,153.053,100.893,94.7736,0.000121823,0.0467384,21.0111,871.393,0.561232,0.0,0.0
1520,379.75,45.3942,43.0778,152.933,100.875,95.7403,1.39287e-05,0.0467386,21.0118,871.403,0.468572,0.0,0.0
1539,384.5,43.9286,42.0436,144.705,100.844,95.9144,-8.6204e-05,0.046938,21.0122,871.393,0.449557,0.0,0.0
1558,389.25,42.6851,40.3948,150.282,100.803,95.5721,-3.57561e-05,0.0468626,21.0122,871.393,0.477988,0.0,0.0
1577,394,41.5626,39.4848,150.25,100.776,95.7597,-0.00010859,0.0468873,21.0122,871.403,0.457963,0.0,0.0
1596,398.75,40.9481,38.1566,148.216,100.726,96.2458,-3.29861e-05,0.0469052,21.0126,871.383,0.408077,0.0,0.0
1615,403.5,40.3025,37.6617,153.946,100.679,96.0066,-0.00011946,0.0466795,21.0143,871.383,0.426245,0.0,0.0
1634,408.25,39.8407,37.2703,150.338,100.615,96.6466,-0.000377707,0.0464902,21.0127,871.393,0.360978,0.0,0.0
1653,413,38.5474,35.8994,150.169,100.519,95.912,-0.000179192,0.0464382,21.0123,871.393,0.420809,0.0,0.0
1672,417.75,38.093,35.2884,148.862,100.43,95.8663,6.49304e-05,0.0461874,21.0142,871.393,0.417102,0.0,0.0
1691,422.5,37.5064,35.0698,144.153,100.272,95.5799,0.000176491,0.0462645,21.0145,871.373,0.429851,0.0,0.0
1710,427.25,36.6679,34.3133,148.549,100.132,94.9209,-4.35948e-06,0.0466256,21.0141,871.393,0.479397,0.0,0.0
1729,432,36.3085,33.7361,149.425,100.112,95.9283,-0.000319146,0.0471476,21.012,871.403,0.382875,0.0,0.0
1748,436.75,35.2738,33.5184,152.18,100.144,95.4961,-0.00022324,0.0477426,21.0116,871.393,0.426304,0.0,0.0
1767,441.5,35.0761,32.2953,151.849,100.164,96.1768,-0.0001125,0.0477197,21.0116,871.413,0.364321,0.0,0.0
1786,446.25,34.6952,31.723,148,100.207,95.4717,,,,871.383,0.434156,0.0,0.0
1805,451,34.594,31.8991,153.088,100.245,94.8833,,,,871.383,0.49308,0.0,0.0
1816,453.75,33.6016,31.5329,149.087,100.263,95.6996,,,,871.353,0.41785,0.0,0.0