File: 01_Data/HIPS/Cone/HIPS_Cone_HF75Scan_220218_R1.csv
Names,Time,Stack TC,Smoke TC,Exh Press,Smoke Comp,Smoke Meas,CO Meter,CO2 Meter,O2 Meter,Sample Mass,Ext Coeff,Start Test,Flame Verif
Chan Gain,,500,500,1,1,1,1,1,1,1,1,1.0,1.0
Offset,,0,0,0.134285,0,0,0,0,0,0,0,0.0,0.0
Gain,,1,1,25.011,13.3843,12.7012,1,1,1,1.00088,1.02252,1.0,1.0
Units,sec,C,C,Pa,%,%,%,%,%,g,/m,,
Baseline,,33.5219,35.7304,155.827,100.483,95.8777,0.000180492,0.0448602,21.0151,-0.0980858,0.420871,,
10,2.25,32.2999,34.1565,153.706,100.571,95.7093,-0.000214917,0.0487737,21.0124,897.566,0.444452,0.0,0.0
20,4.75,32.6475,34.4945,153.3,100.594,95.8958,-0.000236086,0.0486663,21.0137,897.536,0.428999,0.0,0.0
30,7.25,32.5194,34.5043,158.082,100.554,95.6113,-0.000238788,0.048417,21.0156,897.536,0.452117,0.0,0.0
40,9.75,32.2546,34.686,159.168,100.473,94.6853,-0.000138338,0.0475007,21.0164,897.526,0.532156,0.0,0.0
50,12.25,32.3768,34.3963,154.974,100.379,94.238,0.000133751,0.0467757,21.015,897.476,0.566275,0.0,0.0
60,14.75,32.8722,34.4493,155.516,100.285,93.2465,0.000653509,0.0483225,21.0008,897.376,0.652711,0.0,1.0
70,17.25,32.6238,34.5517,148.538,100.276,78.594,0.00336376,0.0665678,20.9073,897.346,2.18528,0.0,1.0
80,19.75,34.0204,35.782,140.483,100.588,47.8426,0.0107175,0.138515,20.6198,897.156,6.66541,0.0,1.0
90,22.25,37.1393,39.775,126.154,100.813,40.1157,0.0213938,0.290271,20.2817,896.715,8.26537,0.0,0.0
100,24.75,42.1904,45.0271,122.853,100.947,34.5069,0.0304128,0.464589,20.0115,896.315,9.62817,0.0,0.0
110,27.25,46.3247,50.378,105.782,100.972,29.9828,0.0389488,0.622859,19.7756,895.854,10.891,0.0,0.0
120,29.75,52.0091,56.5328,117.721,100.853,29.0847,0.0487441,0.792308,19.4817,895.234,11.1531,0.0,0.0
130,32.25,57.8861,64.0441,109.707,100.629,29.525,0.0570123,0.960276,19.2179,894.653,10.9984,0.0,0.0
140,34.75,63.6505,71.8094,104.376,100.3,26.3179,0.0650141,1.11659,18.9697,894.083,12.0004,0.0,0.0
150,37.25,69.5635,79.4611,107.854,100.381,25.3915,0.0734925,1.26674,18.7784,893.512,12.3291,0.0,0.0
160,39.75,75.8944,87.0702,103.823,100.533,25.0066,0.0826633,1.39765,18.583,892.822,12.4796,0.0,0.0
170,42.25,81.9863,94.9892,110.005,100.702,21.5774,0.0899526,1.52472,18.4283,892.071,13.8177,0.0,0.0
180,44.75,87.1706,102.78,92.6751,100.848,20.3871,0.0962658,1.63845,18.2705,891.36,14.3396,0.0,0.0
190,47.25,93.147,110.732,97.5861,100.983,22.3972,0.102734,1.754,18.1234,890.63,13.5082,0.0,0.0
200,49.75,99.4179,117.73,96.9167,101.024,20.1592,0.110707,1.87097,17.9852,889.819,14.4561,0.0,0.0
210,52.25,105.032,125.926,104.807,100.982,16.9083,0.122704,2.00185,17.7388,889.018,16.0297,0.0,0.0
220,54.75,111.33,134.481,82.8991,100.843,16.5742,0.1342,2.15124,17.5036,888.058,16.1964,0.0,0.0
230,57.25,117.403,143.049,89.9167,100.648,15.3819,0.146666,2.30565,17.2508,887.147,16.8486,0.0,0.0
240,59.75,123.691,151.24,91.96,100.375,12.7128,0.160677,2.47043,17.026,886.086,18.5337,0.0,0.0
250,62.25,129.755,159.793,83.0144,100.061,17.7366,0.17316,2.63975,16.7505,885.235,15.5186,0.0,0.0
260,64.75,136.8,169.628,78.6286,99.7344,13.8698,0.18447,2.81284,16.5288,884.214,17.695,0.0,0.0
270,67.25,142.979,177.86,84.6165,99.4044,11.4446,0.194994,2.9746,16.2844,883.113,19.3892,0.0,0.0
280,69.75,148.714,186.786,85.6049,99.1536,11.5322,0.203074,3.13574,16.0883,882.032,19.2981,0.0,0.0
290,72.25,153.989,194.942,92.7751,98.9351,11.1031,0.210628,3.25943,15.9749,880.901,19.6184,0.0,0.0
300,74.75,159.353,202.084,87.4559,98.8468,9.61814,0.218219,3.3655,15.8265,879.84,20.8982,0.0,0.0
310,77.25,163.57,209.228,77.302,98.8444,10.7159,0.225658,3.48231,15.6568,878.709,19.9286,0.0,0.0
320,79.75,167.832,216.088,94.5795,98.9653,10.5081,0.236198,3.59464,15.5109,877.538,20.1152,0.0,0.0
330,82.25,173.059,222.554,72.2957,99.1805,11.2178,0.248012,3.70372,15.3307,876.317,19.5485,0.0,0.0
340,84.75,178.268,229.831,84.8829,99.4722,10.9023,0.25628,3.83259,15.157,875.196,19.8307,0.0,0.0
350,87.25,182.768,236.778,75.6243,99.7213,19.5344,0.260161,3.95321,15.078,874.035,14.6221,0.0,0.0
360,89.75,188.133,244.228,72.4087,100.006,11.1535,0.258041,4.0266,15.0925,872.844,19.6744,0.0,0.0
370,92.25,191.532,249.586,80.2086,100.243,11.0422,0.248345,3.96262,15.2629,871.763,19.7855,0.0,0.0
380,94.75,193.857,252.513,78.7133,100.397,13.0636,0.227066,3.80818,15.5419,870.732,18.2915,0.0,0.0
390,97.25,195.972,254.946,91.5798,100.501,14.8796,0.199542,3.60076,16.0086,869.932,17.1334,0.0,0.0
400,99.75,195.581,254.921,103.306,100.52,18.6413,0.16557,3.30598,16.6002,869.291,15.1134,0.0,0.0
410,102.25,194.453,252.192,99.5187,100.475,23.9438,0.133148,2.92453,17.378,868.38,12.864,0.0,0.0
420,104.75,191.684,246.65,108.98,100.352,24.7082,0.103171,2.47814,18.0328,868.01,12.5712,0.0,0.0
430,107.25,186.055,239.555,122.94,100.244,30.0494,0.0739506,2.08322,18.7273,867.58,10.8061,0.0,0.0
440,109.75,179.702,230.557,125.804,100.314,45.3681,0.0512229,1.6402,19.3506,867.349,7.11721,0.0,0.0
450,112.25,172.778,220.235,136.023,100.708,66.9762,0.0342392,1.27607,19.8299,867.209,3.65856,0.0,0.0
460,114.75,164.939,209.399,143.562,100.911,88.9452,0.0227654,0.954763,20.2962,867.169,1.1321,0.0,0.0
470,117.25,157.566,198.695,145.811,100.944,89.1665,0.0165869,0.706147,20.5624,867.189,1.11275,0.0,0.0
480,119.75,150.815,188.568,148.102,100.768,89.5618,0.0131245,0.544274,20.7169,867.149,1.05741,0.0,0.0
490,122.25,144.077,179.411,143.769,100.406,88.9963,0.011287,0.42717,20.8103,867.169,1.08195,0.0,0.0
500,124.75,138.577,171.39,143.199,100.379,89.7072,0.0102648,0.347809,20.8639,867.119,1.00815,0.0,0.0
510,127.25,133.705,163.857,145.701,100.598,90.046,0.00959857,0.291552,20.8983,867.129,0.993954,0.0,0.0
520,129.75,128.421,156.924,144.105,100.825,90.3626,0.00882455,0.250162,20.9261,867.119,0.982619,0.0,0.0
530,132.25,124.101,150.307,145.614,101.01,90.5933,0.00813767,0.216064,20.944,867.099,0.976237,0.0,0.0
540,134.75,120.1,144.24,141.063,101.022,90.5278,0.00763353,0.19172,20.9581,867.099,0.983776,0.0,0.0
550,137.25,116.253,139.081,144.279,100.883,89.2556,0.00709617,0.170615,20.9694,867.059,1.09841,0.0,0.0
560,139.75,112.412,133.597,146.643,100.578,90.1382,0.00636149,0.153844,20.9753,867.079,0.982948,0.0,0.0
570,142.25,108.919,128.555,142.495,100.154,89.5746,0.00542592,0.140666,20.9803,867.069,1.00135,0.0,0.0
580,144.75,105.437,124.632,145.292,99.6266,88.6738,0.00451634,0.128168,20.9867,867.069,1.04462,0.0,0.0
590,147.25,102.976,120.272,143.476,99.2005,88.7118,0.00371638,0.117264,20.9921,867.049,1.00234,0.0,0.0
600,149.75,99.9621,116.144,143.712,98.9093,88.0141,0.00303408,0.109542,20.9978,867.049,1.0468,0.0,0.0
610,152.25,97.5265,111.771,146.017,98.8717,88.6017,0.00261842,0.101554,21.0019,867.069,0.983701,0.0,0.0
620,154.75,94.3489,108.139,147.62,99.0641,88.6145,0.00223889,0.0951439,21.0049,867.039,0.999843,0.0,0.0
630,157.25,93.0469,105.669,144.841,99.4129,88.7405,0.00176884,0.0896534,21.0082,867.079,1.01863,0.0,0.0
640,159.75,90.6849,102.324,148.297,99.8051,89.1971,0.0013278,0.0848558,21.0106,867.089,1.0079,0.0,0.0
650,162.25,89.1091,99.353,142.491,100.131,89.6638,0.00110141,0.0806805,21.013,867.059,0.990307,0.0,0.0
660,164.75,86.8123,96.8519,146.047,100.384,89.4269,0.00106012,0.0770297,21.0096,867.039,1.03672,0.0,0.0
670,167.25,85.0092,94.6236,143.563,100.466,89.7425,0.000946943,0.0737907,21.0098,867.049,1.01243,0.0,0.0
680,169.75,83.6235,92.0097,143.976,100.459,89.9836,0.00057032,0.0710197,21.011,867.049,0.987709,0.0,0.0
690,172.25,81.7315,90.0262,144.631,100.323,91.232,0.000160979,0.0684729,21.0118,867.049,0.851999,0.0,0.0
700,174.75,80.1251,88.2723,145.691,100.187,89.1316,5.62303e-05,0.0664845,21.0121,867.069,1.04879,0.0,0.0
710,177.25,78.831,86.3923,145.963,100.46,89.5219,0.000194066,0.0645521,21.0122,867.029,1.03395,0.0,0.0
720,179.75,77.737,84.1188,143.253,100.834,90.3471,0.000214899,0.0628854,21.0122,867.039,0.984957,0.0,0.0
730,182.25,76.1493,82.3461,143.197,100.927,89.6242,6.55344e-05,0.0613613,21.0123,867.049,1.06529,0.0,0.0
740,184.75,75.4539,80.8649,146.717,100.754,89.5882,-6.29279e-05,0.0600411,21.0123,867.029,1.0535,0.0,0.0
750,187.25,74.5056,79.187,150.74,100.349,89.5266,-2.2312e-05,0.0588924,21.014,867.039,1.0236,0.0,0.0
760,189.75,72.517,77.569,147.02,100.405,90.453,9.57137e-05,0.0578181,21.0162,867.019,0.936262,0.0,0.0
770,192.25,72.3243,76.9142,147.217,100.642,89.4204,0.000131209,0.0568116,21.017,867.009,1.06038,0.0,0.0
780,194.75,71.0721,75.3335,146.123,100.852,90.1359,7.87258e-05,0.055928,21.0173,867.029,1.00759,0.0,0.0
790,197.25,69.6106,73.6095,144.229,101.016,90.2537,9.34113e-05,0.055014,21.0174,866.999,1.01046,0.0,0.0
800,199.75,69.6271,72.5454,149.186,101.025,91.1134,6.35712e-05,0.0540836,21.0174,867.019,0.926188,0.0,0.0
810,202.25,68.4331,71.752,148.598,100.932,90.2002,-6.01456e-05,0.0534046,21.0174,866.979,1.00831,0.0,0.0
820,204.75,68.0069,70.3082,147.168,100.727,90.3157,-6.76291e-05,0.0528186,21.0188,866.999,0.978622,0.0,0.0
830,207.25,66.9923,69.5461,145.151,100.471,89.7312,-0.000119823,0.0522624,21.0194,867.009,1.01403,0.0,0.0
840,209.75,65.7937,68.524,146.473,100.138,89.0514,-0.000197388,0.0517891,21.0194,867.029,1.0524,0.0,0.0
850,212.25,65.3999,67.2822,145.591,99.7912,88.4866,-0.000155206,0.0512347,21.0185,867.049,1.07839,0.0,0.0
860,214.75,65.4457,67.3401,145.134,99.462,89.9785,-0.000103469,0.0507192,21.017,867.029,0.89878,0.0,0.0
870,217.25,64.9329,66.9169,150.057,99.1826,88.2777,-5.13356e-05,0.0502974,21.0164,867.039,1.04472,0.0,0.0
880,219.75,64.4737,66.0368,146.674,98.9886,88.6614,1.77317e-05,0.0500109,21.0171,867.009,0.988253,0.0,0.0
890,222.25,63.6237,65.4161,147.726,98.8799,88.3769,2.35044e-05,0.0497369,21.0164,866.989,1.00723,0.0,0.0
900,224.75,62.3487,64.1325,143.08,98.8803,88.9351,,0.0497284,,867.029,0.950798,0.0,0.0
910,227.25,62.7842,64.1189,147.075,98.9428,88.7417,,,,867.019,0.975992,0.0,0.0
920,229.75,62.1227,63.562,147.021,99.0862,89.0359,,,,867.009,0.959295,0.0,0.0
930,232.25,61.6532,62.5712,146.908,99.2467,89.8029,,,,866.989,0.896869,0.0,0.0
940,234.75,61.2938,62.3721,147.527,99.4362,89.6153,,,,866.979,0.932738,0.0,0.0
941,235,61.6982,62.3915,149.989,99.4448,89.3576,,,,866.989,0.959348,0.0,0.0