File: 01_Data/LDPE/Cone/LDPE_HRRPUA_75.csv
Time after Ignition,LDPE_R1,LDPE_R2,LDPE_R3,Mean,Std. Dev.
0.0,38.0,41.2,13.3,30.8,15.3
0.5,42.4,46.6,16.7,35.2,16.2
1.0,45.8,51.5,20.0,39.1,16.8
1.5,53.4,60.3,24.5,46.1,19.0
2.0,62.8,66.7,29.3,53.0,20.5
2.5,70.5,75.7,33.5,59.9,23.0
3.0,79.7,84.7,38.2,67.5,25.6
3.5,86.8,92.6,42.9,74.1,27.2
4.0,95.0,99.8,48.2,81.0,28.5
4.5,101.7,110.3,53.5,88.5,30.6
5.0,110.1,117.4,58.4,95.3,32.1
5.5,117.7,124.2,63.8,101.9,33.2
6.0,127.8,130.2,66.5,108.1,36.1
6.5,132.5,137.4,69.8,113.3,37.7
7.0,146.0,146.0,74.5,122.1,41.3
7.5,150.8,156.0,80.4,129.1,42.2
8.0,167.6,161.3,83.9,137.6,46.6
8.5,176.6,172.5,88.8,146.0,49.6
9.0,190.7,177.3,93.6,153.9,52.6
9.5,200.1,191.8,101.7,164.5,54.6
10.0,212.9,204.1,110.9,175.9,56.5
10.5,229.3,218.6,122.8,190.2,58.7
11.0,232.7,230.1,132.0,198.3,57.4
11.5,241.1,242.3,145.0,209.4,55.8
12.0,256.1,250.7,154.8,220.5,57.0
12.5,273.8,260.2,164.6,232.9,59.5
13.0,279.4,266.2,175.6,240.4,56.5
13.5,287.3,277.5,180.8,248.5,58.9
14.0,302.9,298.6,195.1,265.6,61.1
14.5,328.5,294.7,205.2,276.1,63.7
15.0,342.0,308.0,215.3,288.4,65.6
15.5,349.1,321.8,226.5,299.1,64.4
16.0,367.4,314.1,233.2,304.9,67.6
16.5,387.9,326.6,260.2,324.9,63.9
17.0,391.1,348.5,257.9,332.5,68.0
17.5,405.8,353.8,279.9,346.5,63.3
18.0,404.5,373.3,288.9,355.5,59.8
18.5,432.5,371.9,297.4,367.2,67.7
19.0,448.1,388.2,317.0,384.4,65.7
19.5,435.4,413.0,320.5,389.6,60.9
20.0,453.3,429.7,324.5,402.5,68.6
20.5,477.7,416.3,332.1,408.7,73.1
21.0,481.6,426.1,352.5,420.1,64.8
21.5,484.9,445.0,360.7,430.2,63.4
22.0,478.9,468.3,383.1,443.4,52.5
22.5,507.2,484.3,392.5,461.3,60.7
23.0,538.7,475.9,415.1,476.6,61.8
23.5,569.9,517.7,432.4,506.7,69.4
24.0,618.0,544.0,452.0,538.0,83.2
24.5,641.0,585.3,455.5,560.6,95.2
25.0,640.4,567.0,470.2,559.2,85.4
25.5,648.4,616.8,470.8,578.7,94.7
26.0,714.7,655.7,486.5,619.0,118.5
26.5,701.7,649.1,527.3,626.0,89.5
27.0,732.7,693.4,538.9,655.0,102.5
27.5,729.2,696.0,583.9,669.7,76.2
28.0,759.9,720.3,541.5,673.9,116.4
28.5,783.9,773.5,566.3,707.9,122.8
29.0,818.7,726.7,619.5,721.7,99.7
29.5,882.6,765.2,574.7,740.9,155.4
30.0,934.8,807.0,642.8,794.9,146.4
30.5,924.3,812.0,649.7,795.4,138.1
31.0,955.9,930.6,692.1,859.5,145.5
31.5,955.4,899.4,694.0,849.6,137.7
32.0,978.7,983.0,746.7,902.8,135.2
32.5,1007.8,936.0,743.6,895.8,136.6
33.0,1094.3,980.9,815.0,963.4,140.5
33.5,987.0,1043.5,807.8,946.1,123.1
34.0,1100.1,966.9,874.5,980.5,113.4
34.5,1175.0,1117.9,846.4,1046.5,175.6
35.0,1154.5,1150.6,863.7,1056.3,166.8
35.5,1166.0,1090.8,861.1,1039.3,158.8
36.0,1222.9,1204.9,1002.4,1143.4,122.4
36.5,1223.8,1052.0,953.6,1076.5,136.8
37.0,1374.0,1117.6,960.3,1150.6,208.8
37.5,1278.3,1087.3,1081.0,1148.9,112.1
38.0,1262.9,1375.9,1112.2,1250.4,132.3
38.5,1425.7,1242.6,1111.3,1259.9,157.9
39.0,1373.9,1262.5,1092.7,1243.0,141.6
39.5,1441.5,1260.0,1170.1,1290.5,138.2
40.0,1467.7,1231.0,1172.6,1290.5,156.3
40.5,1389.0,1350.7,1093.5,1277.7,160.7
41.0,1367.6,1210.8,1201.2,1259.9,93.4
41.5,1326.1,1510.8,1217.8,1351.6,148.2
42.0,1540.4,1438.2,1329.1,1435.9,105.7
42.5,1416.3,1419.3,1225.5,1353.7,111.0
43.0,1386.2,1475.3,1261.3,1374.3,107.5
43.5,1670.1,1574.4,1265.3,1503.3,211.6
44.0,1856.7,1403.9,1245.0,1501.9,317.4
44.5,1576.7,1734.5,1348.4,1553.2,194.1
45.0,2008.7,1807.4,1405.1,1740.4,307.3
45.5,1370.8,1709.0,1305.3,1461.7,216.6
46.0,1639.3,1601.0,1309.1,1516.5,180.6
46.5,1787.2,1607.5,1563.3,1652.7,118.6
47.0,1434.4,1869.4,1588.4,1630.8,220.6
47.5,1942.4,1854.4,1595.7,1797.5,180.2
48.0,2086.2,2081.3,1544.6,1904.0,311.3
48.5,1963.9,1846.7,1624.1,1811.6,172.6
49.0,2044.2,1866.0,1554.2,1821.4,248.0
49.5,1709.0,2131.9,1613.5,1818.1,275.9
50.0,2059.5,2124.2,1739.5,1974.4,206.0
50.5,1756.5,1926.6,1670.8,1784.6,130.2
51.0,2121.2,1921.2,1669.2,1903.9,226.5
51.5,2059.7,2282.1,1580.2,1974.0,358.7
52.0,2548.2,1582.3,1784.7,1971.7,509.4
52.5,2116.0,2331.9,1485.4,1977.8,439.8
53.0,2178.5,1859.7,1696.5,1911.6,245.1
53.5,2341.7,2141.2,1706.9,2063.3,324.5
54.0,1783.9,2467.3,2090.1,2113.7,342.3
54.5,1840.6,2019.2,1630.2,1830.0,194.7
55.0,2360.4,1945.7,1652.3,1986.1,355.8
55.5,2340.7,1874.6,1707.7,1974.3,328.1
56.0,2144.0,2253.4,1953.9,2117.1,151.5
56.5,2304.2,2087.6,1837.2,2076.3,233.7
57.0,2383.4,2164.4,1979.1,2175.6,202.4
57.5,2089.6,2748.2,1896.3,2244.7,446.6
58.0,2109.7,1985.5,2016.1,2037.1,64.7
58.5,2015.7,2750.8,2025.3,2263.9,421.7
59.0,2482.8,2508.2,1988.7,2326.6,292.9
59.5,2812.3,1966.5,2047.2,2275.4,466.7
60.0,2396.1,2295.7,1790.2,2160.6,324.7
60.5,2815.7,2777.3,2250.6,2614.6,315.8
61.0,2041.1,2476.5,1934.5,2150.7,287.1
61.5,2198.3,2044.8,2249.3,2164.1,106.5
62.0,2731.7,2017.1,2231.9,2326.9,366.6
62.5,2795.8,2698.8,1960.5,2485.0,456.8
63.0,2706.7,2858.7,2280.5,2615.3,299.7
63.5,1956.3,2936.7,1904.5,2265.8,581.6
64.0,2287.5,2390.7,2275.7,2318.0,63.3
64.5,2388.8,2759.8,2002.6,2383.7,378.6
65.0,2191.1,1831.1,2048.1,2023.4,181.3
65.5,2866.8,2715.6,1841.9,2474.8,553.3
66.0,2302.5,2393.6,1805.5,2167.2,316.5
66.5,2140.9,2890.6,1717.4,2249.6,594.1
67.0,2720.9,2651.5,2345.5,2572.7,199.7
67.5,2443.7,2942.2,2316.4,2567.4,330.7
68.0,2780.0,2610.7,2323.5,2571.4,230.8
68.5,2405.3,2928.3,1882.0,2405.2,523.2
69.0,2330.0,2914.7,2154.0,2466.2,398.2
69.5,2359.8,2509.2,2142.7,2337.3,184.3
70.0,2305.8,2394.2,2170.7,2290.2,112.6
70.5,2464.3,2390.5,1858.8,2237.9,330.3
71.0,2636.6,2868.7,2489.0,2664.8,191.4
71.5,2370.4,2490.0,2275.9,2378.8,107.3
72.0,1920.9,2713.8,2445.3,2360.0,403.3
72.5,2224.7,2586.8,2014.0,2275.2,289.7
73.0,2071.6,3218.3,2021.2,2437.0,677.1
73.5,2175.1,2826.3,1645.0,2215.5,591.7
74.0,2442.3,2627.4,2537.0,2535.6,92.5
74.5,2389.6,2755.5,2471.1,2538.7,192.1
75.0,2387.3,2624.6,2316.2,2442.7,161.5
75.5,2454.8,2767.1,2090.8,2437.6,338.5
76.0,2312.6,3128.4,1927.1,2456.0,613.3
76.5,2087.0,2812.9,1970.4,2290.1,456.5
77.0,1738.8,3052.7,1898.6,2230.0,716.9
77.5,2519.5,3397.1,2303.6,2740.0,579.1
78.0,2083.4,2991.6,2444.2,2506.4,457.3
78.5,2368.1,2763.9,1902.2,2344.7,431.3
79.0,2000.1,3287.3,2374.1,2553.8,662.2
79.5,2617.7,2614.0,1939.0,2390.3,390.8
80.0,2471.2,2513.5,2262.5,2415.8,134.4
80.5,2404.5,3098.1,2383.5,2628.7,406.7
81.0,2576.8,2778.3,2234.1,2529.7,275.1
81.5,2744.6,2946.0,2402.6,2697.7,274.7
82.0,2268.6,3290.9,2406.4,2655.3,554.7
82.5,2199.5,2796.1,2480.4,2492.0,298.5
83.0,2375.3,2823.3,2298.8,2499.2,283.3
83.5,1931.4,2775.0,2113.7,2273.4,443.9
84.0,2602.0,2802.3,2780.2,2728.2,109.9
84.5,2276.2,2736.8,1981.9,2331.6,380.5
85.0,2621.1,2674.6,2482.9,2592.9,99.0
85.5,2192.6,2597.6,2502.5,2430.9,211.8
86.0,2276.6,2555.5,2302.9,2378.4,154.0
86.5,2065.3,2535.2,2432.5,2344.3,247.0
87.0,2524.8,2458.2,2267.6,2416.9,133.5
87.5,2181.1,2384.6,2424.8,2330.2,130.7
88.0,2176.3,2200.1,2437.7,2271.4,144.5
88.5,2314.2,2024.3,2212.3,2183.6,147.1
89.0,2225.6,1900.8,2341.3,2155.9,228.4
89.5,2273.6,1780.7,2605.8,2220.0,415.1
90.0,2274.4,,2240.4,2257.4,24.0
90.5,2208.6,,2304.1,2256.4,67.5
91.0,2160.4,,2389.6,2275.0,162.0
91.5,2020.4,,2308.2,2164.3,203.5
92.0,1923.7,,2254.7,2089.2,234.1
92.5,1779.9,,2374.1,2077.0,420.2