File: 01_Data/LDPE/Cone/LDPE_HRRPUA_50.csv
Time after Ignition,LDPE_R1,LDPE_R2,LDPE_R3,Mean,Std. Dev.
0.0,15.9,7.5,13.6,12.3,4.3
0.75,18.0,10.0,16.2,14.7,4.2
1.5,21.3,12.4,19.5,17.8,4.7
2.25,26.0,17.7,23.6,22.4,4.3
3.0,30.5,22.9,28.1,27.2,3.9
3.75,35.0,27.4,33.9,32.1,4.1
4.5,41.1,31.9,39.6,37.5,4.9
5.25,46.5,35.6,46.3,42.8,6.3
6.0,50.6,38.9,52.8,47.4,7.4
6.75,56.3,43.1,59.0,52.8,8.5
7.5,61.7,47.9,62.8,57.5,8.3
8.25,65.7,53.3,68.5,62.5,8.1
9.0,69.9,59.9,73.7,67.8,7.1
9.75,74.7,67.7,80.5,74.3,6.4
10.5,79.6,74.1,85.9,79.9,5.9
11.25,82.5,81.8,92.1,85.4,5.8
12.0,88.3,86.6,97.5,90.8,5.9
12.75,92.8,92.7,106.4,97.3,7.9
13.5,99.2,96.9,112.2,102.8,8.2
14.25,106.0,103.8,118.1,109.3,7.7
15.0,108.5,109.6,124.1,114.1,8.7
15.75,116.5,114.0,130.2,120.2,8.7
16.5,121.6,120.6,138.0,126.8,9.7
17.25,130.6,129.0,143.5,134.4,8.0
18.0,135.0,135.5,147.1,139.2,6.8
18.75,148.6,145.1,159.8,151.2,7.7
19.5,158.2,150.5,170.2,159.7,9.9
20.25,168.6,157.1,172.4,166.0,8.0
21.0,181.7,168.7,188.7,179.7,10.1
21.75,184.3,177.2,192.2,184.6,7.5
22.5,193.9,186.0,203.1,194.3,8.6
23.25,209.2,197.9,207.1,204.7,6.0
24.0,209.8,206.8,216.8,211.1,5.1
24.75,230.7,213.5,222.5,222.2,8.6
25.5,237.5,222.8,230.3,230.2,7.3
26.25,249.1,224.9,245.1,239.7,13.0
27.0,259.4,237.9,250.9,249.4,10.9
27.75,264.2,248.0,254.9,255.7,8.1
28.5,282.3,261.6,273.2,272.4,10.4
29.25,284.7,264.7,284.3,277.9,11.4
30.0,299.9,279.2,302.1,293.8,12.6
30.75,304.0,294.6,326.7,308.4,16.5
31.5,326.3,307.5,340.1,324.6,16.4
32.25,333.9,332.4,338.8,335.1,3.4
33.0,335.8,348.6,357.8,347.4,11.0
33.75,350.1,373.9,393.1,372.4,21.5
34.5,380.4,380.8,420.0,393.7,22.7
35.25,365.0,384.4,434.5,394.6,35.9
36.0,393.9,416.2,453.0,421.0,29.9
36.75,395.5,413.7,480.5,429.9,44.8
37.5,407.8,447.7,472.8,442.8,32.8
38.25,419.0,449.7,508.3,459.0,45.4
39.0,419.4,464.7,525.8,469.9,53.4
39.75,446.7,495.2,531.7,491.2,42.6
40.5,446.0,500.7,567.5,504.7,60.9
41.25,502.2,535.2,575.3,537.5,36.6
42.0,494.8,539.3,613.8,549.3,60.2
42.75,502.5,563.9,627.0,564.4,62.3
43.5,532.5,578.3,663.8,591.5,66.7
44.25,534.2,631.4,675.6,613.7,72.3
45.0,555.6,602.7,695.5,617.9,71.2
45.75,591.4,696.3,720.2,669.3,68.5
46.5,605.3,670.6,719.9,665.3,57.5
47.25,600.6,711.3,743.7,685.2,75.0
48.0,611.3,659.0,716.6,662.3,52.7
48.75,658.3,702.8,761.6,707.6,51.8
49.5,661.4,735.3,778.7,725.2,59.3
50.25,668.0,733.7,798.3,733.3,65.1
51.0,662.9,719.7,839.3,740.6,90.0
51.75,706.8,754.5,891.1,784.1,95.7
52.5,757.0,772.1,842.8,790.6,45.8
53.25,752.9,836.5,912.4,833.9,79.8
54.0,769.6,907.2,855.0,844.0,69.5
54.75,785.4,809.5,942.9,845.9,84.8
55.5,871.7,859.9,1014.2,915.3,85.8
56.25,835.4,837.0,961.4,877.9,72.3
57.0,858.4,912.7,1039.7,937.0,93.0
57.75,967.7,964.1,1002.4,978.1,21.1
58.5,950.7,927.8,1055.0,977.8,67.8
59.25,913.3,990.7,1055.4,986.5,71.2
60.0,1002.2,1018.5,1179.6,1066.8,98.1
60.75,982.7,1065.5,1120.5,1056.2,69.4
61.5,991.9,1083.6,1208.9,1094.8,108.9
62.25,1091.1,998.9,1154.6,1081.5,78.3
63.0,1056.8,1109.8,1168.3,1111.6,55.8
63.75,1099.0,1122.8,1154.4,1125.4,27.8
64.5,1124.9,1155.3,1330.1,1203.4,110.8
65.25,1060.0,1141.5,1100.2,1100.6,40.8
66.0,1153.9,1190.7,1310.3,1218.3,81.8
66.75,1275.1,1289.0,1483.7,1349.3,116.6
67.5,1146.3,1174.0,1356.8,1225.7,114.4
68.25,1311.0,1405.1,1257.9,1324.7,74.6
69.0,1259.0,1258.5,1306.3,1274.6,27.5
69.75,1487.3,1353.7,1389.0,1410.0,69.2
70.5,1257.7,1487.0,1499.3,1414.7,136.1
71.25,1455.7,1554.7,1640.0,1550.1,92.2
72.0,1452.9,1324.3,1467.6,1414.9,78.8
72.75,1461.8,1452.1,1632.2,1515.4,101.3
73.5,1629.8,1574.9,1551.4,1585.4,40.2
74.25,1687.7,1454.5,1608.8,1583.7,118.6
75.0,1721.8,1615.4,1512.1,1616.4,104.9
75.75,1492.1,1635.0,1892.1,1673.1,202.7
76.5,1898.6,1680.1,1930.9,1836.5,136.5
77.25,1831.7,1467.2,1646.6,1648.5,182.3
78.0,1784.0,1663.1,1804.8,1750.7,76.5
78.75,1734.8,1716.4,1742.7,1731.3,13.5
79.5,1824.9,1832.5,1871.0,1842.8,24.7
80.25,1867.4,1948.3,1700.5,1838.7,126.4
81.0,1970.3,2002.9,1840.2,1937.8,86.1
81.75,1946.8,2003.5,1940.1,1963.5,34.8
82.5,2257.9,1891.9,1969.1,2039.6,192.9
83.25,2287.2,1835.2,2004.8,2042.4,228.3
84.0,1798.4,2096.9,2082.4,1992.6,168.3
84.75,2086.8,1835.8,1654.1,1858.9,217.2
85.5,2064.9,1874.0,1943.2,1960.7,96.7
86.25,2014.0,1935.5,1903.3,1950.9,57.0
87.0,2014.9,1629.4,2055.3,1899.9,235.1
87.75,2138.7,1896.3,1978.8,2004.6,123.3
88.5,2024.6,2021.1,2247.8,2097.8,129.8
89.25,2144.5,2207.8,2043.0,2131.8,83.2
90.0,2036.6,2198.7,2265.8,2167.0,117.8
90.75,2054.2,1919.6,2281.0,2084.9,182.6
91.5,2034.4,1841.4,2288.6,2054.8,224.3
92.25,2021.2,1733.5,2159.4,1971.3,217.3
93.0,1940.6,1739.4,2126.8,1935.6,193.7
93.75,1987.6,1912.3,2313.2,2071.0,213.1
94.5,1855.1,1718.7,2302.3,1958.7,305.3
95.25,2000.4,2071.4,2343.9,2138.5,181.3
96.0,1980.4,1795.6,1972.2,1916.1,104.4
96.75,1849.5,2295.5,1905.4,2016.8,243.0
97.5,1888.2,1732.0,2512.9,2044.3,413.2
98.25,1975.7,1863.7,2101.3,1980.2,118.8
99.0,1793.7,1913.4,2148.4,1951.8,180.4
99.75,2021.0,2057.1,2108.3,2062.1,43.9
100.5,1744.0,2061.2,1897.6,1901.0,158.6
101.25,1757.8,1842.3,2099.1,1899.7,177.7
102.0,1851.9,2102.7,2185.2,2046.6,173.6
102.75,1781.7,1770.9,2317.7,1956.8,312.6
103.5,1763.3,1829.4,2625.1,2072.6,479.6
104.25,1740.3,1673.9,2264.3,1892.8,323.4
105.0,1755.4,2056.1,2854.1,2221.8,567.8
105.75,1681.0,1919.3,2363.3,1987.9,346.3
106.5,1642.9,1999.6,2642.3,2094.9,506.5
107.25,1822.7,1862.4,2193.7,1959.6,203.7
108.0,1506.3,2112.1,2428.5,2015.6,468.6
108.75,1641.1,2050.7,2168.5,1953.4,276.8
109.5,1631.5,2107.6,2162.4,1967.2,292.0
110.25,1538.0,1736.2,2317.8,1864.0,405.3
111.0,1721.5,1997.1,2293.1,2003.9,285.9
111.75,1653.5,1940.6,2346.2,1980.1,348.0
112.5,1692.8,1808.3,2081.7,1860.9,199.7
113.25,1491.3,1752.5,1945.6,1729.8,228.0
114.0,1596.0,1931.5,1866.4,1798.0,177.9
114.75,1779.1,1774.6,1917.7,1823.8,81.4
115.5,1511.1,1739.4,1903.0,1717.8,196.8
116.25,1552.9,1828.1,1824.5,1735.2,157.9
117.0,1580.3,1777.9,1690.7,1683.0,99.0
117.75,1652.1,1622.0,1680.3,1651.5,29.1
118.5,1479.1,1625.0,1634.7,1579.6,87.2
119.25,1658.3,1614.9,1530.3,1601.2,65.1
120.0,1587.1,1698.0,1451.3,1578.8,123.6
120.75,1505.1,1604.4,1356.7,1488.7,124.7
121.5,1590.5,1538.0,1241.0,1456.5,188.5
122.25,1457.9,1497.0,1123.1,1359.3,205.5
123.0,1577.7,1498.7,991.0,1355.8,318.4
123.75,1397.2,1469.5,873.8,1246.8,325.1
124.5,1496.2,1406.5,764.7,1222.5,399.0
125.25,1424.4,1347.4,658.6,1143.4,421.7
126.0,1355.6,1353.5,570.8,1093.3,452.5
126.75,1348.6,1186.5,495.8,1010.3,452.9
127.5,1358.1,1207.4,442.2,1002.6,491.1
128.25,1323.0,1113.1,381.3,939.1,494.3
129.0,1261.8,1052.8,339.2,884.6,483.7
129.75,1178.1,985.4,294.0,819.2,464.9
130.5,1077.6,920.4,255.6,751.2,436.4
131.25,1007.9,868.3,222.8,699.7,418.8
132.0,900.1,811.9,193.5,635.2,385.0
132.75,818.9,738.2,175.4,577.5,350.5
133.5,724.4,687.6,153.7,521.9,319.4
134.25,660.7,614.7,,637.7,32.5
135.0,582.0,544.7,,563.4,26.4
135.75,511.6,465.3,,488.4,32.7
136.5,447.3,407.5,,427.4,28.1
137.25,384.5,,,384.5,
138.0,336.3,,,336.3,
138.75,286.0,,,286.0,
139.5,247.7,,,247.7,
140.25,211.8,,,211.8,
140.5,204.6,,,204.6,