File: 01_Data/LDPE/Cone/LDPE_HRRPUA_25.csv
Time after Ignition,LDPE_R1,LDPE_R2,LDPE_R3,Mean,Std. Dev.
0.0,29.5,23.2,12.5,21.8,8.6
1.0,31.3,25.2,14.3,23.6,8.6
2.0,33.3,27.3,15.5,25.4,9.1
3.0,35.6,30.1,17.1,27.6,9.5
4.0,39.9,32.0,18.8,30.3,10.6
5.0,42.7,33.1,19.7,31.8,11.5
6.0,45.5,36.4,21.9,34.6,11.9
7.0,46.0,38.6,23.4,36.0,11.5
8.0,49.0,40.4,25.1,38.2,12.1
9.0,51.5,42.6,27.6,40.6,12.1
10.0,54.1,45.9,29.3,43.1,12.6
11.0,56.6,47.5,30.7,44.9,13.1
12.0,57.5,50.0,32.4,46.6,12.9
13.0,61.2,50.4,33.5,48.4,14.0
14.0,66.3,52.9,35.5,51.6,15.5
15.0,71.0,54.7,37.4,54.4,16.8
16.0,73.4,57.9,39.8,57.0,16.8
17.0,76.5,60.4,40.9,59.3,17.8
18.0,79.1,62.7,42.7,61.5,18.3
19.0,80.8,64.7,45.3,63.6,17.8
20.0,83.6,65.9,46.5,65.4,18.6
21.0,85.0,67.9,49.8,67.5,17.6
22.0,89.7,68.2,51.7,69.9,19.0
23.0,93.7,70.4,54.1,72.7,19.9
24.0,96.0,72.2,55.8,74.7,20.2
25.0,102.4,76.9,58.1,79.1,22.2
26.0,105.1,77.1,59.0,80.4,23.2
27.0,109.1,81.2,61.4,83.9,23.9
28.0,112.0,83.5,65.2,86.9,23.6
29.0,114.4,86.3,67.6,89.4,23.6
30.0,119.6,91.5,70.2,93.8,24.8
31.0,122.5,91.8,73.4,95.9,24.8
32.0,125.3,95.0,77.2,99.2,24.3
33.0,128.7,98.0,81.0,102.6,24.2
34.0,130.2,100.3,83.1,104.5,23.9
35.0,132.3,102.2,86.4,106.9,23.3
36.0,135.8,106.4,89.9,110.7,23.2
37.0,139.3,110.9,95.7,115.3,22.1
38.0,141.5,113.4,99.1,118.0,21.5
39.0,144.1,118.5,102.2,121.6,21.1
40.0,145.2,120.0,106.2,123.8,19.8
41.0,149.5,123.7,104.6,125.9,22.6
42.0,151.0,124.3,110.9,128.7,20.4
43.0,153.0,127.6,115.9,132.2,19.0
44.0,156.1,132.4,120.5,136.3,18.1
45.0,160.1,134.9,124.0,139.7,18.5
46.0,162.8,138.0,129.1,143.3,17.5
47.0,167.8,142.1,131.0,147.0,18.8
48.0,169.4,142.5,136.5,149.5,17.5
49.0,179.3,147.8,140.3,155.8,20.7
50.0,178.9,153.3,142.6,158.3,18.7
51.0,187.8,154.6,149.2,163.9,20.9
52.0,195.6,155.2,152.0,167.6,24.3
53.0,199.6,157.5,154.4,170.5,25.3
54.0,199.7,164.5,156.7,173.6,22.9
55.0,209.2,168.8,161.8,179.9,25.6
56.0,212.5,166.3,162.7,180.5,27.8
57.0,216.7,170.9,168.8,185.4,27.1
58.0,223.0,176.1,175.9,191.7,27.2
59.0,231.7,184.3,178.4,198.1,29.3
60.0,254.3,189.9,179.6,208.0,40.5
61.0,254.9,194.4,185.0,211.5,37.9
62.0,265.0,203.2,191.7,220.0,39.4
63.0,263.6,208.6,192.7,221.6,37.2
64.0,274.0,217.7,198.9,230.2,39.1
65.0,280.5,225.3,206.0,237.3,38.7
66.0,292.1,229.8,213.1,245.0,41.6
67.0,301.7,231.8,217.7,250.4,45.0
68.0,316.8,241.1,234.9,264.3,45.6
69.0,333.1,255.4,241.0,276.5,49.5
70.0,347.0,262.9,248.7,286.2,53.1
71.0,356.9,275.7,264.1,298.9,50.5
72.0,374.5,282.5,268.0,308.3,57.7
73.0,380.8,300.0,285.4,322.1,51.4
74.0,386.8,320.8,295.0,334.2,47.4
75.0,399.5,330.5,303.5,344.5,49.5
76.0,399.3,339.8,317.1,352.1,42.4
77.0,433.0,340.2,328.6,367.3,57.2
78.0,443.3,351.5,339.1,378.0,56.9
79.0,454.2,362.0,361.1,392.4,53.5
80.0,489.6,379.7,364.5,411.3,68.3
81.0,485.1,388.1,376.8,416.7,59.5
82.0,492.3,413.4,385.7,430.5,55.3
83.0,502.9,407.9,395.1,435.3,58.9
84.0,532.7,418.2,407.4,452.8,69.4
85.0,507.4,432.6,415.5,451.8,48.9
86.0,523.4,450.6,416.0,463.4,54.8
87.0,532.2,442.1,432.9,469.1,54.8
88.0,544.0,448.1,441.0,477.7,57.6
89.0,547.9,469.2,455.3,490.8,50.0
90.0,553.9,489.9,462.5,502.1,46.9
91.0,571.6,494.4,488.0,518.0,46.5
92.0,577.0,477.1,489.8,514.6,54.4
93.0,604.3,492.3,487.4,528.0,66.1
94.0,605.6,527.5,525.4,552.8,45.7
95.0,588.1,537.2,536.2,553.8,29.7
96.0,632.7,554.7,544.3,577.2,48.3
97.0,639.5,555.3,543.0,579.3,52.5
98.0,642.5,579.3,573.2,598.3,38.4
99.0,650.9,601.9,584.0,612.3,34.6
100.0,636.4,583.3,579.2,599.6,31.9
101.0,679.8,603.2,587.2,623.4,49.5
102.0,675.7,632.0,602.1,636.6,37.0
103.0,678.6,637.6,618.3,644.8,30.8
104.0,662.2,648.0,617.0,642.4,23.1
105.0,721.4,660.4,645.7,675.8,40.1
106.0,770.9,694.8,659.4,708.4,57.0
107.0,770.7,667.2,655.6,697.8,63.4
108.0,741.7,662.9,678.1,694.2,41.8
109.0,770.4,686.0,676.2,710.9,51.8
110.0,737.0,731.2,681.6,716.6,30.4
111.0,791.4,747.7,719.3,752.8,36.3
112.0,777.9,737.3,717.6,744.2,30.8
113.0,805.4,742.8,696.1,748.1,54.8
114.0,808.6,752.5,693.2,751.5,57.7
115.0,831.1,783.8,737.4,784.1,46.8
116.0,871.9,780.8,734.7,795.8,69.8
117.0,820.8,836.1,752.5,803.1,44.5
118.0,849.7,793.8,760.3,801.3,45.1
119.0,819.6,849.0,775.5,814.7,37.0
120.0,872.9,832.8,782.5,829.4,45.3
121.0,880.6,892.5,800.4,857.8,50.1
122.0,874.1,827.8,776.8,826.2,48.6
123.0,880.8,893.3,777.4,850.5,63.6
124.0,889.1,955.2,836.4,893.6,59.6
125.0,910.7,958.9,849.9,906.5,54.6
126.0,849.9,983.0,876.1,903.0,70.5
127.0,975.7,978.3,874.5,942.8,59.2
128.0,898.6,966.9,812.2,892.6,77.5
129.0,945.8,981.7,896.6,941.4,42.7
130.0,943.7,981.5,932.9,952.7,25.5
131.0,971.9,1102.1,858.0,977.3,122.1
132.0,954.1,1089.2,917.8,987.0,90.3
133.0,946.5,1099.6,893.2,979.8,107.1
134.0,1003.2,1104.5,905.8,1004.5,99.4
135.0,956.3,1050.3,948.9,985.2,56.5
136.0,1018.8,1114.5,980.6,1037.9,69.0
137.0,1057.6,1140.0,957.1,1051.6,91.6
138.0,1020.5,1127.6,1028.9,1059.0,59.6
139.0,1008.4,1168.9,1027.2,1068.2,87.8
140.0,1036.0,1319.6,1122.5,1159.4,145.4
141.0,1031.7,1222.4,1088.0,1114.0,98.0
142.0,1028.5,1260.0,1059.6,1116.0,125.6
143.0,1114.8,1274.7,1130.0,1173.2,88.3
144.0,1052.7,1362.1,1022.2,1145.7,188.1
145.0,1112.7,1232.1,1095.3,1146.7,74.5
146.0,1062.9,1418.5,1103.6,1195.0,194.6
147.0,1062.3,1418.3,1141.8,1207.5,186.8
148.0,1176.9,1456.6,1300.8,1311.5,140.2
149.0,1213.4,1474.9,1218.9,1302.4,149.4
150.0,1109.5,1431.8,1175.0,1238.8,170.4
151.0,1031.8,1395.4,1256.7,1228.0,183.5
152.0,1164.8,1604.9,1202.9,1324.2,243.9
153.0,1196.6,1491.5,1268.3,1318.8,153.8
154.0,1156.6,1460.4,1179.5,1265.5,169.2
155.0,1215.0,1423.6,1269.3,1302.6,108.3
156.0,1135.6,1660.1,1273.8,1356.5,271.8
157.0,1326.4,1345.4,1458.4,1376.7,71.4
158.0,1216.9,1628.1,1349.2,1398.1,209.9
159.0,1229.3,1500.5,1452.5,1394.1,144.7
160.0,1267.9,1624.9,1466.2,1453.0,178.9
161.0,1313.9,1784.8,1308.2,1469.0,273.5
162.0,1339.6,1572.5,1530.2,1480.8,124.1
163.0,1189.5,1677.5,1611.4,1492.8,264.8
164.0,1341.2,1665.6,1588.5,1531.8,169.5
165.0,1269.1,1675.0,1528.4,1490.9,205.5
166.0,1305.4,1816.8,1454.7,1525.6,263.0
167.0,1161.3,1735.0,1597.9,1498.1,299.6
168.0,1224.4,1919.1,1530.1,1557.9,348.2
169.0,1264.4,1714.4,1318.2,1432.3,245.8
170.0,1242.4,1734.4,1612.3,1529.7,256.2
171.0,1322.0,1785.8,1644.9,1584.2,237.8
172.0,1319.9,1711.0,1625.8,1552.2,205.7
173.0,1328.1,1615.9,1463.5,1469.2,144.0
174.0,1277.7,1764.6,1263.9,1435.4,285.2
175.0,1249.7,1695.9,1922.7,1622.8,342.4
176.0,1223.6,1616.2,1588.3,1476.1,219.1
177.0,1428.1,1591.0,1858.6,1625.9,217.4
178.0,1393.3,1608.2,1855.6,1619.0,231.4
179.0,1381.2,1657.7,1762.1,1600.3,196.9
180.0,1275.0,1535.0,1901.8,1570.6,314.9
181.0,1410.1,1551.9,1732.8,1564.9,161.8
182.0,1357.3,1439.3,1602.2,1466.3,124.7
183.0,1410.7,1399.0,1612.8,1474.2,120.2
184.0,1296.4,1325.3,1755.4,1459.0,257.1
185.0,1276.1,1342.0,1521.5,1379.9,127.0
186.0,1264.6,1240.3,1553.8,1352.9,174.4
187.0,1316.6,1211.1,1627.3,1385.0,216.4
188.0,1265.4,1207.4,1594.7,1355.8,208.9
189.0,1247.4,1092.1,1408.5,1249.3,158.2
190.0,1214.9,1026.9,1413.9,1218.6,193.5
191.0,1185.0,955.9,1416.8,1185.9,230.5
192.0,1196.4,912.9,1369.8,1159.7,230.7
193.0,1164.5,841.2,1318.9,1108.2,243.8
194.0,1126.5,806.2,1271.8,1068.2,238.2
195.0,1142.0,740.1,1238.2,1040.1,264.2
196.0,1045.0,665.0,1178.9,963.0,266.6
197.0,1076.6,580.8,1162.1,939.9,313.9
198.0,975.9,508.8,1053.9,846.2,294.8
199.0,978.8,433.2,1100.5,837.5,355.4
200.0,957.8,387.3,1060.8,801.9,362.8
201.0,999.0,330.9,1027.0,785.6,394.0
202.0,889.9,276.4,954.7,707.0,374.3
203.0,865.5,243.9,930.9,680.1,379.2
204.0,846.0,204.6,864.6,638.4,375.8
205.0,792.7,169.9,823.5,595.4,368.8
206.0,800.5,143.0,741.3,561.6,363.7
207.0,731.0,121.0,670.2,507.4,336.0
208.0,729.7,104.2,612.7,482.2,332.5
209.0,684.2,90.1,547.1,440.5,311.0
210.0,648.5,76.4,481.7,402.2,294.3
211.0,635.0,65.9,414.9,371.9,286.9
212.0,598.5,,371.2,484.8,160.8
213.0,566.2,,330.1,448.1,167.0
214.0,551.3,,277.7,414.5,193.5
215.0,538.7,,231.6,385.2,217.1
216.0,499.3,,194.4,346.9,215.6
217.0,472.6,,161.5,317.0,219.9
218.0,441.0,,,441.0,
219.0,413.1,,,413.1,
220.0,394.8,,,394.8,
221.0,369.7,,,369.7,
222.0,344.2,,,344.2,
223.0,327.8,,,327.8,
224.0,312.2,,,312.2,
225.0,295.8,,,295.8,
226.0,284.1,,,284.1,
227.0,255.6,,,255.6,
228.0,233.3,,,233.3,
229.0,207.0,,,207.0,
230.0,181.9,,,181.9,
231.0,158.3,,,158.3,
232.0,138.1,,,138.1,
233.0,119.6,,,119.6,
234.0,104.8,,,104.8,
235.0,93.0,,,93.0,
236.0,81.8,,,81.8,
237.0,72.0,,,72.0,
238.0,62.3,,,62.3,
239.0,54.5,,,54.5,
240.0,46.5,,,46.5,
240.75,41.0,,,41.0,