File: 01_Data/Masonite_Board/Cone/Masonite_Cone_HF50Scan_221212_R1.csv
Names,Time,Stack TC,Smoke TC,Exh Press,Smoke Comp,Smoke Meas,CO Meter,CO2 Meter,O2 Meter,Sample Mass,Ext Coeff,Start Test,Flame Verif
Chan Gain,,500,500,1,1,1,1,1,1,1,1,1.0,1.0
Offset,,0,0,0.131978,0,0,0,0,0,0,0,0.0,0.0
Gain,,1,1,25.011,13.4278,14.1503,1,1,1,1.00089,1.02125,1.0,1.0
Units,sec,C,C,Pa,%,%,%,%,%,g,/m,,
Baseline,,30.6781,31.5392,156.571,99.8918,99.8833,0.000952378,0.0476023,20.9377,-448.047,0.000771405,,
11,2.5,30.4397,30.4562,154.302,99.9108,99.8998,0.00089862,0.0542968,20.9295,80.3616,0.000986703,0.0,0.0
22,5.25,30.1056,30.7235,153.862,99.9801,100.036,0.000996734,0.0544318,20.9295,80.2515,-0.00499658,0.0,0.0
33,8,29.9328,30.5643,155.291,100.133,100.051,0.00117613,0.0543947,20.9295,80.1514,0.00741043,0.0,0.0
44,10.75,30.1338,30.7817,157.781,100.315,100.042,0.0014159,0.0536639,20.9295,80.0813,0.0244103,0.0,0.0
55,13.5,29.969,31.1686,159.02,100.47,100.245,0.00143068,0.0529301,20.9307,80.0213,0.0200747,0.0,0.0
66,16.25,30.3916,30.9117,156.316,100.612,99.9244,0.00122757,0.0527473,20.9307,79.9512,0.0613899,0.0,0.0
77,19,30.7136,31.2545,154.549,100.694,99.8934,0.00119033,0.0522617,20.9299,79.8211,0.071509,0.0,0.0
88,21.75,30.5036,31.3887,155.951,100.718,99.6187,0.00109355,0.0517858,20.9322,79.761,0.0983232,0.0,0.0
99,24.5,30.5387,31.6295,152.29,100.652,99.1238,0.0011058,0.0534892,20.9337,79.681,0.137031,0.0,0.0
110,27.25,30.6124,31.2901,156.44,100.485,98.7594,0.00108772,0.0570039,20.9319,79.5308,0.15521,0.0,0.0
121,30,30.4607,31.6372,152.564,100.246,98.1311,0.000999716,0.0594422,20.9267,79.3307,0.191062,0.0,0.0
132,32.75,31.2011,31.6231,153.278,99.9334,97.7497,0.000843732,0.0589496,20.924,79.1605,0.197918,0.0,0.0
143,35.5,30.8397,31.6419,155.772,99.5863,96.9051,0.00081895,0.0572817,20.924,78.9403,0.244497,0.0,0.0
154,38.25,30.5678,31.4348,160.445,99.2421,96.1895,0.00087371,0.0553602,20.9259,78.7802,0.279873,0.0,0.0
165,41,31.0251,31.4593,153.343,98.9306,94.78,0.000854804,0.053541,20.9278,78.64,0.383957,0.0,0.0
176,43.75,30.7558,31.5716,152.994,98.7028,93.4457,0.000950944,0.052292,20.9306,78.4599,0.49032,0.0,0.0
187,46.5,31.4413,32.2656,150.423,98.6167,98.6821,0.00124472,0.0520537,20.9345,78.1696,-0.00593265,0.0,1.0
198,49.25,31.8347,31.6636,144.71,98.6143,96.9077,0.001578,0.0539528,20.9361,77.8193,0.156391,0.0,1.0
209,52,33.5344,33.8774,138.149,98.7421,95.9093,0.00176745,0.0609435,20.9324,77.3389,0.26077,0.0,0.0
220,54.75,36.3146,35.5506,133.71,98.9765,95.8821,0.0021154,0.0940282,20.9221,76.8084,0.284552,0.0,0.0
231,57.5,37.949,37.3133,134.655,99.2744,96.5976,0.0026572,0.205105,20.8874,76.2479,0.244869,0.0,0.0
242,60.25,40.9253,40.3878,132.419,99.5728,95.5616,0.00315512,0.336728,20.7505,75.7174,0.368342,0.0,0.0
253,63,43.2268,43.1049,134.58,99.8113,95.5936,0.00371339,0.445286,20.5959,75.0268,0.386778,0.0,0.0
264,65.75,45.6877,45.1598,123.99,99.9637,94.9035,0.00435439,0.53583,20.4793,74.4463,0.465353,0.0,0.0
275,68.5,48.4799,47.9249,127.555,99.983,94.8245,0.00493852,0.619163,20.3683,73.7657,0.474541,0.0,0.0
286,71.25,50.9385,50.872,128.124,99.9801,91.8418,0.00523415,0.687949,20.2735,73.0651,0.760593,0.0,0.0
297,74,53.8919,54.4124,122.804,99.9248,92.3341,0.00529515,0.75011,20.1873,72.2844,0.707744,0.0,0.0
308,76.75,56.205,57.149,110.658,99.8055,91.8073,0.005584,0.805776,20.1078,71.4737,0.748308,0.0,0.0
319,79.5,59.7008,60.0949,121.924,99.6941,89.9279,0.0061173,0.864276,20.0413,70.6429,0.923582,0.0,0.0
330,82.25,63.011,63.8615,120.024,99.9731,88.5387,0.00678759,0.925509,19.9679,69.612,1.08809,0.0,0.0
341,85,66.1016,67.2757,110.695,100.364,85.6658,0.00738779,1.00096,19.8988,68.5911,1.4186,0.0,0.0
352,87.75,69.3588,71.0881,111.539,100.492,84.8543,0.00801517,1.09417,19.8047,67.5301,1.51519,0.0,0.0
363,90.5,73.1913,74.6386,113.289,100.382,83.1918,0.00866935,1.18274,19.7164,66.299,1.68266,0.0,0.0
374,93.25,76.4826,78.4228,108.813,100.015,84.3871,0.00950684,1.30207,19.6235,64.9879,1.5221,0.0,0.0
385,96,80.4081,82.8819,110.104,100.047,86.7177,0.0108802,1.42595,19.4663,63.6467,1.28087,0.0,0.0
396,98.75,84.0746,87.229,108.767,100.29,83.7933,0.0131888,1.56383,19.3127,62.3856,1.60992,0.0,0.0
407,101.5,86.9558,90.6849,121.307,100.552,86.8757,0.015272,1.71389,19.1858,61.0944,1.30965,0.0,0.0
418,104.25,90.0862,94.3715,113.557,100.718,86.6244,0.0163883,1.86855,18.987,59.7933,1.35042,0.0,0.0
429,107,93.1579,98.1757,105.125,100.705,89.2331,0.0172095,1.94408,18.8258,58.5321,1.08345,0.0,0.0
440,109.75,96.1503,101.603,113.774,100.502,88.3582,0.018243,1.97535,18.7453,57.271,1.15362,0.0,0.0
451,112.5,98.129,104.328,109.69,100.136,86.6559,0.0182828,1.9966,18.711,56.15,1.29521,0.0,0.0
462,115.25,100.716,107.491,114.265,99.651,87.7744,0.0173665,2.01535,18.6885,54.959,1.13686,0.0,0.0
473,118,102.186,109.449,106.976,99.1716,86.7756,0.0169263,2.01058,18.6681,53.9881,1.19618,0.0,0.0
484,120.75,103.148,110.987,122.504,98.7848,87.9497,0.0165941,1.96044,18.6661,53.0272,1.04076,0.0,0.0
495,123.5,103.341,111.972,117.41,98.627,90.4051,0.0162915,1.8687,18.7189,52.2465,0.779771,0.0,0.0
506,126.25,103.03,111.81,126.218,98.7118,89.1623,0.0159567,1.77131,18.8187,51.5659,0.911478,0.0,0.0
517,129,101.421,111.027,130.589,98.9925,88.8941,0.0152104,1.62708,18.9206,51.0655,0.963901,0.0,0.0
528,131.75,99.8336,110.237,137.381,99.3843,95.1544,0.0141952,1.45198,19.0992,50.6451,0.389624,0.0,0.0
539,134.5,98.1023,108.423,140.65,99.7531,98.3824,0.0130056,1.24612,19.2901,50.3849,0.123949,0.0,0.0
550,137.25,96.1785,106.704,136.591,99.9879,100.291,0.0117434,1.04509,19.4765,50.1947,-0.027124,0.0,0.0
561,140,93.5665,104.19,139.509,100.001,100.885,0.0102122,0.848184,19.7348,49.9845,-0.078832,0.0,0.0
572,142.75,90.4119,101.234,141.975,99.9129,100.884,0.00862742,0.680004,19.9724,49.8344,-0.0866889,0.0,0.0
583,145.5,87.862,98.6845,146.673,99.7719,100.609,0.00730905,0.555041,20.167,49.7343,-0.0748381,0.0,0.0
594,148.25,85.0366,96.589,145.465,99.651,100.501,0.00659473,0.441293,20.3191,49.6742,-0.0760809,0.0,0.0
605,151,82.8321,93.784,146.968,100.012,100.787,0.00668524,0.353044,20.4519,49.6142,-0.069133,0.0,0.0
616,153.75,80.9658,91.7583,146.484,100.373,101.207,0.00705758,0.295577,20.5512,49.5141,-0.0741591,0.0,0.0
627,156.5,78.9356,89.646,145.997,100.451,101.136,0.00740782,0.258712,20.6107,49.444,-0.0609023,0.0,0.0
638,159.25,77.3468,87.8521,143.611,100.264,101.166,0.00776178,0.236625,20.6539,49.364,-0.0801842,0.0,0.0
649,162,75.0289,85.408,150.325,99.8989,100.618,0.00812892,0.222297,20.6796,49.3439,-0.0642468,0.0,0.0
660,164.75,73.4914,83.8685,152.538,100.104,100.93,0.0084226,0.211792,20.7008,49.2539,-0.0735712,0.0,0.0
671,167.5,72.5998,82.2391,149.935,100.36,101.259,0.00862824,0.203039,20.7192,49.2138,-0.0798787,0.0,0.0
682,170.25,70.947,80.3314,143.969,100.585,101.41,0.0087888,0.196726,20.7333,49.1238,-0.0731777,0.0,0.0
693,173,69.5225,78.4021,146.22,100.699,101.457,0.0090266,0.193075,20.7435,49.0937,-0.0671966,0.0,0.0
704,175.75,68.2176,76.8378,147.118,100.7,101.486,0.00927211,0.191623,20.7492,49.0537,-0.0696393,0.0,0.0
715,178.5,66.5227,75.0045,151.898,100.561,101.459,0.0094516,0.190215,20.7532,48.9836,-0.0796428,0.0,0.0
726,181.25,65.8837,73.5697,147.293,100.292,101.133,0.00960238,0.188456,20.7565,48.9036,-0.0748262,0.0,0.0
737,184,64.5763,72.6023,145.019,99.9395,100.733,0.00992068,0.186787,20.759,48.8835,-0.0708696,0.0,0.0
748,186.75,63.1442,71.1985,150.982,99.5752,100.419,0.0100873,0.185117,20.763,48.7734,-0.0755822,0.0,0.0
759,189.5,62.223,69.6613,145.225,99.2236,99.9465,0.00995278,0.182838,20.767,48.7634,-0.0650255,0.0,0.0
770,192.25,61.0227,69.1862,152.678,98.9507,99.7988,0.00975585,0.180982,20.7718,48.7334,-0.0764519,0.0,0.0
781,195,59.8664,67.4469,149.669,98.7491,99.5336,0.0097407,0.179607,20.7751,48.6734,-0.0708906,0.0,0.0
792,197.75,59.4431,66.9233,148.354,98.6417,99.2784,0.0097391,0.177524,20.7774,48.6033,-0.0576364,0.0,0.0
803,200.5,58.6528,65.5419,149.252,98.6483,99.3134,0.00965113,0.176149,20.7802,48.5532,-0.060197,0.0,0.0
814,203.25,57.6759,64.6142,145.262,98.7729,99.5418,0.00950897,0.174979,20.7826,48.5132,-0.0694741,0.0,0.0
825,206,56.7435,63.5402,150.111,98.9216,99.7392,0.00939118,0.173406,20.7838,48.4832,-0.0737359,0.0,0.0
836,208.75,56.58,62.3402,150.237,99.131,99.861,0.00958182,0.171947,20.7843,48.4031,-0.0657232,0.0,0.0
847,211.5,55.6789,61.6439,152.304,99.3482,100.123,0.00985517,0.171063,20.7857,48.3931,-0.0695624,0.0,0.0
858,214.25,54.8569,60.389,149.583,99.5531,100.279,0.0100114,0.169704,20.7876,48.3531,-0.0650831,0.0,0.0
869,217,54.0451,60.3026,152.323,99.7252,100.368,0.00992422,0.167572,20.7887,48.3531,-0.0575133,0.0,0.0
880,219.75,53.6475,59.2767,150.635,99.8518,100.514,0.00986584,0.164768,20.7914,48.293,-0.0592412,0.0,0.0
891,222.5,53.0606,58.1722,151.954,99.9342,100.594,0.00985465,0.160618,20.7952,48.233,-0.0589725,0.0,0.0
902,225.25,52.3964,57.7584,151.841,99.9768,100.603,0.00977049,0.157416,20.7998,48.1829,-0.0559222,0.0,0.0
913,228,51.3586,56.5396,151.052,99.9887,100.754,0.00968164,0.154641,20.804,48.1629,-0.0683441,0.0,0.0
924,230.75,51.8306,56.0207,152.377,99.9727,100.756,0.00945193,0.152568,20.8088,48.1129,-0.0698917,0.0,0.0
935,233.5,50.9087,55.5253,151.936,99.9223,100.611,0.00909532,0.149388,20.8119,48.0728,-0.061499,0.0,0.0
946,236.25,50.4879,55.0452,154.491,99.858,100.501,0.0086894,0.144802,20.8177,48.0628,-0.057459,0.0,0.0
957,239,49.6364,54.1685,153.055,99.8031,100.41,0.00832847,0.141364,20.8244,48.0228,-0.0542986,0.0,0.0
968,241.75,49.5692,54.0228,152.038,99.7883,100.453,0.0083744,0.138369,20.8276,48.0028,-0.0595137,0.0,0.0
979,244.5,49.0391,53.1033,151.88,99.7264,100.421,0.00845982,0.135821,20.8304,48.0028,-0.0621426,0.0,0.0
990,247.25,49.0424,52.2346,153.754,99.6744,100.365,0.00836613,0.13344,20.8337,47.9627,-0.061848,0.0,0.0
1001,250,48.5725,52.1775,150.718,99.6187,100.322,0.00828284,0.131656,20.8373,47.8927,-0.0630035,0.0,0.0
1012,252.75,47.9231,51.0571,153.244,99.5842,100.2,0.00813179,0.130833,20.8388,47.8626,-0.0552571,0.0,0.0
1023,255.5,46.9646,50.5944,150.285,99.5724,100.212,0.00800211,0.130323,20.8398,47.8426,-0.0574064,0.0,0.0
1034,258.25,47.239,50.4262,150.92,99.6793,100.352,0.00796432,0.129265,20.8401,47.7926,-0.0602502,0.0,0.0
1044,260.75,46.8265,50.1415,151.754,99.8293,100.512,0.00783658,0.128238,20.8408,47.7725,-0.0610329,0.0,0.0