File: 01_Data/Masonite_Board/Cone/Masonite_Cone_HF25Scan_230106_R3.csv
Names,Time,Stack TC,Smoke TC,Exh Press,Smoke Comp,Smoke Meas,CO Meter,CO2 Meter,O2 Meter,Sample Mass,Ext Coeff,Start Test,Flame Verif
Chan Gain,,500,500,1,1,1,1,1,1,1,1,1.0,1.0
Offset,,0,0,0.303564,0,0,0,0,0,0,0,0.0,0.0
Gain,,1,1,25.011,13.226,15.8999,1,1,1,1.00088,1.03447,1.0,1.0
Units,sec,C,C,Pa,%,%,%,%,%,g,/m,,
Baseline,,27.1942,28.2122,153.79,99.9164,99.8235,0.000599543,0.0470715,20.9641,-444.601,0.00845375,,
19,4.5,24.1408,24.6124,155.61,99.1949,99.0654,0.000721167,0.0528137,20.9561,180.678,0.0118492,0.0,0.0
38,9.25,25.1649,25.5159,150.012,99.0827,99.0067,0.000564771,0.0518575,20.953,180.608,0.00695943,0.0,0.0
57,14,25.1107,26.3719,154.577,99.1949,98.9689,0.000509082,0.0551343,20.956,180.528,0.0206983,0.0,0.0
76,18.75,24.8143,25.7749,153.199,99.3374,99.0921,0.000693553,0.0544578,20.9534,180.478,0.0224303,0.0,0.0
95,23.5,24.6417,25.5887,152.772,99.4681,99.376,0.000849487,0.0513291,20.9528,180.498,0.00841098,0.0,0.0
114,28.25,24.7555,26.3755,147.713,99.5037,99.2634,0.000842083,0.0488482,20.9575,180.368,0.0219361,0.0,0.0
133,33,25.2337,25.7944,154.762,99.4883,99.44,0.00079681,0.0478888,20.9604,180.308,0.00440487,0.0,0.0
152,37.75,24.9867,26.336,158.258,99.4617,99.1271,0.00076247,0.0476382,20.9609,180.188,0.0305801,0.0,0.0
171,42.5,24.5254,25.9771,150.768,99.3563,99.0611,0.000502737,0.0477741,20.9609,180.068,0.0270066,0.0,0.0
190,47.25,25.12,26.0303,154.618,99.2611,98.8481,0.000813708,0.0509265,20.9625,180.038,0.0378372,0.0,0.0
209,52,25.1476,26.0503,148.577,99.1812,98.9179,0.000847243,0.0536793,20.9579,179.928,0.0241157,0.0,0.0
228,56.75,25.4741,27.0464,154.71,99.1093,98.5865,0.000795303,0.0516875,20.955,179.797,0.0479931,0.0,0.0
247,61.5,25.1582,26.0836,149.006,99.0637,98.5419,0.000521565,0.0511485,20.9582,179.637,0.0479264,0.0,0.0
266,66.25,25.2399,26.4599,150.46,99.077,98.6806,0.00041587,0.0504682,20.9591,179.447,0.0363763,0.0,0.0
285,71,25.5783,26.59,151.379,99.0956,98.7476,0.0006128,0.0539641,20.9601,179.327,0.0319212,0.0,0.0
304,75.75,25.4186,26.7008,155.156,99.1662,98.5778,0.000697183,0.0635535,20.9518,179.207,0.0540073,0.0,0.0
323,80.5,25.8378,26.2283,153.165,99.2203,98.816,0.000951239,0.0624563,20.9421,179.077,0.0370497,0.0,0.0
342,85.25,25.006,26.7578,149.945,99.2566,98.7549,0.00113045,0.0554617,20.9456,178.947,0.0459872,0.0,0.0
361,90,25.5395,26.618,152.027,99.2728,98.7379,0.000798133,0.0527363,20.9534,178.787,0.0490239,0.0,0.0
380,94.75,25.5294,26.4578,148.413,99.2825,98.652,0.000756161,0.0527862,20.9567,178.686,0.0578056,0.0,0.0
399,99.5,25.37,26.9834,152.253,99.2841,98.7622,0.00081734,0.0555878,20.9563,178.606,0.0478274,0.0,0.0
418,104.25,25.2713,26.7495,152.719,99.2853,98.7481,0.000975363,0.0535483,20.9549,178.526,0.0492305,0.0,0.0
437,109,25.498,26.4946,153.336,99.2461,98.5001,0.000758227,0.0539558,20.9557,178.456,0.0684664,0.0,0.0
456,113.75,25.565,26.6056,154.671,99.2268,98.3051,0.000585504,0.0539781,20.9564,178.376,0.0846827,0.0,0.0
475,118.5,25.0749,26.5579,152.421,99.1646,98.1173,0.000501257,0.0558988,20.9554,178.276,0.096346,0.0,0.0
494,123.25,25.4445,27.0227,152.139,99.1315,98.1188,0.000713145,0.055656,20.9543,178.306,0.0931827,0.0,0.0
513,128,25.5312,27.0395,151.217,99.1053,97.9955,0.000807328,0.0526513,20.9538,178.246,0.102186,0.0,0.0
532,132.75,25.6906,26.769,155.218,99.0581,97.7985,0.000885728,0.0537323,20.9571,178.156,0.116122,0.0,0.0
551,137.5,25.002,26.9071,154.722,98.9963,97.3254,0.000758703,0.0563675,20.9549,178.156,0.154466,0.0,0.0
570,142.25,25.0976,26.9813,151.343,98.9612,97.2497,0.000820116,0.0615983,20.952,177.996,0.158307,0.0,0.0
589,147,25.8223,26.8232,154.27,98.8825,97.1163,0.00109446,0.0687504,20.9417,177.946,0.163547,0.0,0.0
608,151.75,25.4779,26.7676,151.53,98.8506,96.255,0.00131165,0.0664323,20.938,177.856,0.241455,0.0,0.0
627,156.5,26.8939,28.5263,143.215,98.8361,98.7403,0.0012727,0.0634628,20.9409,177.596,0.00879356,0.0,1.0
646,161.25,27.7134,30.9114,138.318,98.8022,96.6801,0.00137782,0.0738343,20.9437,177.045,0.197024,0.0,0.0
665,166,31.4275,36.1329,135.261,98.7461,96.845,0.00218549,0.202404,20.9213,176.414,0.176398,0.0,0.0
684,170.75,35.249,40.519,136.431,98.7501,96.732,0.00229187,0.340666,20.7587,175.634,0.187369,0.0,0.0
703,175.5,37.688,45.1603,134.383,98.7747,96.4947,0.00276556,0.4219,20.6135,174.933,0.211917,0.0,0.0
722,180.25,41.9444,49.4469,133.853,98.826,96.8251,0.00323744,0.475355,20.5292,174.163,0.185604,0.0,0.0
741,185,44.3339,53.2837,129.904,98.8373,96.0798,0.00336082,0.511189,20.4711,173.312,0.25676,0.0,0.0
760,189.75,48.2609,57.4083,124.801,98.8704,95.8489,0.00369144,0.549823,20.4241,172.421,0.281639,0.0,0.0
779,194.5,50.975,61.5604,125.666,98.9192,95.9183,0.00381338,0.59327,20.375,171.45,0.279554,0.0,0.0
798,199.25,54.8002,65.8315,124.179,98.9479,96.206,0.00387701,0.634021,20.3254,170.489,0.255002,0.0,0.0
817,204,57.6392,68.9805,121.52,98.987,95.7872,0.00434775,0.669608,20.2805,169.418,0.298175,0.0,0.0
836,208.75,60.8224,74.0751,131.949,98.9769,95.1288,0.00461443,0.710383,20.2386,168.367,0.359843,0.0,0.0
855,213.5,64.5703,77.3084,119.846,98.9656,95.0128,0.00458015,0.754289,20.1906,167.186,0.369876,0.0,0.0
874,218.25,67.0014,80.5436,118.175,98.9475,93.5091,0.00498391,0.798097,20.1342,166.015,0.512974,0.0,0.0
893,223,69.8026,84.1097,117.747,98.9293,94.1874,0.00563437,0.840141,20.0826,164.754,0.445717,0.0,0.0
912,227.75,72.4672,87.1666,122.32,98.9269,92.8836,0.00580942,0.876355,20.0354,163.633,0.571985,0.0,0.0
931,232.5,75.1293,90.1565,123.479,98.916,92.9564,0.00579029,0.906238,19.9959,162.392,0.563878,0.0,0.0
950,237.25,77.1942,92.2869,125.405,98.8873,92.5129,0.00631745,0.92683,19.9606,161.161,0.604646,0.0,0.0
969,242,78.7769,94.3636,123.015,98.8865,93.0418,0.00673676,0.935579,19.9358,159.96,0.552841,0.0,0.0
988,246.75,80.1061,95.2769,117.531,98.8712,92.2732,0.0065653,0.928299,19.9265,158.719,0.626706,0.0,0.0
1007,251.5,80.9768,95.3588,124.892,98.853,93.1956,0.00664285,0.912782,19.9328,157.668,0.534777,0.0,0.0
1026,256.25,81.219,95.4062,128.615,98.8478,91.5177,0.00696283,0.896803,19.9496,156.557,0.69916,0.0,0.0
1045,261,80.6246,94.0048,125.563,98.8191,90.1557,0.00754267,0.858514,19.9764,155.566,0.832595,0.0,0.0
1064,265.75,79.9504,92.6329,128.775,98.7892,90.309,0.00763078,0.806521,20.0235,154.585,0.814431,0.0,0.0
1083,270.5,78.9313,91.1791,127.334,98.7541,92.4654,0.00811612,0.764952,20.0776,153.574,0.597081,0.0,0.0
1102,275.25,78.1451,89.4787,131.078,98.9232,91.2737,0.0080946,0.728101,20.122,152.774,0.73032,0.0,0.0
1121,280,76.1565,86.7773,135.525,99.1251,94.4271,0.00789915,0.703375,20.1621,152.013,0.440591,0.0,0.0
1140,284.75,73.5777,82.4916,138.363,99.3301,98.5928,0.00837563,0.650984,20.1904,151.553,0.0676053,0.0,0.0
1159,289.5,69.5477,76.6429,141.416,99.4899,99.4721,0.00683085,0.527691,20.2657,151.292,0.00163004,0.0,0.0
1178,294.25,65.8214,71.3175,147.3,99.5311,100.199,0.00454221,0.359543,20.4378,151.162,-0.0606827,0.0,0.0
1197,299,61.5479,66.312,143.641,99.4508,99.7331,0.00419293,0.240765,20.6191,150.972,-0.025724,0.0,0.0
1216,303.75,58.1218,61.3944,147.51,99.2712,99.8238,0.0054882,0.167404,20.7389,150.972,-0.0503795,0.0,0.0
1235,308.5,55.1694,57.828,149.632,99.142,99.6831,0.00839624,0.12652,20.8237,150.942,-0.0493935,0.0,0.0
1254,313.25,51.6192,54.8449,148.242,99.293,99.6336,0.0112188,0.109002,20.8632,150.882,-0.0310803,0.0,0.0
1273,318,48.3467,50.1123,151.187,99.4907,100.077,0.0134519,0.101274,20.8789,150.812,-0.0532832,0.0,0.0
1292,322.75,46.1356,47.6087,148.084,99.6421,100.16,0.0156227,0.0938675,20.8871,150.692,-0.0470086,0.0,0.0
1311,327.5,44.2308,45.9993,150.739,99.7709,100.414,0.0192655,0.0867189,20.8933,150.672,-0.058297,0.0,0.0
1330,332.25,43.0823,43.9081,147.697,99.8762,100.637,0.0215088,0.0849638,20.8986,150.642,-0.068825,0.0,0.0
1349,337,42.1118,42.8445,148.778,99.9517,100.636,0.0222536,0.0843296,20.8999,150.572,-0.0619259,0.0,0.0
1368,341.75,40.2922,41.498,149.812,99.9941,100.297,0.0220789,0.0837567,20.9012,150.522,-0.0274442,0.0,0.0
1387,346.5,39.8525,40.2562,147.149,99.9904,100.537,0.0222656,0.0846085,20.9016,150.382,-0.0494789,0.0,0.0
1406,351.25,38.4228,39.3,147.262,99.9702,100.565,0.0224485,0.0840442,20.903,150.292,-0.0538072,0.0,0.0
1425,356,37.514,38.6092,148.116,99.925,100.325,0.0221022,0.0841984,20.9029,150.312,-0.0362561,0.0,0.0
1444,360.75,36.9373,37.1817,150.789,99.8423,100.291,0.0222141,0.0840109,20.9024,150.282,-0.0407003,0.0,0.0
1463,365.5,36.3818,36.5799,152.234,99.7325,99.9422,0.0226051,0.0845072,20.9023,150.222,-0.019063,0.0,0.0
1482,370.25,35.6262,36.1846,149.912,99.5912,100.198,0.0224688,0.0850483,20.9023,150.141,-0.0551566,0.0,0.0
1501,375,35.4198,35.5925,148.719,99.4241,99.902,0.0226191,0.0878094,20.8986,150.021,-0.0435064,0.0,0.0
1520,379.75,34.75,35.1302,150.27,99.278,99.5186,0.0223605,0.089829,20.8963,150.041,-0.0219659,0.0,0.0
1539,384.5,34.3719,34.8409,150.686,99.1493,99.5012,0.0226221,0.0887542,20.8952,149.971,-0.0321484,0.0,0.0
1558,389.25,34.1556,34.2158,153.51,99.0282,99.1411,0.022884,0.0876311,20.8968,149.931,-0.0103436,0.0,0.0
1577,394,33.6937,34.1749,150.131,98.9176,99.2149,0.0228884,0.0864994,20.897,149.871,-0.0272315,0.0,0.0
1596,398.75,32.834,33.26,155.713,98.8252,99.0455,0.0226599,0.0851563,20.8983,149.721,-0.0202127,0.0,0.0
1615,403.5,32.766,33.2296,149.814,98.7537,99.0543,0.0222634,0.0840861,20.9004,149.751,-0.0275755,0.0,0.0
1634,408.25,32.4262,32.9456,147.365,98.6956,98.9791,0.0219387,0.0835262,20.9007,149.741,-0.0260251,0.0,0.0
1653,413,32.6428,32.5268,151.455,98.6621,98.8786,0.0226267,0.084695,20.8994,149.561,-0.0198923,0.0,0.0
1672,417.75,31.671,32.206,149.093,98.6476,98.8044,0.022594,0.0843829,20.8999,149.591,-0.0144132,0.0,0.0
1691,422.5,31.725,31.6466,154.633,98.6419,98.5991,0.0222276,0.0842949,20.9012,149.531,0.00393561,0.0,0.0
1710,427.25,31.9271,31.9813,152.346,98.6488,98.769,0.0227217,0.0858285,20.8995,149.381,-0.0110486,0.0,0.0
1729,432,31.0593,31.7799,149.163,98.6847,98.9024,0.0227708,0.0849989,20.8985,149.491,-0.0199959,0.0,0.0
1737,434,31.3405,31.5591,152.105,98.7041,99.1659,0.0225644,0.084847,20.8996,149.431,-0.0423565,0.0,0.0