File: 01_Data/Masonite_Board/Cone/Masonite_Cone_HF75Scan_230106_R3.csv
Names,Time,Stack TC,Smoke TC,Exh Press,Smoke Comp,Smoke Meas,CO Meter,CO2 Meter,O2 Meter,Sample Mass,Ext Coeff,Start Test,Flame Verif
Chan Gain,,500,500,1,1,1,1,1,1,1,1,1.0,1.0
Offset,,0,0,0.303564,0,0,0,0,0,0,0,0.0,0.0
Gain,,1,1,25.011,13.2065,15.7892,1,1,1,1.00088,1.03447,1.0,1.0
Units,sec,C,C,Pa,%,%,%,%,%,g,/m,,
Baseline,,52.2108,54.6965,140.779,100.001,99.9351,0.000500167,0.0475518,20.9612,-448.362,0.0060084,,
11,2.5,47.4682,48.658,139.741,100.068,100.251,0.000652181,0.0588578,20.9459,172.521,-0.016607,0.0,0.0
22,5.25,47.472,49.5003,140.275,100.066,100.356,0.000872175,0.0573404,20.9487,172.411,-0.0262491,0.0,0.0
33,8,47.8465,49.8949,142.294,100.051,99.565,0.0010176,0.0572757,20.9507,172.321,0.0442155,0.0,0.0
44,10.75,48.0417,50.1732,144.405,100.053,99.1202,0.00105753,0.0558991,20.95,172.261,0.0850225,0.0,0.0
55,13.5,48.0183,50.5398,140.949,100.056,98.6196,0.00100931,0.0556117,20.9501,172.131,0.131227,0.0,0.0
66,16.25,48.2387,50.2307,135.422,100.055,97.1996,0.000679321,0.0568029,20.95,171.961,0.26269,0.0,0.0
77,19,48.4341,50.5604,137.907,100.026,96.2301,0.000445436,0.0571803,20.9499,171.8,0.351057,0.0,0.0
88,21.75,48.6849,51.2232,133.059,100.037,98.649,0.000395701,0.0598035,20.9499,171.62,0.126805,0.0,0.0
99,24.5,50.2369,53.6807,127.278,100.026,97.8886,0.000413899,0.0681113,20.9475,171.21,0.195959,0.0,1.0
110,27.25,51.4794,55.8343,120.701,100.03,97.7075,0.000734702,0.0748226,20.9403,170.699,0.213135,0.0,0.0
121,30,54.3276,59.9733,127.673,100.008,96.6927,0.00119885,0.0948005,20.9289,170.139,0.305896,0.0,0.0
132,32.75,57.0721,64.0739,123.737,100.008,97.1456,0.00158874,0.185448,20.9114,169.599,0.263489,0.0,0.0
143,35.5,60.1779,68.0366,117.959,100.02,96.6985,0.00203805,0.309119,20.8112,168.948,0.30645,0.0,0.0
154,38.25,63.187,72.8532,116.751,100.027,96.4532,0.00271921,0.403593,20.6849,168.347,0.330117,0.0,0.0
165,41,66.7031,76.9274,116.888,100.03,95.4514,0.00364778,0.487364,20.5671,167.617,0.425111,0.0,0.0
176,43.75,70.1263,80.8485,108.241,100.004,93.8488,0.00432799,0.56424,20.4486,166.826,0.576459,0.0,0.0
187,46.5,72.7304,84.958,113.568,100.003,93.3376,0.0046903,0.632225,20.3541,166.125,0.625879,0.0,0.0
198,49.25,76.2448,89.7174,108.348,100.014,92.5146,0.0051369,0.6892,20.2875,165.395,0.707306,0.0,0.0
209,52,79.2888,94.1056,113.13,100.014,91.5514,0.00553657,0.747068,20.2067,164.624,0.802243,0.0,0.0
220,54.75,82.9872,98.4278,112.513,100.011,91.2791,0.00587054,0.813034,20.1414,163.733,0.829011,0.0,0.0
231,57.5,86.2404,102.567,109.199,100.015,90.1709,0.00631514,0.885117,20.0622,162.853,0.940225,0.0,0.0
242,60.25,89.572,107.203,108.81,100.001,88.4252,0.0068618,0.947599,19.9778,162.042,1.11639,0.0,0.0
253,63,93.0068,110.458,101.895,100.005,87.9404,0.00725123,1.0198,19.9094,161.201,1.1666,0.0,0.0
264,65.75,95.6177,114.756,104.511,99.9969,87.7809,0.00750518,1.0925,19.8196,160.21,1.18234,0.0,0.0
275,68.5,98.1078,117.794,101.936,99.9824,87.0264,0.00788061,1.15328,19.7348,159.229,1.25936,0.0,0.0
286,71.25,101.962,121.949,107.022,99.9731,87.9501,0.00859212,1.20889,19.6681,158.229,1.16271,0.0,0.0
297,74,105.067,126.237,98.6142,99.9566,90.446,0.00928947,1.26258,19.594,157.258,0.907275,0.0,0.0
308,76.75,107.635,129.501,100.403,99.9445,88.749,0.00985594,1.31762,19.5398,156.357,1.07806,0.0,0.0
319,79.5,110.032,132.738,98.9982,99.9296,89.9835,0.0103312,1.37147,19.4792,155.306,0.951351,0.0,0.0
330,82.25,112.854,136.306,102.127,99.8961,91.2483,0.0103627,1.4221,19.4141,154.245,0.821648,0.0,0.0
341,85,115.24,139.291,100.004,99.8764,89.6751,0.0103015,1.45112,19.3656,153.234,0.977671,0.0,0.0
352,87.75,117.85,141.332,101.915,99.8647,90.3338,0.0103657,1.47372,19.3239,152.193,0.9102,0.0,0.0
363,90.5,120.011,144.064,96.8801,99.8445,92.2785,0.0105186,1.49583,19.2994,151.252,0.715087,0.0,0.0
374,93.25,121.7,145.763,98.2616,99.8183,92.3541,0.0107475,1.5175,19.2749,150.282,0.70527,0.0,0.0
385,96,122.499,146.846,97.019,99.7567,90.1116,0.0110884,1.54152,19.2483,149.161,0.922722,0.0,0.0
396,98.75,123.65,148.512,101.26,99.7208,91.1625,0.011038,1.55413,19.2233,148.12,0.814242,0.0,0.0
407,101.5,124.497,149.703,97.5121,99.6825,90.4663,0.0107491,1.51969,19.207,147.389,0.880331,0.0,0.0
418,104.25,125.715,151.201,102.379,99.6285,89.8885,0.0105102,1.50043,19.2368,146.488,0.933549,0.0,0.0
429,107,126.747,151.161,111.079,99.5669,89.8562,0.0107073,1.49705,19.2582,145.497,0.931191,0.0,0.0
440,109.75,127.116,150.881,106.67,99.4875,89.61,0.0108703,1.49147,19.2649,144.647,0.948852,0.0,0.0
451,112.5,127.035,150.32,109.378,99.4375,89.0906,0.0108268,1.47326,19.2696,143.956,0.997044,0.0,0.0
462,115.25,125.64,147.193,114.452,99.3742,91.229,0.0107235,1.42578,19.2886,143.446,0.776031,0.0,0.0
473,118,122.075,143.414,121.354,99.3061,91.4921,0.0105902,1.36971,19.3398,143.065,0.743678,0.0,0.0
484,120.75,118.642,137.235,125.71,99.2231,100.58,0.0104978,1.25952,19.3959,142.865,-0.123232,0.0,0.0
495,123.5,114.657,130.902,131.365,99.1481,100.679,0.0100794,1.08164,19.5025,142.715,-0.139086,0.0,0.0
506,126.25,110.124,125.013,132.121,99.0772,100.536,0.00901776,0.874295,19.6813,142.665,-0.132628,0.0,0.0
517,129,106.708,119.268,133.595,99.0332,100.471,0.0074056,0.625225,19.9744,142.645,-0.130823,0.0,0.0
528,131.75,103.115,114.095,136.496,98.953,100.199,0.00583209,0.444271,20.2202,142.575,-0.11351,0.0,0.0
539,134.5,99.5657,109.987,135.029,98.8571,100.283,0.00412231,0.307249,20.4426,142.495,-0.129944,0.0,0.0
550,137.25,96.6408,105.452,130.862,98.7874,99.7143,0.00319272,0.23502,20.6382,142.455,-0.0847505,0.0,0.0
561,140,94.4734,103.186,132.111,98.7314,100.246,0.0028686,0.199241,20.7298,142.385,-0.138179,0.0,0.0
572,142.75,90.1562,97.7964,135.683,98.6971,100.034,0.00281918,0.179734,20.7706,142.345,-0.122117,0.0,0.0
583,145.5,87.7305,94.8667,134.004,98.6399,99.6936,0.00301909,0.165611,20.7908,142.235,-0.0964249,0.0,0.0
594,148.25,85.9346,92.3735,133.091,98.5871,100.37,0.00313294,0.154025,20.8067,142.255,-0.162609,0.0,0.0
605,151,83.7107,89.8555,133.735,98.5504,99.9562,0.0030058,0.145175,20.8215,142.205,-0.128531,0.0,0.0
616,153.75,82.0159,88.0334,137.279,98.5262,99.8724,0.00312817,0.138686,20.8307,142.225,-0.123143,0.0,0.0
627,156.5,80.6902,86.1029,135.241,98.5278,99.6064,0.00351769,0.134483,20.8393,142.144,-0.098796,0.0,0.0
638,159.25,79.3187,84.2619,137.105,98.5085,99.8377,0.00369248,0.131566,20.846,142.074,-0.121624,0.0,0.0
649,162,78.1262,82.7674,134.585,98.5145,99.9032,0.00375424,0.129504,20.8493,142.024,-0.127021,0.0,0.0
660,164.75,76.5231,80.8202,137.75,98.5307,99.8199,0.00357722,0.128373,20.8528,141.974,-0.117961,0.0,0.0
671,167.5,75.8568,80.0325,141.299,98.5633,100.013,0.00349195,0.127155,20.8555,141.994,-0.13246,0.0,0.0
682,170.25,74.6741,78.8152,136.084,98.5996,99.8271,0.00360298,0.124244,20.8584,141.944,-0.112274,0.0,0.0
693,173,73.4126,77.6438,132.105,98.6354,99.684,0.00375002,0.121633,20.8627,141.884,-0.0959553,0.0,0.0
704,175.75,72.32,76.4173,132.45,98.6762,99.9321,0.00381818,0.119746,20.865,141.864,-0.114773,0.0,0.0
715,178.5,71.6536,75.6766,134.074,98.7503,99.8815,0.00387153,0.118241,20.8673,141.824,-0.10336,0.0,0.0
726,181.25,70.6563,74.6199,135.909,98.8398,100.217,0.00401432,0.117586,20.87,141.784,-0.125559,0.0,0.0
737,184,70.3091,73.818,132.662,98.8861,100.26,0.00412807,0.118169,20.871,141.714,-0.125188,0.0,0.0
748,186.75,69.4122,72.3614,138.108,98.9494,100.186,0.00426411,0.120701,20.8716,141.754,-0.112707,0.0,0.0
759,189.5,68.4241,72.0658,134.933,99.0264,100.043,0.00443924,0.123226,20.8691,141.634,-0.0926795,0.0,0.0
770,192.25,67.7932,71.089,132.358,99.1086,100.233,0.00463393,0.125139,20.8651,141.674,-0.102352,0.0,0.0
781,195,67.5319,70.5636,132.313,99.1908,100.849,0.0048496,0.125008,20.8636,141.644,-0.150407,0.0,0.0
792,197.75,66.859,70.3764,136.705,99.2456,100.352,0.00476875,0.124122,20.8633,141.534,-0.100583,0.0,0.0
803,200.5,66.6163,70.1149,136.502,99.3089,100.619,0.00459914,0.122993,20.8641,141.504,-0.118949,0.0,0.0
814,203.25,66.0806,68.4027,136.258,99.3786,100.234,0.00483722,0.121611,20.8657,141.424,-0.0777929,0.0,0.0
825,206,65.9873,68.6462,138.01,99.4673,100.872,0.00522555,0.119967,20.868,141.474,-0.127272,0.0,0.0
836,208.75,65.3208,67.9935,136.337,99.5221,100.256,0.00530348,0.118796,20.8715,141.434,-0.0666638,0.0,0.0
847,211.5,64.2234,67.5516,134.443,99.5636,100.581,0.00522115,0.117965,20.8742,141.374,-0.092227,0.0,0.0
858,214.25,63.665,67.3076,136.412,99.6088,100.385,0.0051126,0.117653,20.875,141.244,-0.0704045,0.0,0.0
869,217,63.6927,66.7542,135.49,99.6583,100.382,0.00525277,0.117185,20.8752,141.274,-0.0656712,0.0,0.0
880,219.75,63.3967,66.7645,137.399,99.7019,100.747,0.00564591,0.116707,20.8748,141.244,-0.0946659,0.0,0.0
891,222.5,63.1828,66.2096,135.785,99.7075,100.842,0.00591573,0.11624,20.8752,141.144,-0.102654,0.0,0.0
902,225.25,63.1342,66.0347,131.994,99.7091,100.669,0.00602153,0.115776,20.8766,141.084,-0.0869285,0.0,0.0
913,228,62.7512,65.7357,133.92,99.7015,100.995,0.0059684,0.115818,20.8772,141.034,-0.116983,0.0,0.0
924,230.75,62.7636,64.9934,134.748,99.6841,100.773,0.00592336,0.116152,20.878,141.074,-0.0985795,0.0,0.0
935,233.5,62.4633,64.8937,134.859,99.66,101.119,0.0059358,0.116418,20.8774,141.074,-0.131881,0.0,0.0
946,236.25,61.9786,64.4038,134.473,99.6064,100.308,0.00594777,0.116898,20.8769,140.993,-0.063739,0.0,0.0
957,239,62.095,65.0676,136.421,99.564,100.661,0.00583443,0.117351,20.8763,140.823,-0.0994035,0.0,0.0
968,241.75,61.5403,64.4607,137.908,99.5141,100.362,0.00574853,0.117836,20.8761,140.843,-0.0769888,0.0,0.0
979,244.5,61.4617,63.936,134.474,99.4661,100.193,0.00579724,0.118217,20.8761,140.883,-0.0661021,0.0,0.0
990,247.25,61.2145,63.7184,137.418,99.4048,100.129,0.00590664,0.117327,20.876,140.853,-0.0658869,0.0,0.0
1001,250,61.2036,64.3043,136.994,99.3279,99.9495,0.00622847,0.116157,20.8761,140.863,-0.0566135,0.0,0.0
1012,252.75,60.8596,63.0457,138.568,99.2747,99.7596,0.00648347,0.115777,20.8776,140.733,-0.0442227,0.0,0.0
1023,255.5,60.4638,62.8213,133.752,99.2118,100.127,0.00635804,0.115314,20.8783,140.733,-0.0833082,0.0,0.0
1034,258.25,60.1177,62.6261,135.041,99.1719,99.71,0.00634089,0.114475,20.8793,140.723,-0.0491058,0.0,0.0
1045,261,59.5385,62.5235,135.456,99.1118,99.9929,0.0063039,0.114245,20.88,140.633,-0.0803065,0.0,0.0
1049,262,59.5208,62.4179,139.565,99.1038,99.8999,0.00632259,0.114245,20.88,140.593,-0.0726015,0.0,0.0