File: 01_Data/Masonite_Board/Cone/Masonite_Cone_HF50Scalar_230105_R5.csv
LABORATORY,FSRI
TEST IDENT,Masonite_HF50_5
OPERATOR,Dow
MATERIAL,masonite
ORIENTATION,Horizontal
HEAT FLUX,50
SURF AREA,0.01
C FACTOR,0.0381022
SPEC HOLDER DIFF,-566
SPECIMEN MASS,34.62
SCAN TIME,0.25
O2 DELAY TIME,11
CO DELAY TIME,11
CO2 DELAY TIME,8
FLOW FACTOR,1
SCAN COUNT,1443
TIME TO IGN,40.75
END OF TEST SCAN,963
END OF TEST TIME,240.75
TEST STATUS,1
PRE TEST CMT,Dimensions: 101.05 x 101.61 x 3.03 mm; with calcium silicate substrate; with tie wires