File: 01_Data/Masonite_Board/Cone/Masonite_Cone_HF25Scan_230106_R2.csv
Names,Time,Stack TC,Smoke TC,Exh Press,Smoke Comp,Smoke Meas,CO Meter,CO2 Meter,O2 Meter,Sample Mass,Ext Coeff,Start Test,Flame Verif
Chan Gain,,500,500,1,1,1,1,1,1,1,1,1.0,1.0
Offset,,0,0,0.303564,0,0,0,0,0,0,0,0.0,0.0
Gain,,1,1,25.011,13.3149,15.9198,1,1,1,1.00088,1.03447,1.0,1.0
Units,sec,C,C,Pa,%,%,%,%,%,g,/m,,
Baseline,,26.7355,27.8287,153.932,98.9512,98.5187,0.000788324,0.0475668,20.9602,-444.426,0.0397497,,
19,4.5,23.8855,24.9986,151.833,98.9906,98.4042,0.000735325,0.0502064,20.9549,181.399,0.0539126,0.0,0.0
38,9.25,24.0396,25.224,154.803,98.9951,98.5558,0.000565729,0.0522483,20.9559,181.299,0.0403554,0.0,0.0
57,14,24.2842,25.5094,154.445,99.0068,98.4722,0.000513176,0.0556638,20.9511,181.219,0.0491326,0.0,0.0
76,18.75,24.1505,25.2481,153.878,99.0369,98.582,0.000695382,0.0548797,20.9457,181.189,0.0417758,0.0,0.0
95,23.5,24.1963,24.8592,150.715,99.0617,98.7807,0.00067798,0.0519484,20.9466,181.149,0.0257748,0.0,0.0
114,28.25,24.5349,25.822,153.624,99.0804,98.5611,0.000769382,0.0495443,20.9513,181.059,0.0476821,0.0,0.0
133,33,24.4132,25.5653,155.941,99.0979,98.5738,0.00085297,0.0489531,20.9543,181.009,0.048119,0.0,0.0
152,37.75,24.697,25.4266,150.971,99.1251,98.3099,0.000644394,0.0491041,20.9566,180.878,0.0749294,0.0,0.0
171,42.5,24.5133,25.5073,151.023,99.1377,98.3109,0.000421122,0.0485361,20.9552,180.808,0.0759936,0.0,0.0
190,47.25,24.6342,25.3318,148.913,99.1787,98.5189,0.000562166,0.0476463,20.9604,180.768,0.0605762,0.0,0.0
209,52,24.5851,25.933,153.001,99.223,98.2026,0.0007353,0.0474771,20.9619,180.668,0.0938058,0.0,0.0
228,56.75,24.7485,25.9262,156.153,99.2437,98.4057,0.0004596,0.0473326,20.962,180.538,0.0769547,0.0,0.0
247,61.5,24.7406,26.1535,155.01,99.2458,98.2959,0.00068193,0.0477629,20.9599,180.368,0.0872716,0.0,0.0
266,66.25,24.4872,25.8562,150.862,99.2494,98.2604,0.000899144,0.0484623,20.9599,180.198,0.0908804,0.0,0.0
285,71,24.4296,25.937,156.91,99.2632,98.2035,0.000600306,0.0521673,20.9591,180.118,0.0973948,0.0,0.0
304,75.75,24.486,26.3622,152.066,99.288,98.0559,0.000754897,0.0562703,20.9513,179.978,0.113317,0.0,0.0
323,80.5,25.0584,26.1491,148.619,99.3238,98.1827,0.000742174,0.0540675,20.9492,179.837,0.104859,0.0,0.0
342,85.25,24.919,26.192,153.714,99.2892,98.084,0.000608368,0.0513206,20.9518,179.707,0.110822,0.0,0.0
361,90,24.7811,26.4427,151.334,99.2771,98.2273,0.000489004,0.0504777,20.9553,179.557,0.0964584,0.0,0.0
380,94.75,24.9795,26.1217,156.188,99.2685,97.9393,0.000678352,0.0498316,20.9576,179.447,0.122331,0.0,0.0
399,99.5,25.335,26.228,150.526,99.2957,98.2099,0.000645612,0.0488615,20.9588,179.377,0.0997821,0.0,0.0
418,104.25,25.0318,26.3425,154.726,99.2693,97.9665,0.000647869,0.0490076,20.9594,179.287,0.119885,0.0,0.0
437,109,25.2014,26.3693,154.923,99.2701,97.9582,0.000754635,0.0490131,20.959,179.217,0.120725,0.0,0.0
456,113.75,24.6511,26.2645,151.346,99.2364,97.8251,0.000737524,0.0490526,20.958,179.077,0.129982,0.0,0.0
475,118.5,25.2529,26.4482,152.687,99.2324,97.7619,0.000796416,0.0489911,20.9568,179.007,0.135469,0.0,0.0
494,123.25,25.1372,26.5907,154.449,99.2287,97.7012,0.000669884,0.0493056,20.9562,179.007,0.140774,0.0,0.0
513,128,24.6748,26.994,152.108,99.2283,97.398,0.000791753,0.0492861,20.9561,178.947,0.168938,0.0,0.0
532,132.75,25.4047,26.5193,152.615,99.2141,97.1172,0.000921215,0.0492016,20.9561,178.857,0.193838,0.0,0.0
551,137.5,25.5148,26.6947,152.189,99.2108,97.1371,0.000784245,0.0495543,20.9567,178.797,0.19168,0.0,0.0
570,142.25,25.035,26.8604,151.335,99.2157,96.8719,0.000761723,0.0501615,20.9576,178.656,0.21694,0.0,0.0
589,147,25.2701,26.8904,153.974,99.1929,96.1533,0.00110998,0.0507856,20.9576,178.586,0.282418,0.0,0.0
608,151.75,25.5816,27.2103,147.284,99.2137,98.6374,0.00139817,0.0521441,20.9558,178.416,0.0528598,0.0,1.0
627,156.5,26.7481,28.7457,137.003,99.2226,96.798,0.001806,0.0535795,20.9555,177.956,0.224492,0.0,0.0
646,161.25,29.7188,33.6801,135.638,99.2779,97.0327,0.0022261,0.131468,20.9482,177.245,0.207573,0.0,0.0
665,166,32.5588,37.2202,140.026,99.31,96.6737,0.00254411,0.275163,20.8239,176.765,0.244144,0.0,0.0
684,170.75,36.0913,42.909,131.718,99.3746,97.3767,0.00314659,0.378369,20.6811,175.904,0.184298,0.0,0.0
703,175.5,39.5176,46.6125,138.861,99.4668,97.108,0.00356565,0.436769,20.5648,175.303,0.217788,0.0,0.0
722,180.25,42.7082,51.3921,131.477,99.5737,96.6907,0.00347281,0.486797,20.4933,174.413,0.266614,0.0,0.0
741,185,45.9832,54.8382,132.485,99.6765,96.2349,0.00362109,0.515873,20.4538,173.662,0.318846,0.0,0.0
760,189.75,48.8909,58.5301,129.663,99.776,96.6183,0.00366895,0.546091,20.4133,172.791,0.291832,0.0,0.0
779,194.5,51.6844,61.7602,126.252,99.9142,97.0147,0.00385112,0.578838,20.3818,171.75,0.267231,0.0,0.0
798,199.25,54.2441,65.2846,130.228,100.061,96.3156,0.00413738,0.617871,20.3371,170.84,0.346173,0.0,0.0
817,204,57.1557,69.0552,124.469,100.204,95.6228,0.00444226,0.646108,20.2972,169.899,0.424679,0.0,0.0
836,208.75,59.4123,71.6085,123.959,100.364,95.8108,0.00450079,0.685471,20.2571,168.898,0.421341,0.0,0.0
855,213.5,62.6618,75.1434,126.17,100.477,95.6121,0.00463647,0.721311,20.2096,167.757,0.45035,0.0,0.0
874,218.25,65.0597,76.9818,124.64,100.571,95.7904,0.00517811,0.748091,20.173,166.566,0.441954,0.0,0.0
893,223,67.0268,79.5845,120.153,100.642,95.7331,0.00535477,0.792372,20.1362,165.375,0.4538,0.0,0.0
912,227.75,68.758,82.4428,122.553,100.672,93.9603,0.00572894,0.818118,20.0908,164.234,0.626089,0.0,0.0
931,232.5,71.1573,85.0666,126.969,100.66,93.8772,0.00616261,0.853374,20.0585,163.073,0.633054,0.0,0.0
950,237.25,73.4734,87.998,120.311,100.616,94.4864,0.00634383,0.882933,20.0165,161.862,0.570361,0.0,0.0
969,242,75.0689,89.8511,124.772,100.543,93.9724,0.00637467,0.909809,19.9774,160.631,0.613262,0.0,0.0
988,246.75,77.0977,91.7882,124.335,100.469,92.9182,0.006653,0.913587,19.9545,159.35,0.709,0.0,0.0
1007,251.5,78.1689,92.8494,121.332,100.409,93.2048,0.00718285,0.919457,19.9487,158.299,0.67558,0.0,0.0
1026,256.25,78.9029,93.116,127.777,100.358,92.9755,0.00701841,0.902296,19.9474,157.218,0.693379,0.0,0.0
1045,261,79.1199,92.3581,126.149,100.306,91.4781,0.00734209,0.865872,19.9671,156.227,0.835966,0.0,0.0
1064,265.75,78.5056,91.7251,121.287,100.274,90.2767,0.00746964,0.811678,20.0133,155.236,0.953033,0.0,0.0
1083,270.5,78.1555,90.0634,127.533,100.268,94.3902,0.0076554,0.769414,20.0781,154.205,0.54818,0.0,0.0
1102,275.25,77.4886,89.1917,131.372,100.304,93.9948,0.00826124,0.743182,20.1169,153.334,0.589551,0.0,0.0
1121,280,75.5091,86.5582,134.377,100.336,94.2042,0.00715707,0.731545,20.1442,152.724,0.572262,0.0,0.0
1140,284.75,72.0665,81.9668,144.661,100.377,99.0989,0.00567017,0.662348,20.1651,152.263,0.11632,0.0,0.0
1159,289.5,68.5549,75.3699,146.19,100.44,100.478,0.00542361,0.514171,20.2664,152.113,-0.00344601,0.0,0.0
1178,294.25,64.0506,69.6968,147.019,100.478,100.576,0.00509037,0.334516,20.4624,151.933,-0.00881779,0.0,0.0
1197,299,59.6377,64.3602,145.63,100.512,100.654,0.00514922,0.204202,20.6523,151.833,-0.0128191,0.0,0.0
1216,303.75,56.6753,60.1716,152.531,100.553,100.653,0.00724303,0.147164,20.783,151.803,-0.00907116,0.0,0.0
1235,308.5,53.7141,56.3631,147.725,100.59,100.629,0.00916305,0.1258,20.8408,151.723,-0.00358831,0.0,0.0
1254,313.25,51.6596,53.5382,150.642,100.601,100.622,0.0112973,0.119933,20.8611,151.653,-0.00190461,0.0,0.0
1273,318,49.8218,51.3056,148.957,100.612,100.559,0.0132004,0.115852,20.8649,151.513,0.00481897,0.0,0.0
1292,322.75,46.9097,48.5814,150.676,100.619,100.553,0.0149798,0.107828,20.8696,151.433,0.00593142,0.0,0.0
1311,327.5,45.487,46.6353,151.693,100.65,100.606,0.0155728,0.103551,20.8788,151.453,0.00401887,0.0,0.0
1330,332.25,44.3845,45.416,145.122,100.687,100.616,0.0167816,0.106156,20.8806,151.393,0.00646868,0.0,0.0
1349,337,41.5917,42.4887,150.506,100.71,100.631,0.0178831,0.102622,20.8775,151.333,0.00712373,0.0,0.0
1368,341.75,40.1205,41.3428,147.699,100.715,100.604,0.0183318,0.0980859,20.8831,151.282,0.0100903,0.0,0.0
1387,346.5,38.9736,39.8697,151.792,100.677,100.584,0.0182459,0.0961626,20.8873,151.112,0.00836451,0.0,0.0
1406,351.25,38.2861,38.9089,149.886,100.607,100.662,0.0194491,0.0916252,20.8902,151.062,-0.00498442,0.0,0.0
1425,356,37.408,37.8426,150.088,100.499,100.423,0.0214542,0.0904544,20.8933,151.032,0.00686539,0.0,0.0
1444,360.75,36.2845,37.2399,148.768,100.328,100.254,0.0219382,0.090895,20.8934,151.012,0.00674,0.0,0.0
1463,365.5,35.8049,36.4727,148.514,100.112,100.09,0.0220682,0.0911329,20.8938,150.962,0.00203453,0.0,0.0
1482,370.25,35.481,35.7303,149.279,99.8573,99.7393,0.0220971,0.0903967,20.8948,150.842,0.0107332,0.0,0.0
1501,375,34.8664,35.6023,151.497,99.5716,99.5959,0.0219132,0.0900741,20.8948,150.762,-0.00221406,0.0,0.0
1520,379.75,34.7707,34.8053,150.324,99.3421,99.2146,0.0218469,0.0907565,20.8948,150.772,0.0116537,0.0,0.0
1539,384.5,33.7316,34.4743,151.758,99.1145,99.1859,0.0217227,0.0910077,20.8937,150.742,-0.00653283,0.0,0.0
1558,389.25,33.6317,33.4692,147.411,98.9755,98.8808,0.0215537,0.0918785,20.8931,150.642,0.00869089,0.0,0.0
1577,394,32.9383,33.7673,151.343,98.9207,99.0159,0.0211911,0.0920018,20.8916,150.572,-0.00872575,0.0,0.0
1596,398.75,32.9866,33.2439,151.199,98.9686,98.7904,0.0213716,0.0922928,20.8909,150.412,0.0163542,0.0,0.0
1615,403.5,32.3075,32.2186,146.175,99.1243,99.1781,0.0213823,0.0924563,20.8897,150.462,-0.00492976,0.0,0.0
1634,408.25,32.0898,32.3654,150.996,99.3522,99.1048,0.0212926,0.0914411,20.8896,150.372,0.02263,0.0,0.0
1653,413,31.5635,32.1118,152.218,99.5777,99.4696,0.0214898,0.091057,20.8923,150.302,0.00985798,0.0,0.0
1672,417.75,31.7371,32.0866,148.24,99.8025,99.5138,0.0213165,0.0908479,20.893,150.282,0.0262796,0.0,0.0
1691,422.5,30.9784,31.8104,149.179,99.965,99.852,0.0209991,0.0897838,20.8942,150.141,0.0102632,0.0,0.0
1710,427.25,30.4952,31.2762,148.971,100.087,99.9113,0.0209252,0.0893463,20.8958,150.111,0.0159374,0.0,0.0
1729,432,30.4733,31.473,149.853,100.144,100.108,0.0209832,0.089116,20.8959,150.111,0.00324032,0.0,0.0
1748,436.75,30.3643,30.5272,152.637,100.139,99.8486,0.0202837,0.0882651,20.8973,150.071,0.0263832,0.0,0.0
1767,441.5,30.5826,30.7364,149.856,100.083,100.113,0.0200913,0.0878179,20.8982,150.021,-0.00276806,0.0,0.0
1786,446.25,29.6318,30.6067,154.3,100.039,99.8151,0.0204227,0.0876552,20.8993,149.941,0.020368,0.0,0.0
1805,451,29.6918,30.5534,150.987,99.9597,99.5921,0.0204186,0.087538,20.8993,149.831,0.0334367,0.0,0.0
1824,455.75,29.8249,30.2551,147.139,99.9146,99.6246,0.0202421,0.0876999,20.8997,149.851,0.0263746,0.0,0.0