File: 01_Data/Masonite_Board/Cone/Masonite_Cone_HF15Scan_230106_R1.csv
Names,Time,Stack TC,Smoke TC,Exh Press,Smoke Comp,Smoke Meas,CO Meter,CO2 Meter,O2 Meter,Sample Mass,Ext Coeff,Start Test,Flame Verif
Chan Gain,,500,500,1,1,1,1,1,1,1,1,1.0,1.0
Offset,,0,0,0.303564,0,0,0,0,0,0,0,0.0,0.0
Gain,,1,1,25.011,13.362,14.5452,1,1,1,1.00089,1.1066,1.0,1.0
Units,sec,C,C,Pa,%,%,%,%,%,g,/m,,
Baseline,,20.503,21.39,150.283,100.704,100.728,0.000358782,0.0494679,20.9641,-443.383,-0.00229613,,
33,8,19.0392,19.8371,149.108,99.1606,99.2173,0.00052779,0.0521374,20.963,181.022,-0.00555715,0.0,0.0
66,16.25,19.2344,19.9788,145.534,99.4737,99.4561,0.000422977,0.0581332,20.9546,180.882,0.00171593,0.0,0.0
99,24.5,19.1517,19.9556,149.31,99.9068,99.9386,0.000772958,0.0672142,20.9448,180.852,-0.00309533,0.0,0.0
132,32.75,19.4454,19.9274,152.908,100.236,100.25,0.000432799,0.061351,20.9447,180.812,-0.00139391,0.0,0.0
165,41,18.9119,19.8699,153.417,100.394,100.414,0.000519838,0.0617599,20.9521,180.712,-0.00197375,0.0,0.0
198,49.25,18.6898,20.4089,155.718,100.411,100.47,0.000264851,0.0573369,20.9483,180.702,-0.00568045,0.0,0.0
231,57.5,18.8489,20.1577,149.293,100.208,100.232,0.000428455,0.0563877,20.955,180.631,-0.00227468,0.0,0.0
264,65.75,19.4518,19.9079,151.023,99.9696,99.9946,0.000357282,0.0559997,20.9546,180.551,-0.00242688,0.0,0.0
297,74,19.33,20.3152,150.091,99.7979,99.8037,0.000154795,0.0564334,20.9541,180.471,-0.000564135,0.0,0.0
330,82.25,19.4495,20.1221,150.084,100.411,100.435,0.000223122,0.0506813,20.9602,180.331,-0.00233486,0.0,0.0
363,90.5,19.4015,19.7752,152.308,100.668,100.639,0.000200817,0.0510561,20.958,180.291,0.0028011,0.0,0.0
396,98.75,19.3841,20.2747,148.506,100.529,100.509,0.000462369,0.050808,20.9611,180.161,0.00197508,0.0,0.0
429,107,19.5657,20.4608,151.374,100.225,100.191,0.000386476,0.0523138,20.9605,180.051,0.00334016,0.0,0.0
462,115.25,20.1898,20.0282,148.959,100.565,100.461,0.000433036,0.0501413,20.957,179.911,0.00998815,0.0,0.0
495,123.5,19.4657,20.7358,150.737,100.897,100.815,0.000427787,0.0461029,20.9638,179.851,0.00793029,0.0,0.0
528,131.75,19.3324,19.8617,147.859,101.022,100.817,0.000192557,0.0447634,20.9668,179.731,0.0197143,0.0,0.0
561,140,19.5212,20.6647,153.891,101.062,100.856,0.000505928,0.0445089,20.968,179.571,0.0197963,0.0,0.0
594,148.25,19.8443,20.2286,147.25,101.033,100.87,0.000183135,0.0452708,20.967,179.38,0.0156866,0.0,0.0
627,156.5,19.6423,20.2614,149.866,100.965,100.85,0.000137351,0.0461539,20.9658,179.32,0.0111036,0.0,0.0
660,164.75,19.7088,20.2959,149.39,100.925,100.697,0.000362717,0.0464349,20.9657,179.22,0.0218909,0.0,0.0
693,173,19.0613,20.1839,151.171,100.888,100.703,-0.000130633,0.0462549,20.9649,178.97,0.0178006,0.0,0.0
726,181.25,19.5487,20.3813,151.547,100.86,100.588,-9.06388e-05,0.0462437,20.9647,178.97,0.0262241,0.0,0.0
759,189.5,19.7295,20.3425,153.652,100.872,100.571,0.000582085,0.0464116,20.9647,178.92,0.0289934,0.0,0.0
792,197.75,19.3922,20.2569,152.1,100.919,100.637,0.00044025,0.0467017,20.9663,178.79,0.0272015,0.0,0.0
825,206,19.703,20.4182,148.569,100.987,100.743,0.000276673,0.0468937,20.9664,178.81,0.0234806,0.0,0.0
858,214.25,19.4176,20.7137,151.452,101.022,100.816,0.000235734,0.0470908,20.9664,178.75,0.0197986,0.0,0.0
891,222.5,19.8018,20.5855,148.758,101.046,100.795,-4.43813e-05,0.0470914,20.9636,178.63,0.0241201,0.0,0.0
924,230.75,19.2117,20.2961,149.43,101.01,100.605,0.000245833,0.0470453,20.9634,178.6,0.038946,0.0,0.0
957,239,19.5579,19.9636,149.857,100.85,100.433,0.000522081,0.0471108,20.9634,178.62,0.0402852,0.0,0.0
990,247.25,19.2813,20.8687,149.248,100.653,100.252,0.000531114,0.0472396,20.9634,178.5,0.0387086,0.0,0.0
1023,255.5,19.1118,20.2786,154.733,100.448,100.001,0.000139682,0.0472081,20.9646,178.49,0.0433431,0.0,0.0
1056,263.75,19.3904,20.6104,148.42,100.262,99.7864,0.000220194,0.0474677,20.9641,178.48,0.0461916,0.0,0.0
1089,272,19.7288,20.1863,147.204,100.153,99.7442,0.00026351,0.0478162,20.9638,178.46,0.0397078,0.0,0.0
1122,280.25,19.536,20.5227,148.033,100.434,99.813,0.000600338,0.0480774,20.9658,178.399,0.0601675,0.0,0.0
1155,288.5,19.5616,20.9263,150.206,100.589,100.03,0.000539871,0.0493757,20.9624,178.349,0.0540854,0.0,0.0
1188,296.75,19.5395,20.7563,150.217,100.632,99.9267,0.000724728,0.0482618,20.9627,178.279,0.068297,0.0,0.0
1221,305,19.4798,20.9376,150.161,100.572,99.924,0.000613351,0.0476259,20.963,178.279,0.0627328,0.0,0.0
1254,313.25,19.8591,20.8334,147.519,100.393,99.8002,0.000285655,0.0482373,20.9635,178.219,0.0575175,0.0,0.0
1287,321.5,19.56,20.5451,148.606,100.118,99.2333,0.00034356,0.0477074,20.9637,178.189,0.0861575,0.0,0.0
1320,329.75,19.7049,20.5253,150.2,99.782,98.9688,0.000480522,0.0476099,20.9637,178.139,0.0794387,0.0,0.0
1353,338,19.5078,20.5082,153.001,99.9251,99.1117,0.00019569,0.047732,20.965,178.099,0.0793434,0.0,0.0
1386,346.25,19.5641,20.781,147.598,100.141,99.1352,0.000360657,0.0483899,20.9654,178.059,0.0980108,0.0,0.0
1419,354.5,19.5307,21.2186,149.532,100.347,99.3203,0.000660779,0.0484373,20.9657,177.969,0.0998045,0.0,0.0
1452,362.75,20.1053,20.6008,147.502,100.259,99.0993,0.000633537,0.0484682,20.9615,177.879,0.11291,0.0,0.0
1485,371,19.3638,20.808,152.776,99.895,98.7362,0.000471712,0.0483166,20.9633,177.819,0.113261,0.0,0.0
1518,379.25,20.0726,20.867,150.742,99.4122,97.962,0.00109049,0.0485741,20.963,177.699,0.142638,0.0,0.0
1551,387.5,19.8881,20.5744,154.713,99.0896,97.4755,0.00101,0.0491634,20.9627,177.599,0.159419,0.0,0.0
1584,395.75,19.6758,20.6046,148.506,99.2409,97.5892,0.000622929,0.0492284,20.9627,177.519,0.162918,0.0,0.0
1617,404,19.5243,20.4074,149.782,99.8309,97.9492,0.000950047,0.0493561,20.961,177.449,0.184721,0.0,0.0
1650,412.25,19.7397,20.2749,148.033,100.514,98.7486,0.000966489,0.0493771,20.9633,177.329,0.172003,0.0,0.0
1683,420.5,19.7311,20.9996,148.158,100.96,99.2471,0.00147897,0.0496802,20.9633,177.208,0.166151,0.0,0.0
1716,428.75,19.701,21.1371,148.41,100.951,99.1885,0.00121771,0.0503029,20.9635,177.058,0.170942,0.0,0.0
1749,437,20.0655,20.7836,151.624,100.637,98.6576,0.00138595,0.0513386,20.9618,176.968,0.192798,0.0,0.0
1782,445.25,19.7877,20.9983,151.647,100.242,98.4934,0.00123319,0.0511005,20.9615,176.798,0.170784,0.0,0.0
1815,453.5,19.8961,20.3932,149.684,100.439,98.4667,0.000999741,0.051777,20.9623,176.638,0.192541,0.0,0.0
1848,461.75,19.9224,20.7365,150.252,100.622,98.393,0.00146645,0.0515221,20.9626,176.578,0.217447,0.0,0.0
1881,470,19.6772,20.7674,151.874,100.227,98.2843,0.00171045,0.0517414,20.9626,176.348,0.190028,0.0,0.0
1914,478.25,19.5778,20.9577,149.17,99.8248,97.1457,0.00185868,0.0531867,20.9607,176.198,0.264076,0.0,0.0
1947,486.5,20.5608,21.2649,152.96,100.07,97.6127,0.00184856,0.0524492,20.96,175.997,0.241329,0.0,0.0
1980,494.75,21.1088,23.3979,137.209,100.281,99.8676,0.00196756,0.0573225,20.9602,175.327,0.0400697,0.0,0.0
2013,503,26.0937,30.4968,135.041,100.345,99.6173,0.00230634,0.22794,20.87,174.386,0.0706672,0.0,0.0
2046,511.25,31.4069,37.3855,132.542,100.188,99.1183,0.00231958,0.371784,20.6434,173.265,0.104168,0.0,0.0
2079,519.5,35.784,43.2099,129.525,99.8709,99.109,0.00281831,0.455101,20.5255,171.864,0.0743334,0.0,0.0
2112,527.75,40.6375,48.9143,131.64,99.5108,97.591,0.00269075,0.508381,20.4552,170.522,0.18911,0.0,0.0
2145,536,45.2302,54.4658,133.14,99.1695,97.4143,0.00320437,0.564272,20.3937,169.021,0.173347,0.0,0.0
2178,544.25,48.7866,58.4346,123.589,99.0223,97.2558,0.00349631,0.607364,20.3308,167.48,0.174732,0.0,0.0
2211,552.5,52.722,63.3791,126.731,99.1924,96.9859,0.00362582,0.64217,20.2961,165.828,0.21836,0.0,0.0
2244,560.75,56.3948,66.8372,125.408,99.6095,96.2886,0.00393885,0.677067,20.2509,164.187,0.329144,0.0,0.0
2277,569,58.7404,69.7247,124.608,100.121,96.0263,0.00435767,0.700273,20.2159,162.475,0.405331,0.0,0.0
2310,577.25,60.6119,72.2028,118.52,100.554,96.4897,0.00490487,0.709622,20.1956,160.794,0.400454,0.0,0.0
2343,585.5,63.2228,74.637,118.52,100.843,95.0741,0.00571278,0.722684,20.1808,159.062,0.571785,0.0,0.0
2376,593.75,64.5211,75.4663,122.419,100.987,93.4349,0.00585676,0.72452,20.1706,157.391,0.754497,0.0,0.0
2409,602,65.4932,76.5179,123.694,101.005,93.9968,0.00668197,0.727342,20.1679,155.589,0.697975,0.0,0.0
2442,610.25,65.698,75.93,128.51,100.996,91.9789,0.00912749,0.748258,20.1432,153.918,0.90777,0.0,0.0
2475,618.5,62.8975,71.6143,133.679,100.979,98.0561,0.00916879,0.701584,20.1366,152.847,0.285102,0.0,0.0
2508,626.75,58.2945,64.0456,140.976,100.958,101.249,0.00580299,0.49869,20.3398,152.226,-0.0279389,0.0,0.0
2541,635,52.1073,56.6717,143.238,100.949,101.391,0.00365743,0.291242,20.6012,151.956,-0.0424066,0.0,0.0
2574,643.25,46.7521,49.7962,146.968,100.979,101.248,0.00555131,0.168239,20.7816,151.856,-0.0258125,0.0,0.0
2607,651.5,40.4906,42.7734,147.983,100.984,101.338,0.0118483,0.112446,20.8595,151.786,-0.0339771,0.0,0.0
2640,659.75,37.3981,38.283,145.928,100.98,101.338,0.0161378,0.0819494,20.8969,151.706,-0.0343655,0.0,0.0
2673,668,34.2002,35.3698,146.344,100.987,101.269,0.0159415,0.0749298,20.9105,151.596,-0.0271062,0.0,0.0
2706,676.25,32.3014,32.8641,148.031,100.983,101.238,0.0155856,0.0737013,20.9139,151.525,-0.024523,0.0,0.0
2739,684.5,29.9395,31.1967,149.097,100.981,101.314,0.0157817,0.0735976,20.9122,151.475,-0.0319121,0.0,0.0
2772,692.75,29.5216,29.5473,148.638,100.952,101.215,0.0163124,0.0731184,20.9143,151.445,-0.0252463,0.0,0.0
2805,701,28.3379,28.2306,145.556,100.895,101.095,0.0167414,0.0727692,20.9154,151.335,-0.0192402,0.0,0.0
2838,709.25,27.2904,27.2647,146.369,100.753,101.006,0.0169617,0.0741738,20.9163,151.315,-0.0244098,0.0,0.0
2871,717.5,26.3798,26.932,147.035,100.544,100.775,0.0178816,0.0769629,20.9122,151.245,-0.0222987,0.0,0.0
2904,725.75,25.9081,26.0383,147.546,100.215,100.43,0.0177729,0.0764729,20.9131,151.185,-0.0207963,0.0,0.0
2937,734,25.1878,24.615,144.434,99.7792,99.9657,0.0182644,0.0764193,20.9121,151.095,-0.0181335,0.0,0.0
2970,742.25,24.9225,24.8786,149.67,99.3649,99.5485,0.0186467,0.0758278,20.9121,151.025,-0.0179219,0.0,0.0
3003,750.5,24.6934,24.3614,147.44,99.0761,99.283,0.0190785,0.0768947,20.9108,150.945,-0.0202478,0.0,0.0
3036,758.75,23.393,24.0786,146.252,99.0386,99.2688,0.0189898,0.0772127,20.9093,150.885,-0.0225359,0.0,0.0
3062,765.25,23.3318,23.1967,147.204,99.1626,99.3066,0.0191259,0.0766255,20.9109,150.825,-0.0140819,0.0,0.0