File: 01_Data/Masonite_Board/Cone/Masonite_Cone_HF50Scan_221212_R2.csv
Names,Time,Stack TC,Smoke TC,Exh Press,Smoke Comp,Smoke Meas,CO Meter,CO2 Meter,O2 Meter,Sample Mass,Ext Coeff,Start Test,Flame Verif
Chan Gain,,500,500,1,1,1,1,1,1,1,1,1.0,1.0
Offset,,0,0,0.131978,0,0,0,0,0,0,0,0.0,0.0
Gain,,1,1,25.011,13.4278,14.1503,1,1,1,1.00089,1.02125,1.0,1.0
Units,sec,C,C,Pa,%,%,%,%,%,g,/m,,
Baseline,,32.5823,33.3624,155.78,100.074,100.142,0.00122811,0.0522338,20.9276,-448.463,-0.00607411,,
17,4,31.7397,32.5278,156.891,99.701,99.7375,0.00141878,0.0577301,20.9245,101.53,-0.00327324,0.0,0.0
34,8.25,31.831,32.628,156.1,99.7068,99.696,0.001228,0.0607013,20.9202,101.34,0.000966415,0.0,0.0
51,12.5,31.7765,32.9442,157.603,99.7293,99.3847,0.00116478,0.0607742,20.9193,101.25,0.031012,0.0,0.0
68,16.75,32.0726,33.177,153.119,99.7563,99.2067,0.00121694,0.0615357,20.9183,101.17,0.0494924,0.0,0.0
85,21,32.2467,32.784,155.575,99.7887,98.8708,0.00142555,0.0603339,20.9174,101.05,0.082788,0.0,0.0
102,25.25,31.8988,33.0483,157.039,99.7764,98.5655,0.00152753,0.0582628,20.9204,100.93,0.10939,0.0,0.0
119,29.5,32.4209,33.3015,155.917,99.8129,97.6137,0.0013162,0.057268,20.9223,100.71,0.199587,0.0,0.0
136,33.75,32.1458,32.9817,153.615,99.8313,96.9569,0.00150364,0.057708,20.9231,100.55,0.261724,0.0,0.0
153,38,32.7022,33.2602,155.695,99.8764,95.6895,0.00111991,0.0592812,20.9214,100.189,0.383645,0.0,0.0
170,42.25,33.0477,33.5951,144.711,99.9055,99.3475,0.00136361,0.0615414,20.9185,99.8089,0.0501742,0.0,1.0
187,46.5,34.4291,34.0921,144.228,99.9858,98.188,0.00153684,0.0635292,20.9161,99.2384,0.162539,0.0,0.0
204,50.75,36.7879,36.6564,132.916,100.046,97.5416,0.0020259,0.123002,20.9079,98.6278,0.227074,0.0,0.0
221,55,39.3825,39.1962,134.443,100.094,97.8452,0.00323514,0.245499,20.7942,97.8572,0.203528,0.0,0.0
238,59.25,42.6705,41.8764,135.15,100.143,97.2518,0.00388685,0.358282,20.669,97.1165,0.262454,0.0,0.0
255,63.5,45.1453,45.0726,132.732,100.212,97.2182,0.00415512,0.443241,20.5352,96.3858,0.27175,0.0,0.0
272,67.75,48.241,48.0619,131.518,100.257,95.2205,0.00419788,0.509802,20.4371,95.435,0.461739,0.0,0.0
289,72,51.4238,51.4474,130.743,100.312,95.2615,0.00460623,0.568244,20.3702,94.6343,0.462748,0.0,0.0
306,76.25,54.8171,55.4185,125.214,100.351,93.4115,0.00498162,0.635602,20.2914,93.6034,0.641943,0.0,0.0
323,80.5,58.1557,58.912,134.641,100.387,93.4232,0.00569925,0.704714,20.2202,92.5424,0.644043,0.0,0.0
340,84.75,61.3379,62.7104,122.238,100.412,92.6325,0.00627007,0.773624,20.1298,91.4615,0.722379,0.0,0.0
357,89,65.029,66.6745,117.323,100.437,92.3829,0.00672699,0.839155,20.0447,90.2204,0.748779,0.0,0.0
374,93.25,68.522,70.6313,111.023,100.429,90.6642,0.00703534,0.913282,19.9697,88.8692,0.916316,0.0,0.0
391,97.5,72.6625,74.9559,114.505,100.457,88.6385,0.00781154,1.00523,19.8649,87.3778,1.12123,0.0,0.0
408,101.75,76.44,78.4124,118.725,100.449,82.1528,0.00856246,1.11449,19.7605,85.7564,1.80124,0.0,0.0
425,106,78.9177,82.3813,118.353,100.445,81.7538,0.0103492,1.26123,19.6318,83.9047,1.84449,0.0,0.0
442,110.25,82.3361,85.9252,115.581,100.441,84.1237,0.013535,1.40809,19.4424,82.2833,1.58813,0.0,0.0
459,114.5,84.7422,89.5211,113.735,100.435,84.0149,0.0178437,1.50856,19.2914,80.5417,1.59921,0.0,0.0
476,118.75,87.6194,92.7234,118.587,100.422,86.2746,0.019402,1.56471,19.1996,78.9303,1.36031,0.0,0.0
493,123,90.2921,95.8195,122.219,100.395,84.4786,0.0197449,1.57171,19.1529,77.3789,1.54631,0.0,0.0
510,127.25,92.7126,98.4136,118.714,100.382,90.7808,0.0193176,1.56349,19.1527,75.8876,0.900672,0.0,0.0
527,131.5,93.9285,100.294,119.828,100.32,90.6953,0.0178815,1.51329,19.1693,74.6765,0.903516,0.0,0.0
544,135.75,94.1593,101.552,127.304,100.267,90.2298,0.0166032,1.43749,19.2363,73.4354,0.944894,0.0,0.0
561,140,92.5617,100.073,138.287,100.208,95.2788,0.0151361,1.31694,19.3419,72.935,0.451824,0.0,0.0
578,144.25,89.3181,98.0156,138.511,100.125,100.866,0.0131511,1.13032,19.4829,72.6547,-0.0660658,0.0,0.0
595,148.5,85.1014,94.1434,156.098,100.016,100.729,0.0112137,0.803726,19.717,72.4946,-0.0636568,0.0,0.0
612,152.75,81.1162,90.3699,149.047,99.9055,100.687,0.008068,0.458334,20.1516,72.3745,-0.0698078,0.0,0.0
629,157,78.3141,86.9626,146.06,99.8994,100.676,0.00548607,0.262577,20.542,72.3845,-0.0693988,0.0,0.0
646,161.25,75.2655,83.5783,147.937,99.9424,100.546,0.00547508,0.189053,20.7158,72.2644,-0.0539296,0.0,0.0
663,165.5,71.7729,80.3828,147.118,99.9977,100.589,0.00601431,0.159794,20.7804,72.1543,-0.0528569,0.0,0.0
680,169.75,69.1407,77.8604,149.686,100.074,100.669,0.00657512,0.144811,20.8053,72.1543,-0.0530685,0.0,0.0
697,174,67.2643,75.5672,143.691,100.143,100.851,0.00691871,0.136499,20.8194,72.1042,-0.0631083,0.0,0.0
714,178.25,64.8174,72.558,149.276,100.199,100.975,0.00700652,0.13099,20.8286,71.9441,-0.0691647,0.0,0.0
731,182.5,63.1948,70.5886,145.99,100.283,100.915,0.00727218,0.127666,20.8336,71.9841,-0.0562941,0.0,0.0
748,186.75,61.3451,68.3547,150.792,100.323,101.049,0.00766004,0.125728,20.8354,71.9841,-0.0646189,0.0,0.0
765,191,59.5939,66.4823,149.37,100.373,100.872,0.00791028,0.124534,20.8381,71.7539,-0.0444104,0.0,0.0
782,195.25,58.316,65.0429,149.493,100.438,100.998,0.00780203,0.123583,20.8401,71.7639,-0.0498264,0.0,0.0
799,199.5,57.1145,63.4022,149.898,100.508,101.074,0.00804781,0.124284,20.8385,71.7539,-0.050277,0.0,0.0
816,203.75,55.7708,61.6797,145.94,100.56,101.192,0.00807333,0.123446,20.8382,71.6638,-0.056157,0.0,0.0
833,208,54.4034,59.8653,153.174,100.599,101.128,0.00809239,0.12265,20.8394,71.5737,-0.0470321,0.0,0.0
850,212.25,53.2534,58.8506,152.122,100.65,101.27,0.00817316,0.12734,20.8373,71.5938,-0.0549358,0.0,0.0
867,216.5,52.6768,57.3316,147.84,100.682,101.258,0.00802911,0.131471,20.8307,71.5337,-0.0511329,0.0,0.0
884,220.75,51.6724,56.5889,153.254,100.694,101.178,0.0082416,0.129024,20.8297,71.4136,-0.0430427,0.0,0.0
901,225,51.1187,55.5151,151.271,100.725,101.24,0.00810063,0.125149,20.8354,71.5137,-0.0456651,0.0,0.0
918,229.25,50.4814,54.6257,150.67,100.689,101.248,0.00813341,0.123849,20.8394,71.4336,-0.0495956,0.0,0.0
935,233.5,49.6543,53.8715,148.757,100.651,101.115,0.00838568,0.124913,20.8389,71.3335,-0.0412127,0.0,0.0
952,237.75,49.0873,53.0433,150.827,100.607,101.074,0.00849565,0.124484,20.8382,71.3035,-0.0415196,0.0,0.0
969,242,47.8407,52.2014,146.893,100.536,100.983,0.00847962,0.122922,20.8389,71.3135,-0.0397913,0.0,0.0
986,246.25,47.87,50.912,152.528,100.429,100.986,0.00842393,0.121249,20.8427,71.1434,-0.0495945,0.0,0.0
1003,250.5,47.4884,50.744,151.306,100.341,100.869,0.0082291,0.119447,20.8452,71.1434,-0.0470697,0.0,0.0
1020,254.75,46.9023,49.9034,151.13,100.225,100.732,0.00836397,0.118667,20.8478,71.1534,-0.0452266,0.0,0.0
1037,259,46.0736,49.0572,152.137,100.088,100.551,0.0079553,0.120138,20.8477,70.9632,-0.0413227,0.0,0.0
1054,263.25,45.3923,48.4825,151.582,99.9629,100.456,0.00789547,0.122403,20.8441,71.0132,-0.0441254,0.0,0.0
1071,267.5,45.7166,48.0558,152.649,99.8358,100.282,0.00792285,0.121596,20.8415,70.9632,-0.0399067,0.0,0.0
1088,271.75,45.3425,48.1087,151.152,99.6924,100.093,0.00791953,0.120525,20.8423,70.9532,-0.0359509,0.0,0.0
1105,276,44.261,46.1555,151.667,99.5621,99.9802,0.00810051,0.11789,20.844,70.8231,-0.0375358,0.0,0.0
1122,280.25,44.0132,46.1709,151.936,99.4195,99.8579,0.00823618,0.117695,20.8468,70.9332,-0.0394202,0.0,0.0
1139,284.5,43.9912,45.5146,150.595,99.2925,99.7871,0.00834434,0.118556,20.8466,70.7931,-0.0445177,0.0,0.0
1156,288.75,43.4644,45.2242,153.59,99.1536,99.5332,0.00852489,0.118463,20.8446,70.763,-0.0342355,0.0,0.0
1173,293,42.9234,44.7848,152.466,99.0396,99.4287,0.00852783,0.117452,20.8461,70.7931,-0.0351232,0.0,0.0
1190,297.25,42.9462,44.7275,150.843,98.9421,99.3307,0.00822128,0.115666,20.8495,70.713,-0.035113,0.0,0.0
1207,301.5,42.3799,44.6175,153.306,98.829,99.2784,0.00831287,0.115475,20.8507,70.6129,-0.0406452,0.0,0.0
1224,305.75,42.2486,44.114,149.825,98.7753,99.2106,0.008659,0.116662,20.8503,70.6129,-0.0393928,0.0,0.0
1241,310,42.1316,43.6098,152.898,98.6971,99.0824,0.00858967,0.116271,20.8502,70.6029,-0.0349056,0.0,0.0
1258,314.25,42.2001,43.8801,150.096,98.6524,99.0642,0.00828169,0.115399,20.8523,70.4427,-0.0373213,0.0,0.0
1275,318.5,41.858,43.0736,150.991,98.6184,99.0828,0.00837453,0.114921,20.8532,70.5028,-0.0420893,0.0,0.0
1292,322.75,41.6667,43.1661,153.039,98.6233,98.8695,0.00809593,0.11339,20.8547,70.4227,-0.022334,0.0,0.0
1309,327,41.4019,42.3713,153.72,98.6122,98.9109,0.0079643,0.111622,20.8569,70.3727,-0.027094,0.0,0.0
1326,331.25,41.3182,42.6353,153.493,98.6348,99.1282,0.00836199,0.111292,20.8579,70.2826,-0.0446986,0.0,0.0
1343,335.5,40.8613,42.4019,153.09,98.6712,99.0785,0.00842573,0.111644,20.8579,70.3727,-0.0368983,0.0,0.0
1360,339.75,40.3732,41.9219,151.594,98.695,99.0478,0.00862815,0.11129,20.8584,70.2726,-0.031968,0.0,0.0
1377,344,40.7438,41.8981,152.132,98.7257,99.17,0.00868462,0.110917,20.8598,70.2326,-0.0402252,0.0,0.0
1394,348.25,40.4272,41.5743,152.219,98.7934,99.2724,0.00900374,0.110088,20.8608,70.2025,-0.0433319,0.0,0.0
1411,352.5,40.4628,41.0952,150.036,98.845,99.2232,0.00919284,0.108793,20.8621,70.2125,-0.0342077,0.0,0.0
1428,356.75,40.3429,41.139,148.877,98.8897,99.2469,0.00899287,0.10831,20.8629,70.0324,-0.0323045,0.0,0.0
1445,361,40.0894,41.0881,155.805,98.9896,99.3639,0.00891702,0.108001,20.8626,70.1024,-0.0338089,0.0,0.0
1462,365.25,40.1484,40.4551,151.234,99.0646,99.4969,0.00862847,0.107945,20.8634,70.1024,-0.0390072,0.0,0.0
1479,369.5,39.939,40.7027,150.023,99.1245,99.4464,0.00868254,0.107031,20.8618,69.9423,-0.0290491,0.0,0.0
1496,373.75,39.5649,40.3646,152.056,99.2085,99.6191,0.00901816,0.106595,20.8618,69.9623,-0.0370066,0.0,0.0
1513,378,39.7778,40.0756,151.186,99.2871,99.6524,0.0091777,0.105487,20.8635,69.9623,-0.0328946,0.0,0.0
1530,382.25,39.4583,39.99,157.008,99.3638,99.7288,0.00930971,0.104188,20.8646,69.9323,-0.0328517,0.0,0.0
1547,386.5,39.1696,39.8966,156.424,99.44,99.8303,0.00956071,0.10302,20.8663,69.8222,-0.0350937,0.0,0.0
1564,390.75,38.9772,39.5658,153.825,99.5174,99.7798,0.00920473,0.102129,20.8681,69.9223,-0.0235845,0.0,0.0
1571,392.5,39.0128,39.7429,149.64,99.5379,99.9167,0.00921177,0.101916,20.8683,69.8122,-0.0340222,0.0,0.0