File: 01_Data/Masonite_Board/Cone/Masonite_Cone_HF15Scan_230106_R3.csv
Names,Time,Stack TC,Smoke TC,Exh Press,Smoke Comp,Smoke Meas,CO Meter,CO2 Meter,O2 Meter,Sample Mass,Ext Coeff,Start Test,Flame Verif
Chan Gain,,500,500,1,1,1,1,1,1,1,1,1.0,1.0
Offset,,0,0,0.303564,0,0,0,0,0,0,0,0.0,0.0
Gain,,1,1,25.011,13.3266,14.4891,1,1,1,1.00089,1.1066,1.0,1.0
Units,sec,C,C,Pa,%,%,%,%,%,g,/m,,
Baseline,,21.4337,21.9732,149.901,99.862,99.8678,0.000507439,0.0498404,20.9588,-443.532,-0.000557067,,
29,7,19.2275,19.9673,150.47,99.8848,99.7514,0.000578103,0.0617641,20.9453,177.238,0.0129724,0.0,0.0
58,14.25,19.2935,20.2453,149.327,99.7335,99.6616,0.000589153,0.0563755,20.9465,177.228,0.00699718,0.0,0.0
87,21.5,19.7545,20.0152,148.001,99.6497,99.5519,0.000259575,0.0526204,20.9554,177.188,0.0095269,0.0,0.0
116,28.75,19.7399,20.6182,152.187,99.5631,99.502,0.000285769,0.0523637,20.9561,177.138,0.00595758,0.0,0.0
145,36,19.6154,20.0425,157.26,99.476,99.3729,0.000349511,0.0503201,20.959,177.038,0.0100725,0.0,0.0
174,43.25,19.7022,19.9051,152.485,99.4427,99.2972,0.00083514,0.0491495,20.9602,176.998,0.0142065,0.0,0.0
203,50.5,19.6485,20.353,152.51,99.4093,99.3401,0.000493623,0.0494844,20.9615,176.918,0.00675897,0.0,0.0
232,57.75,20.0113,20.4535,148.66,99.4256,99.4405,0.000260981,0.0495653,20.9596,176.878,-0.00145582,0.0,0.0
261,65,19.9165,20.4486,151.393,99.4752,99.4202,4.5835e-06,0.0506146,20.9603,176.818,0.00537239,0.0,0.0
290,72.25,19.9028,20.7643,149.055,99.6001,99.4617,8.62251e-06,0.0518009,20.957,176.738,0.0134913,0.0,0.0
319,79.5,19.4552,20.6524,146.188,99.7802,99.6373,0.000137064,0.0500168,20.9583,176.698,0.0139165,0.0,0.0
348,86.75,19.6277,20.5854,152.421,99.9608,99.8336,0.00029948,0.0494654,20.9579,176.608,0.0123599,0.0,0.0
377,94,20.0132,20.7801,146.815,100.108,99.9181,0.000529747,0.0492212,20.9583,176.448,0.0183989,0.0,0.0
406,101.25,19.4159,20.4133,150.321,100.286,100.064,0.000512203,0.0492145,20.9579,176.368,0.0214902,0.0,0.0
435,108.5,20.0859,20.3283,150.341,100.454,100.298,-6.39549e-05,0.0491546,20.9612,176.278,0.0150708,0.0,0.0
464,115.75,20.2479,20.5712,148.823,100.577,100.324,0.00039889,0.0490706,20.9621,176.127,0.0244513,0.0,0.0
493,123,20.3389,20.6743,148.574,100.664,100.423,0.000429086,0.0513185,20.961,176.027,0.0232647,0.0,0.0
522,130.25,20.4507,20.8013,147.737,100.66,100.469,0.000575087,0.0517203,20.9576,175.897,0.0184243,0.0,0.0
551,137.5,19.8838,20.9267,147.531,100.609,100.449,0.000388206,0.0497691,20.9596,175.777,0.0154509,0.0,0.0
580,144.75,20.2251,20.9355,150.235,100.506,100.288,0.000147302,0.0491847,20.9619,175.687,0.0210411,0.0,0.0
609,152,20.1081,20.8277,148.264,100.368,100.148,0.000353035,0.0489621,20.9622,175.547,0.0212547,0.0,0.0
638,159.25,20.1026,20.56,152.007,100.209,99.9278,0.000553752,0.0486606,20.9622,175.447,0.0273077,0.0,0.0
667,166.5,19.8684,20.7117,146.449,100.082,99.834,0.0007199,0.0487333,20.9618,175.337,0.0240404,0.0,0.0
696,173.75,19.9812,20.6903,154.047,99.9555,99.6797,0.000584063,0.0488213,20.9613,175.207,0.0268196,0.0,0.0
725,181,19.7563,20.5585,147.09,99.8534,99.5679,0.000286969,0.0487602,20.9635,175.147,0.0278016,0.0,0.0
754,188.25,19.9721,20.5653,147.826,99.825,99.5157,0.000315758,0.0487361,20.9637,175.087,0.0301217,0.0,0.0
783,195.5,19.6617,20.8237,151.74,100.05,99.6828,6.76059e-05,0.0487109,20.9625,175.036,0.0357173,0.0,0.0
812,202.75,20.1655,20.8562,151.221,100.215,99.8809,-0.000145883,0.0523292,20.9617,174.996,0.0324528,0.0,0.0
841,210,19.6597,20.8995,152.288,100.253,99.7938,0.000148251,0.0513431,20.9594,174.916,0.044586,0.0,0.0
870,217.25,20.0922,20.5421,151.767,100.208,99.7602,0.000493903,0.0494755,20.962,174.816,0.0434422,0.0,0.0
899,224.5,20.0179,20.6705,149.04,100.004,99.555,0.000158639,0.0491002,20.9602,174.866,0.0436691,0.0,0.0
928,231.75,20.4378,20.6208,148.047,99.7176,99.2287,0.000519683,0.049208,20.9626,174.826,0.0477083,0.0,0.0
957,239,19.8226,21.0623,155.401,99.4,98.909,0.000384663,0.0491698,20.9617,174.766,0.0480629,0.0,0.0
986,246.25,20.117,21.2344,150.844,99.5208,98.9961,0.000346206,0.0490196,20.9619,174.776,0.0513072,0.0,0.0
1015,253.5,20.2706,20.4018,152.676,99.6822,99.0306,0.000355958,0.051068,20.9614,174.746,0.0636606,0.0,0.0
1044,260.75,19.3005,21.327,149.954,99.8567,99.276,0.000435374,0.0538165,20.9568,174.626,0.056611,0.0,0.0
1073,268,20.0493,21.1745,153.036,99.9901,99.2681,0.000370435,0.0511039,20.9581,174.616,0.0703478,0.0,0.0
1102,275.25,20.1553,20.9771,146.031,100.04,99.3163,0.000363031,0.0499075,20.9597,174.586,0.0704524,0.0,0.0
1131,282.5,20.1763,20.9082,146.952,99.975,99.1686,0.000579084,0.0519804,20.9584,174.546,0.0786203,0.0,0.0
1160,289.75,20.1343,20.8844,149.464,99.8205,98.7206,0.000303283,0.051597,20.9577,174.476,0.107547,0.0,0.0
1189,297,20.2003,21.3208,151.715,99.5773,98.5902,0.000884806,0.0504272,20.9597,174.456,0.0967025,0.0,0.0
1218,304.25,20.0354,21.4288,147.609,99.282,98.2665,0.000594299,0.0499755,20.9611,174.406,0.0997977,0.0,0.0
1247,311.5,20.0271,20.7026,149.902,99.0254,97.7355,0.000726296,0.0498541,20.9621,174.316,0.127274,0.0,0.0
1276,318.75,20.1125,21.2193,148.567,98.8444,97.5878,0.000950695,0.0499351,20.9634,174.266,0.124197,0.0,0.0
1305,326,19.9345,21.0032,150.391,98.7647,97.4972,0.000932595,0.0502403,20.9615,174.126,0.125386,0.0,0.0
1334,333.25,19.9269,21.0611,146.568,98.8448,97.3265,0.000557764,0.0504865,20.9618,174.096,0.150265,0.0,0.0
1363,340.5,20.4667,21.2425,156.39,99.0966,97.6541,0.00110929,0.0503484,20.9611,174.066,0.142332,0.0,0.0
1392,347.75,20.4425,21.2946,147.294,99.4618,97.9827,0.000793294,0.0520114,20.9599,173.915,0.145439,0.0,0.0
1421,355,20.4075,21.4852,147.437,99.8778,97.7748,0.000959954,0.0515209,20.9585,173.875,0.206569,0.0,0.0
1450,362.25,20.2587,20.9569,153.249,100.189,97.9566,0.00102573,0.0519417,20.9596,173.755,0.218774,0.0,0.0
1479,369.5,20.5281,20.9626,148.483,100.444,98.2356,0.0012306,0.0516018,20.9591,173.555,0.215761,0.0,0.0
1508,376.75,20.5089,21.2544,150.932,100.601,99.36,0.00109155,0.0515217,20.9589,173.525,0.12052,0.0,0.0
1537,384,20.1131,21.84,148.156,100.666,98.2621,0.0014685,0.0523056,20.9596,173.345,0.234654,0.0,0.0
1566,391.25,20.278,21.9149,148.564,100.64,98.0623,0.0014113,0.0528372,20.9583,173.235,0.251868,0.0,0.0
1595,398.5,20.517,21.1511,149.918,100.535,99.1544,0.00143688,0.0522971,20.9581,173.115,0.134189,0.0,1.0
1624,405.75,19.989,21.4339,142.781,100.405,99.8327,0.00166435,0.0533562,20.9581,172.704,0.0554777,0.0,0.0
1653,413,23.2169,26.5027,136.559,100.253,99.5356,0.00197495,0.134874,20.9355,171.934,0.0696964,0.0,0.0
1682,420.25,28.4769,32.3191,130.769,100.064,99.2557,0.00278358,0.285396,20.767,171.083,0.0787018,0.0,0.0
1711,427.5,32.6073,38.0807,127.669,99.886,98.9665,0.00278698,0.381437,20.6235,170.002,0.0897685,0.0,0.0
1740,434.75,36.8422,43.9043,131.111,99.7924,98.622,0.00305602,0.46204,20.5214,168.861,0.114518,0.0,0.0
1769,442,40.5469,48.7143,131.772,100.073,99.1712,0.00326978,0.512152,20.4515,167.66,0.0878732,0.0,0.0
1798,449.25,44.5134,53.4132,126.697,100.215,98.6587,0.00365989,0.554071,20.4008,166.369,0.151962,0.0,0.0
1827,456.5,48.0311,57.1968,124.015,100.263,98.3824,0.00381023,0.590797,20.354,165.018,0.18376,0.0,0.0
1856,463.75,50.9096,60.6304,120.752,100.291,98.7463,0.00375753,0.622179,20.3108,163.616,0.150676,0.0,0.0
1885,471,53.8384,63.6803,124.047,100.3,97.5538,0.00408909,0.647431,20.2801,162.205,0.269447,0.0,0.0
1914,478.25,56.7415,66.3022,126.408,100.292,97.2602,0.00417998,0.67275,20.2489,160.814,0.297997,0.0,0.0
1943,485.5,57.9602,68.5873,124.213,100.282,96.2975,0.00443386,0.688031,20.221,159.372,0.393525,0.0,0.0
1972,492.75,59.8803,70.0175,127.842,100.255,95.8549,0.00492222,0.687998,20.2159,157.921,0.435645,0.0,0.0
2001,500,61.2443,71.7314,122.845,100.137,96.2538,0.00501834,0.690983,20.2095,156.49,0.383913,0.0,0.0
2030,507.25,61.8971,72.4241,120.708,99.8681,95.5697,0.0055886,0.693271,20.2061,155.079,0.42705,0.0,0.0
2059,514.5,62.5044,72.3191,124.859,99.9462,96.13,0.00588305,0.679028,20.2183,153.737,0.377899,0.0,0.0
2088,521.75,62.0807,71.7323,130.515,100.189,92.7129,0.00565226,0.661453,20.2274,152.446,0.752826,0.0,0.0
2117,529,62.6085,71.4145,121.316,100.442,90.6873,0.00567984,0.635558,20.2584,151.085,0.991734,0.0,0.0
2146,536.25,61.8974,70.4457,129.512,100.614,93.2497,0.00696614,0.659295,20.2608,149.794,0.737876,0.0,0.0
2175,543.5,58.9811,65.9435,137,100.689,100.494,0.0101452,0.625761,20.2212,149.103,0.0188204,0.0,0.0
2204,550.75,53.4649,58.937,142.809,100.653,100.965,0.0102462,0.416518,20.3807,148.833,-0.0300506,0.0,0.0
2233,558,49.3651,52.6433,144.212,100.492,100.714,0.00595941,0.221739,20.6822,148.693,-0.0215043,0.0,0.0
2262,565.25,43.0139,45.8123,145.877,100.257,100.484,0.00885282,0.136931,20.8193,148.613,-0.0220111,0.0,0.0
2291,572.5,39.7251,41.0993,147.156,99.9697,100.228,0.0140411,0.0938132,20.8781,148.493,-0.0250456,0.0,0.0
2320,579.75,36.7785,37.4872,146.746,99.6863,99.8447,0.0150396,0.0757363,20.9105,148.523,-0.0154095,0.0,0.0
2349,587,34.4318,35.2981,143.836,99.3898,99.601,0.0141057,0.0722285,20.9172,148.463,-0.0206061,0.0,0.0
2378,594.25,32.8556,33.5458,147.458,99.1067,99.3499,0.0132123,0.070613,20.9173,148.343,-0.0237828,0.0,0.0
2407,601.5,31.1091,31.8426,143.867,98.8965,99.1398,0.0134774,0.0702239,20.9181,148.353,-0.0238565,0.0,0.0
2436,608.75,30.312,30.407,147.444,98.8143,99.0607,0.014069,0.0697832,20.9184,148.313,-0.0241709,0.0,0.0
2465,616,28.7945,28.8066,146.811,98.818,99.0028,0.0138272,0.0695573,20.9188,148.202,-0.0181329,0.0,0.0
2494,623.25,27.5564,27.8316,147.504,98.9404,99.1089,0.0141512,0.0716081,20.9213,148.213,-0.0165152,0.0,0.0
2523,630.5,27.0575,27.4386,147.053,99.1002,99.3786,0.0147804,0.0706521,20.9205,148.152,-0.0272281,0.0,0.0
2552,637.75,26.715,26.7543,148.069,99.3068,99.4113,0.0148981,0.0703736,20.9213,148.062,-0.0102087,0.0,0.0
2581,645,26.4557,26.548,145.084,99.5423,99.6696,0.0153065,0.0703957,20.9211,148.052,-0.0124006,0.0,0.0
2610,652.25,25.6743,25.585,149.887,99.7619,99.8871,0.0154296,0.0706929,20.9205,148.002,-0.0121723,0.0,0.0
2639,659.5,25.5277,25.2596,147.836,99.9323,100.044,0.0156769,0.070698,20.921,147.932,-0.0108481,0.0,0.0
2668,666.75,24.5214,24.9306,148.038,100.061,100.234,0.0159029,0.0713511,20.9181,147.862,-0.0168027,0.0,0.0
2697,674,24.3068,24.2446,144.661,100.077,100.263,0.0160073,0.0717199,20.9185,147.802,-0.01809,0.0,0.0
2724,680.75,24.109,24.112,146.679,100.024,100.258,0.0158412,0.0713441,20.9196,147.802,-0.0226635,0.0,0.0