File: 01_Data/Masonite_Board/Cone/Masonite_Board_HRRPUA_25.csv
Time after Ignition,Masonite_Board_R1,Masonite_Board_R2,Masonite_Board_R3,Mean,Std. Dev.
0.0,-0.8,2.1,13.8,5.1,7.7
0.75,-0.8,2.3,13.4,5.0,7.5
1.5,-0.8,2.3,13.1,4.9,7.3
2.25,-0.7,2.4,12.9,4.9,7.1
3.0,-0.4,2.4,12.6,4.9,6.8
3.75,-0.2,2.4,11.9,4.7,6.4
4.5,-0.0,2.4,11.6,4.7,6.1
5.25,0.1,2.5,11.4,4.6,5.9
6.0,0.2,2.5,11.1,4.6,5.8
6.75,0.2,2.4,11.0,4.5,5.7
7.5,0.6,2.8,10.8,4.7,5.4
8.25,1.1,3.1,10.4,4.9,4.9
9.0,1.5,3.3,10.1,5.0,4.5
9.75,2.6,3.4,9.8,5.3,4.0
10.5,3.3,4.2,9.6,5.7,3.4
11.25,5.4,5.6,10.6,7.2,3.0
12.0,7.0,8.1,14.1,9.7,3.8
12.75,11.3,12.1,18.3,13.9,3.8
13.5,16.1,19.6,27.8,21.2,6.0
14.25,22.5,30.5,41.8,31.6,9.7
15.0,32.9,44.5,54.2,43.9,10.6
15.75,46.6,57.0,69.1,57.6,11.3
16.5,59.0,73.2,79.1,70.5,10.3
17.25,72.8,85.1,92.2,83.4,9.8
18.0,86.6,96.9,104.2,95.9,8.8
18.75,97.8,108.2,121.7,109.2,12.0
19.5,109.3,117.7,133.1,120.0,12.1
20.25,122.9,129.6,143.7,132.1,10.6
21.0,128.8,137.0,157.1,141.0,14.5
21.75,144.0,148.6,163.5,152.1,10.2
22.5,155.7,157.7,173.0,162.1,9.5
23.25,162.0,170.5,177.7,170.1,7.8
24.0,177.1,183.2,186.4,182.2,4.7
24.75,187.7,181.4,193.3,187.5,6.0
25.5,200.9,193.1,195.7,196.6,4.0
26.25,207.5,193.0,209.5,203.3,9.0
27.0,212.2,202.6,207.7,207.5,4.8
27.75,219.0,202.9,215.8,212.6,8.5
28.5,223.2,210.6,221.9,218.6,6.9
29.25,224.5,217.1,221.8,221.1,3.7
30.0,237.1,225.4,227.8,230.1,6.2
30.75,242.2,225.1,232.6,233.3,8.6
31.5,242.6,234.1,233.8,236.8,4.9
32.25,244.1,233.4,236.2,237.9,5.6
33.0,249.6,239.1,241.2,243.3,5.6
33.75,245.7,237.4,244.6,242.5,4.5
34.5,256.1,236.8,245.4,246.1,9.7
35.25,259.0,244.2,250.9,251.4,7.4
36.0,254.0,240.8,251.5,248.8,7.0
36.75,260.8,243.5,251.7,252.0,8.7
37.5,260.8,253.3,263.2,259.1,5.2
38.25,266.0,251.2,267.2,261.5,8.9
39.0,264.7,256.3,264.0,261.7,4.7
39.75,263.5,261.7,265.4,263.5,1.8
40.5,277.0,263.8,269.5,270.1,6.6
41.25,273.4,263.7,276.8,271.3,6.8
42.0,274.0,267.5,274.5,272.0,3.9
42.75,289.0,271.9,276.8,279.2,8.8
43.5,283.0,273.3,287.6,281.3,7.3
44.25,283.8,271.9,286.3,280.7,7.7
45.0,292.1,271.8,296.4,286.8,13.1
45.75,288.0,275.4,297.4,286.9,11.0
46.5,296.6,270.5,295.5,287.6,14.8
47.25,295.9,280.8,304.5,293.7,12.0
48.0,302.8,287.6,300.4,296.9,8.2
48.75,303.1,289.7,298.2,297.0,6.8
49.5,302.7,293.5,311.3,302.5,8.9
50.25,311.4,295.1,310.8,305.8,9.2
51.0,306.7,303.9,309.1,306.6,2.6
51.75,318.7,296.7,318.7,311.4,12.7
52.5,317.1,299.0,319.6,311.9,11.3
53.25,315.9,304.9,325.1,315.3,10.1
54.0,329.5,304.0,317.7,317.1,12.8
54.75,327.9,311.4,330.5,323.3,10.3
55.5,316.5,310.0,319.3,315.3,4.8
56.25,327.4,314.1,328.4,323.3,8.0
57.0,331.2,314.8,341.5,329.2,13.4
57.75,332.5,320.3,334.1,329.0,7.6
58.5,340.3,319.4,342.6,334.1,12.8
59.25,336.9,326.3,347.6,336.9,10.7
60.0,346.2,333.1,343.8,341.0,7.0
60.75,331.3,329.8,353.9,338.3,13.5
61.5,339.7,329.1,349.7,339.5,10.3
62.25,351.5,321.7,356.1,343.1,18.7
63.0,357.9,337.0,347.1,347.3,10.4
63.75,348.8,342.8,360.8,350.8,9.1
64.5,349.9,345.0,369.1,354.7,12.7
65.25,366.8,344.3,363.9,358.3,12.2
66.0,367.0,348.6,378.7,364.8,15.1
66.75,372.3,361.7,370.5,368.2,5.7
67.5,375.3,348.9,374.5,366.2,15.0
68.25,376.1,352.9,388.2,372.4,17.9
69.0,379.1,364.8,382.4,375.5,9.4
69.75,384.2,359.9,387.3,377.1,15.0
70.5,386.1,370.1,386.8,381.0,9.5
71.25,387.3,357.2,399.3,381.3,21.7
72.0,391.2,375.5,401.3,389.3,13.0
72.75,386.4,377.4,404.4,389.4,13.8
73.5,399.8,374.5,405.8,393.4,16.6
74.25,403.1,376.8,407.6,395.8,16.7
75.0,411.2,373.6,408.2,397.6,20.9
75.75,400.6,376.5,405.3,394.2,15.4
76.5,398.6,389.4,415.2,401.1,13.1
77.25,404.4,383.6,423.3,403.8,19.8
78.0,403.4,387.0,421.4,403.9,17.2
78.75,411.6,388.3,424.9,408.3,18.5
79.5,411.8,387.3,427.8,409.0,20.4
80.25,416.9,384.5,420.7,407.4,19.9
81.0,410.2,392.4,428.9,410.5,18.2
81.75,424.0,387.4,428.1,413.2,22.4
82.5,415.3,404.8,431.2,417.1,13.3
83.25,414.3,397.2,446.1,419.2,24.8
84.0,416.4,410.4,435.0,420.6,12.8
84.75,413.9,408.1,440.5,420.8,17.2
85.5,427.0,418.4,440.1,428.5,10.9
86.25,424.3,412.4,444.0,426.9,16.0
87.0,438.3,405.4,448.6,430.8,22.6
87.75,421.1,412.2,438.2,423.8,13.2
88.5,440.5,411.5,426.9,426.3,14.5
89.25,428.7,423.8,448.0,433.5,12.8
90.0,436.6,416.5,441.9,431.7,13.4
90.75,434.8,421.6,443.6,433.3,11.1
91.5,432.3,419.9,453.2,435.1,16.9
92.25,436.3,436.5,454.3,442.3,10.3
93.0,439.1,434.2,444.8,439.4,5.3
93.75,432.8,435.3,443.5,437.2,5.6
94.5,438.9,444.2,436.8,440.0,3.8
95.25,445.9,438.5,451.2,445.2,6.4
96.0,440.7,437.9,449.8,442.8,6.2
96.75,450.4,426.7,449.3,442.2,13.4
97.5,443.5,438.3,439.2,440.3,2.8
98.25,443.6,440.2,439.4,441.1,2.3
99.0,446.4,440.8,456.1,447.8,7.8
99.75,428.1,454.5,468.5,450.4,20.6
100.5,451.9,440.1,447.8,446.6,6.0
101.25,448.9,445.6,451.1,448.6,2.8
102.0,435.8,439.2,446.4,440.4,5.4
102.75,444.2,438.0,452.7,444.9,7.3
103.5,438.0,438.9,445.9,440.9,4.3
104.25,441.9,447.7,453.6,447.7,5.8
105.0,442.9,451.6,442.9,445.8,5.0
105.75,440.3,443.7,436.4,440.1,3.7
106.5,443.6,452.4,445.5,447.2,4.6
107.25,434.5,455.2,437.5,442.4,11.2
108.0,428.6,447.5,436.5,437.5,9.5
108.75,429.8,445.9,433.1,436.3,8.5
109.5,422.3,438.3,436.5,432.4,8.7
110.25,431.1,437.4,430.8,433.1,3.7
111.0,422.8,441.1,419.5,427.8,11.6
111.75,422.3,440.1,425.1,429.1,9.6
112.5,416.6,443.3,420.7,426.9,14.4
113.25,414.4,440.5,413.7,422.9,15.3
114.0,406.9,427.3,416.2,416.8,10.2
114.75,411.2,428.9,415.3,418.4,9.2
115.5,410.0,429.7,407.4,415.7,12.2
116.25,400.2,430.0,399.9,410.0,17.3
117.0,396.4,411.7,399.4,402.5,8.1
117.75,394.7,411.2,398.4,401.5,8.6
118.5,393.6,417.2,390.3,400.4,14.6
119.25,375.3,407.2,397.6,393.3,16.4
120.0,388.7,401.7,385.2,391.9,8.7
120.75,376.8,395.1,384.0,385.3,9.2
121.5,369.5,394.8,386.7,383.7,12.9
122.25,365.4,389.2,382.6,379.1,12.3
123.0,364.6,387.0,383.4,378.3,12.0
123.75,365.2,379.8,378.6,374.5,8.1
124.5,362.8,384.1,377.0,374.6,10.8
125.25,360.3,376.0,366.4,367.6,7.9
126.0,368.7,386.4,369.3,374.8,10.0
126.75,361.4,387.7,369.5,372.9,13.5
127.5,369.0,371.6,375.9,372.2,3.5
128.25,363.4,377.3,371.8,370.8,7.0
129.0,373.7,370.0,366.6,370.1,3.5
129.75,373.0,381.1,366.6,373.6,7.2
130.5,377.4,377.1,371.5,375.3,3.3
131.25,377.2,378.5,367.1,374.3,6.3
132.0,377.4,378.3,361.4,372.4,9.5
132.75,383.4,382.1,365.0,376.8,10.3
133.5,380.5,389.4,359.0,376.3,15.6
134.25,377.9,384.9,350.3,371.0,18.3
135.0,374.3,383.2,350.3,369.3,17.0
135.75,366.6,384.6,347.3,366.2,18.7
136.5,361.1,371.9,334.6,355.9,19.2
137.25,354.1,368.5,331.0,351.2,18.9
138.0,342.9,355.8,318.4,339.0,19.0
138.75,329.2,353.1,309.1,330.5,22.0
139.5,312.6,341.5,302.6,318.9,20.2
140.25,297.8,329.4,280.9,302.7,24.7
141.0,282.2,318.9,264.9,288.7,27.6
141.75,260.0,306.6,247.0,271.2,31.3
142.5,240.2,289.0,233.4,254.2,30.3
143.25,219.7,270.4,221.0,237.0,28.9
144.0,201.7,261.2,205.8,222.9,33.2
144.75,185.7,239.3,192.7,205.9,29.1
145.5,164.3,223.2,178.1,188.5,30.8
146.25,151.4,213.0,166.5,177.0,32.1
147.0,138.3,195.4,153.2,162.3,29.6
147.75,122.3,187.4,145.9,151.9,32.9
148.5,111.8,171.8,136.3,140.0,30.1
149.25,102.5,153.1,128.1,127.9,25.3
150.0,91.5,141.8,121.5,118.2,25.3
150.75,82.8,130.4,113.1,108.7,24.1
151.5,78.8,119.4,107.6,102.0,20.9
152.25,73.2,111.8,100.3,95.1,19.8
153.0,69.6,100.3,91.9,87.3,15.8
153.75,65.5,92.4,84.9,80.9,13.9
154.5,62.9,84.4,79.2,75.5,11.2
155.25,60.2,78.8,74.5,71.1,9.7
155.5,59.2,75.3,71.4,68.6,8.4