File: 01_Data/Masonite_Board/Cone/Masonite_Cone_HF75Scan_230106_R2.csv
Names,Time,Stack TC,Smoke TC,Exh Press,Smoke Comp,Smoke Meas,CO Meter,CO2 Meter,O2 Meter,Sample Mass,Ext Coeff,Start Test,Flame Verif
Chan Gain,,500,500,1,1,1,1,1,1,1,1,1.0,1.0
Offset,,0,0,0.303564,0,0,0,0,0,0,0,0.0,0.0
Gain,,1,1,25.011,13.3148,15.9078,1,1,1,1.00088,1.03447,1.0,1.0
Units,sec,C,C,Pa,%,%,%,%,%,g,/m,,
Baseline,,50.0473,53.0334,141.151,100.223,100.199,0.000591831,0.0476297,20.9617,-448.15,0.00210492,,
11,2.5,46.4553,48.649,137.034,100.342,100.203,0.000426518,0.0473134,20.9619,175.944,0.0125525,0.0,0.0
22,5.25,46.4554,48.9071,140.899,100.385,100.278,0.000306921,0.0487691,20.9612,175.924,0.00967104,0.0,0.0
33,8,47.2525,48.9914,140.774,100.416,100.35,0.000336426,0.0499002,20.959,175.854,0.00600061,0.0,0.0
44,10.75,47.3249,49.9118,145.832,100.439,99.344,0.000473353,0.0515744,20.9557,175.704,0.0994365,0.0,0.0
55,13.5,47.1617,49.9025,135.767,100.479,98.8314,0.000551693,0.0528319,20.9535,175.504,0.15002,0.0,0.0
66,16.25,47.3134,50.4234,139.043,100.528,97.8808,0.000527643,0.0530646,20.9512,175.474,0.242155,0.0,0.0
77,19,47.6413,50.1038,143.834,100.567,96.7143,0.000300212,0.0554276,20.9504,175.384,0.354477,0.0,0.0
88,21.75,47.9236,51.3565,137.439,100.591,100.247,0.000243272,0.0618912,20.949,175.053,0.0310944,0.0,1.0
99,24.5,48.5013,53.13,128.661,100.611,98.6726,0.000641944,0.0682343,20.9406,174.613,0.176561,0.0,1.0
110,27.25,51.0366,55.8786,125.14,100.643,98.3712,0.00108599,0.071374,20.9328,174.132,0.207187,0.0,0.0
121,30,53.823,59.4076,123.654,100.679,98.0163,0.00144783,0.106928,20.9296,173.582,0.243205,0.0,0.0
132,32.75,56.2868,63.8249,119.815,100.708,97.4997,0.00174081,0.19932,20.9026,173.032,0.293826,0.0,0.0
143,35.5,59.3464,67.8683,119.075,100.73,97.5284,0.0022485,0.321981,20.7721,172.341,0.293138,0.0,0.0
154,38.25,62.6954,72.7106,116.649,100.744,96.7662,0.00287903,0.400472,20.6393,171.69,0.36554,0.0,0.0
165,41,65.7881,76.4957,114.64,100.766,96.1264,0.00369269,0.476014,20.541,171.02,0.427716,0.0,0.0
176,43.75,68.749,81.2061,114.318,100.786,95.7001,0.00431835,0.549815,20.4593,170.319,0.469873,0.0,0.0
187,46.5,71.7276,85.1691,114.935,100.821,94.853,0.00463157,0.622142,20.3762,169.619,0.553702,0.0,0.0
198,49.25,74.8016,88.5652,108.104,100.819,94.4117,0.00487414,0.68738,20.29,168.828,0.595799,0.0,0.0
209,52,78.2728,93.2651,99.6355,100.841,92.429,0.005189,0.744215,20.2054,168.047,0.7904,0.0,0.0
220,54.75,81.3314,96.9882,107.495,100.864,94.1122,0.00557247,0.799171,20.1397,167.246,0.628766,0.0,0.0
231,57.5,83.8172,100.808,110.95,100.888,93.1844,0.00586891,0.858877,20.0715,166.486,0.720745,0.0,0.0
242,60.25,87.2433,104.179,103.695,100.906,92.4009,0.00635941,0.913867,20.0051,165.865,0.799013,0.0,0.0
253,63,90.3741,109.081,98.1166,100.906,90.5144,0.00696889,0.963878,19.9393,164.824,0.986234,0.0,0.0
264,65.75,93.7321,112.592,103.41,100.906,87.889,0.00734546,1.01677,19.8769,163.884,1.25333,0.0,0.0
275,68.5,96.2549,115.94,110.924,100.929,90.6862,0.00771979,1.07118,19.8266,162.943,0.971105,0.0,0.0
286,71.25,99.1732,119.963,97.5953,100.946,90.0318,0.00808794,1.13601,19.7643,162.022,1.03832,0.0,0.0
297,74,102.404,124.067,100.306,100.947,91.5135,0.00842673,1.20181,19.6851,161.031,0.890275,0.0,0.0
308,76.75,105.315,127.972,112.248,100.933,89.7148,0.00884299,1.26384,19.6126,159.99,1.06912,0.0,0.0
319,79.5,108.034,131.055,102.909,100.928,88.2123,0.00920218,1.33048,19.5353,158.869,1.22195,0.0,0.0
330,82.25,110.833,134.636,101.624,100.914,90.6493,0.00976748,1.40071,19.4682,157.788,0.973446,0.0,0.0
341,85,113.949,137.562,104.046,100.912,89.0696,0.010596,1.45925,19.3856,156.807,1.13276,0.0,0.0
352,87.75,116.687,140.807,97.8426,100.875,89.8119,0.0108237,1.50484,19.3081,155.686,1.05408,0.0,0.0
363,90.5,118.408,143.794,104.449,100.822,86.1937,0.0110855,1.55077,19.2635,154.575,1.4225,0.0,0.0
374,93.25,119.868,145.513,100.518,100.778,88.5026,0.0114536,1.60026,19.2163,153.504,1.17861,0.0,0.0
385,96,121.77,146.856,102.544,100.633,88.6312,0.0124142,1.62903,19.127,151.743,1.15243,0.0,0.0
396,98.75,123.769,147.883,110.123,100.47,88.3142,0.0125377,1.60509,19.1245,150.212,1.17016,0.0,0.0
407,101.5,123.856,146.937,110.131,100.302,90.4367,0.0121423,1.55596,19.1679,148.88,0.939525,0.0,0.0
418,104.25,123.76,146.744,100.168,100.166,89.8143,0.011936,1.52981,19.2048,148.02,0.989903,0.0,0.0
429,107,124.502,146.428,108.711,100.001,90.5352,0.0118314,1.49482,19.2275,147.229,0.902362,0.0,0.0
440,109.75,122.65,144.137,120.101,99.8454,92.2101,0.0118054,1.44746,19.2628,146.718,0.721892,0.0,0.0
451,112.5,119.77,139.542,123.918,99.6934,97.2318,0.0113014,1.40237,19.3115,146.418,0.226878,0.0,0.0
462,115.25,115.177,133.322,131.927,99.5723,100.119,0.0104668,1.31677,19.3731,146.298,-0.0497122,0.0,0.0
473,118,111.007,126.942,135.638,99.463,100.044,0.00978187,1.14504,19.462,146.198,-0.0528121,0.0,0.0
484,120.75,107.248,120.658,128.645,99.3761,100.932,0.00867782,0.878777,19.6116,146.108,-0.141018,0.0,0.0
495,123.5,102.976,115.445,135.798,99.3245,100.93,0.00691122,0.591623,19.9921,146.108,-0.14547,0.0,0.0
506,126.25,100.073,110.875,133.833,99.3062,100.383,0.00533743,0.393724,20.325,146.078,-0.0979042,0.0,0.0
517,129,95.3412,104.971,132.914,99.2765,100.444,0.00436505,0.270221,20.567,145.998,-0.106099,0.0,0.0
528,131.75,91.9864,101.343,136.363,99.2826,100.113,0.00381762,0.206862,20.7054,145.928,-0.0756252,0.0,0.0
539,134.5,89.6391,97.6094,136.654,99.3212,100.529,0.00340701,0.169117,20.7728,145.868,-0.109686,0.0,0.0
550,137.25,86.9071,94.7123,137.021,99.383,100.554,0.00326229,0.149091,20.8141,145.838,-0.106324,0.0,0.0
561,140,85.6216,91.809,136.403,99.463,100.093,0.00331927,0.138339,20.8345,145.838,-0.0572584,0.0,0.0
572,142.75,82.9052,89.8124,134.416,99.5345,100.587,0.00335339,0.131467,20.8446,145.808,-0.0954738,0.0,0.0
583,145.5,81.2205,87.4181,132.582,99.626,100.685,0.00341213,0.127327,20.8527,145.738,-0.0959417,0.0,0.0
594,148.25,79.7664,85.5294,135.508,99.706,100.226,0.00349356,0.124187,20.8569,145.607,-0.0472125,0.0,0.0
605,151,78.3907,83.1873,141.451,99.8031,100.48,0.00380394,0.121731,20.86,145.658,-0.0612931,0.0,0.0
616,153.75,76.3318,81.7155,135.68,99.8722,100.628,0.00420588,0.120631,20.8628,145.718,-0.0684201,0.0,0.0
627,156.5,75.1566,80.0422,138.169,99.9222,100.913,0.00446085,0.119245,20.8642,145.527,-0.0894982,0.0,0.0
638,159.25,74.4644,78.736,135.487,99.9888,101.129,0.00442999,0.117805,20.8665,145.487,-0.102897,0.0,0.0
649,162,73.0895,77.4896,135.295,100.04,100.924,0.00442034,0.116855,20.8679,145.517,-0.0798143,0.0,0.0
660,164.75,71.834,76.2865,136.401,100.117,101.017,0.00438059,0.116701,20.8693,145.537,-0.0812211,0.0,0.0
671,167.5,70.6627,75.332,135.064,100.132,101.078,0.00438242,0.116612,20.8698,145.397,-0.0853074,0.0,0.0
682,170.25,69.7617,74.0916,135.335,100.161,100.877,0.00444988,0.115708,20.8699,145.447,-0.0646759,0.0,0.0
693,173,69.399,73.3845,133.055,100.212,101.089,0.00459539,0.11458,20.872,145.387,-0.0791022,0.0,0.0
704,175.75,68.602,72.537,134.551,100.255,101.335,0.00458486,0.114233,20.8739,145.347,-0.0972706,0.0,0.0
715,178.5,68.2008,71.7721,139.268,100.284,101.253,0.00469779,0.114752,20.8744,145.347,-0.0873097,0.0,0.0
726,181.25,67.4098,70.7677,136.354,100.287,101.382,0.00492408,0.114787,20.8755,145.297,-0.0985314,0.0,0.0
737,184,66.6475,70.2516,133.76,100.321,101.091,0.00493695,0.113941,20.8758,145.167,-0.0693411,0.0,0.0
748,186.75,65.9997,69.5401,137.241,100.337,100.994,0.00475097,0.114091,20.8774,145.187,-0.0592317,0.0,0.0
759,189.5,65.5438,68.7732,136.335,100.371,101.257,0.0046752,0.11438,20.877,145.207,-0.0797123,0.0,0.0
770,192.25,65.1125,68.4647,137.79,100.383,101.17,0.00475602,0.114749,20.8763,145.147,-0.0708929,0.0,0.0
781,195,64.501,67.8893,135.15,100.383,101.242,0.00502467,0.114807,20.8761,145.047,-0.0772616,0.0,0.0
792,197.75,64.1835,67.3797,136.692,100.403,101.14,0.00521916,0.114705,20.876,145.027,-0.0664001,0.0,0.0
803,200.5,63.5623,67.0565,137.027,100.398,101.008,0.00524898,0.114578,20.876,145.017,-0.0549792,0.0,0.0
814,203.25,63.6401,66.1883,137.144,100.417,101.076,0.00530546,0.11486,20.876,145.007,-0.059364,0.0,0.0
825,206,62.774,65.7927,137.279,100.421,100.933,0.00527896,0.115636,20.8765,144.967,-0.04621,0.0,0.0
836,208.75,62.4204,65.3925,135.123,100.414,101.029,0.00525817,0.115488,20.8756,144.907,-0.0553852,0.0,0.0
847,211.5,62.4314,65.5022,136.494,100.439,100.907,0.00528816,0.114979,20.8763,144.847,-0.0421201,0.0,0.0
858,214.25,61.6402,65.1774,136.238,100.423,101.142,0.00517471,0.114837,20.8763,144.777,-0.0647314,0.0,0.0
869,217,61.6407,64.6625,139.069,100.439,101.452,0.00515634,0.115022,20.8761,144.767,-0.0910961,0.0,0.0
880,219.75,61.6913,64.3643,136.14,100.425,101.433,0.00527175,0.114311,20.876,144.707,-0.0906071,0.0,0.0
891,222.5,60.8469,63.8951,137.151,100.422,100.731,0.00527335,0.113724,20.8773,144.717,-0.027889,0.0,0.0
902,225.25,60.7902,64.0933,140.913,100.431,101.257,0.00528302,0.113162,20.878,144.677,-0.0743202,0.0,0.0
913,228,61.0076,63.8627,137.554,100.413,101.038,0.0053821,0.113023,20.879,144.657,-0.0562869,0.0,0.0
924,230.75,60.2467,63.5141,139.289,100.422,100.858,0.0054663,0.112769,20.8807,144.587,-0.0392525,0.0,0.0
935,233.5,60.3713,62.7839,132.098,100.41,100.774,0.0054417,0.113455,20.8816,144.517,-0.0327938,0.0,0.0
946,236.25,60.6908,63.1088,140.511,100.397,101.024,0.00531409,0.113186,20.8819,144.436,-0.056454,0.0,0.0
957,239,59.583,62.8795,139.494,100.383,101.132,0.00521925,0.113468,20.882,144.487,-0.0674223,0.0,0.0
968,241.75,59.5506,62.2222,135.874,100.394,100.99,0.00533261,0.113776,20.882,144.547,-0.0536587,0.0,0.0
979,244.5,59.1465,62.3465,135.026,100.366,100.835,0.00537352,0.113838,20.882,144.406,-0.0423847,0.0,0.0
990,247.25,59.3565,62.3366,141.516,100.335,100.857,0.00528934,0.11465,20.882,144.426,-0.0471065,0.0,0.0