File: 01_Data/Masonite_Board/Cone/Masonite_Cone_HF25Scan_230106_R1.csv
Names,Time,Stack TC,Smoke TC,Exh Press,Smoke Comp,Smoke Meas,CO Meter,CO2 Meter,O2 Meter,Sample Mass,Ext Coeff,Start Test,Flame Verif
Chan Gain,,500,500,1,1,1,1,1,1,1,1,1.0,1.0
Offset,,0,0,0.303564,0,0,0,0,0,0,0,0.0,0.0
Gain,,1,1,25.011,13.2951,15.9845,1,1,1,1.00088,1.03447,1.0,1.0
Units,sec,C,C,Pa,%,%,%,%,%,g,/m,,
Baseline,,23.4813,24.5364,155.15,99.7912,99.8051,0.000748472,0.0499833,20.9606,-443.801,-0.00126491,,
18,4.25,21.0575,22.0553,155.471,100.578,100.535,0.00104624,0.0644914,20.9385,177.135,0.00388695,0.0,0.0
36,8.75,21.3355,22.368,156.041,100.571,100.381,0.000854488,0.0566779,20.9433,177.095,0.0171899,0.0,0.0
54,13.25,21.8131,22.9396,150.27,100.561,100.386,0.000884274,0.0510883,20.952,176.985,0.0158251,0.0,0.0
72,17.75,21.891,22.7086,152.264,100.553,100.452,0.000723868,0.0495377,20.9578,176.995,0.00910587,0.0,0.0
90,22.25,21.3689,22.5733,155.584,100.565,100.527,0.000517029,0.0501109,20.9592,176.945,0.00345659,0.0,0.0
108,26.75,21.4554,23.5031,151.447,100.554,100.253,0.00072211,0.0551948,20.9577,176.865,0.0272115,0.0,0.0
126,31.25,22.2021,23.3512,158.234,100.548,100.201,0.00100202,0.0557962,20.9542,176.845,0.0313811,0.0,0.0
144,35.75,22.4928,23.1792,151.868,100.533,100.346,0.00125533,0.0520376,20.9536,176.735,0.0168422,0.0,0.0
162,40.25,22.1343,23.5924,154.495,100.528,100.024,0.00105446,0.0504672,20.9571,176.705,0.0455642,0.0,0.0
180,44.75,22.4946,23.5721,159.137,100.48,100.107,0.00052745,0.0503905,20.959,176.575,0.033802,0.0,0.0
198,49.25,22.784,23.5783,154.85,100.414,100.136,0.000690675,0.0492936,20.9595,176.535,0.0252117,0.0,0.0
216,53.75,22.6658,23.6321,155.18,100.321,99.7671,0.000756064,0.04864,20.959,176.445,0.0502192,0.0,0.0
234,58.25,22.8606,23.4631,151.224,100.206,99.452,0.000528844,0.048311,20.9605,176.244,0.068534,0.0,0.0
252,62.75,22.8024,24.091,156.561,100.036,99.1642,0.000595666,0.0484751,20.961,176.164,0.0794245,0.0,0.0
270,67.25,22.6943,23.5936,150.934,99.8452,99.1334,0.000835438,0.0487304,20.9594,175.954,0.0649217,0.0,0.0
288,71.75,22.3565,23.8143,155.013,99.7308,99.0261,0.000772736,0.0488473,20.959,175.894,0.0643471,0.0,0.0
306,76.25,23.0951,23.9439,156.625,99.6748,98.9427,0.000625634,0.0494912,20.9597,175.674,0.0668977,0.0,0.0
324,80.75,22.9231,23.7568,155.829,99.8963,99.2564,0.000501297,0.0495605,20.9598,175.574,0.0583226,0.0,0.0
342,85.25,22.8924,23.8357,157.724,100.017,99.2047,0.000542096,0.0491413,20.9592,175.484,0.0740271,0.0,0.0
360,89.75,22.632,23.8813,152.468,100.062,99.5086,0.00084037,0.048728,20.959,175.354,0.0503192,0.0,0.0
378,94.25,22.721,24.1356,154.564,100.097,99.4207,0.00111246,0.0488035,20.96,175.263,0.0614938,0.0,0.0
396,98.75,22.7458,23.8595,154.674,100.087,99.3017,0.00115343,0.049139,20.9603,175.083,0.0714816,0.0,0.0
414,103.25,23.0276,23.7137,151.807,100.081,99.4276,0.000917671,0.049233,20.9603,175.033,0.059436,0.0,0.0
432,107.75,22.5293,23.7193,150.065,100.045,99.129,0.000838994,0.0501769,20.9603,174.933,0.0834491,0.0,0.0
450,112.25,22.5713,23.9317,156.896,100.034,99.1086,0.000855961,0.0525864,20.9593,174.903,0.0843301,0.0,0.0
468,116.75,22.8842,23.9766,154.395,100.024,99.0212,0.000977603,0.0516777,20.9563,174.773,0.0914458,0.0,0.0
486,121.25,22.8508,24.0023,153.502,100.015,99.0817,0.000905454,0.0499969,20.9577,174.663,0.0850943,0.0,0.0
504,125.75,22.6308,23.7949,152.502,100.021,98.7988,0.00100215,0.0492371,20.9598,174.673,0.111522,0.0,0.0
522,130.25,22.4521,23.7577,155.286,100.015,98.8232,0.0012819,0.0490571,20.9602,174.623,0.108766,0.0,0.0
540,134.75,22.957,23.9445,154.943,100.027,98.2783,0.00130124,0.0487822,20.9603,174.563,0.160042,0.0,0.0
558,139.25,23.0643,24.7404,154.469,100.029,98.091,0.000937817,0.0487009,20.9609,174.443,0.177502,0.0,0.0
576,143.75,22.8112,23.7623,152.137,100.056,97.6993,0.00116287,0.048984,20.9613,174.433,0.216277,0.0,0.0
594,148.25,22.9031,24.5992,152.908,100.042,98.6285,0.00124736,0.0508138,20.9619,174.303,0.129122,0.0,0.0
612,152.75,23.937,25.3475,142.543,100.095,99.5949,0.00139741,0.0523316,20.9609,174.072,0.0454286,0.0,1.0
630,157.25,24.4582,27.5153,143.861,100.094,98.7944,0.00170027,0.0636763,20.9585,173.652,0.118547,0.0,0.0
648,161.75,27.1524,31.7341,135.751,100.104,97.8959,0.00205153,0.156981,20.9384,172.991,0.20245,0.0,0.0
666,166.25,31.0273,37.0524,132.404,100.116,98.3076,0.00232332,0.291435,20.8142,172.351,0.165396,0.0,0.0
684,170.75,35.3862,41.6187,140.819,100.096,98.3427,0.00284431,0.398354,20.6769,171.58,0.160391,0.0,0.0
702,175.25,38.1407,45.8098,136.26,100.098,98.2378,0.0034124,0.467442,20.5422,170.86,0.170221,0.0,0.0
720,179.75,41.1704,50.1928,136.871,100.046,97.7837,0.00351427,0.505193,20.4703,170.009,0.207558,0.0,0.0
738,184.25,43.9015,52.912,134.885,99.9978,97.7159,0.00360898,0.534772,20.4298,169.238,0.209473,0.0,0.0
756,188.75,47.1117,56.8567,124.472,99.9195,97.8759,0.00373536,0.565257,20.3953,168.407,0.187519,0.0,0.0
774,193.25,50.0045,60.614,127.327,99.7945,96.9329,0.00394755,0.598954,20.3553,167.507,0.264007,0.0,0.0
792,197.75,52.4537,63.9741,128.878,99.6748,96.9983,0.00438061,0.634724,20.3151,166.566,0.247,0.0,0.0
810,202.25,55.6732,67.6968,123.724,99.7328,96.608,0.00444487,0.674659,20.2703,165.585,0.288863,0.0,0.0
828,206.75,59.1842,71.1289,123.314,99.8335,96.2758,0.00451718,0.710065,20.2283,164.574,0.32927,0.0,0.0
846,211.25,61.8567,75.1672,124.869,99.9264,95.7383,0.00470276,0.751958,20.1875,163.483,0.38852,0.0,0.0
864,215.75,64.456,78.5913,124.041,100.036,96.4568,0.00505767,0.793576,20.1351,162.452,0.330576,0.0,0.0
882,220.25,66.9207,81.0082,122.104,100.154,95.4719,0.00538097,0.822318,20.0911,161.261,0.43441,0.0,0.0
900,224.75,69.1994,84.6854,121.972,100.285,95.528,0.00566315,0.852935,20.0572,160.19,0.440982,0.0,0.0
918,229.25,71.8363,86.226,124.084,100.397,95.3193,0.00609406,0.877484,20.0244,159.059,0.470927,0.0,0.0
936,233.75,73.5361,89.0722,116.524,100.49,94.5788,0.0059961,0.899081,19.9985,157.908,0.550164,0.0,0.0
954,238.25,75.9558,90.9832,119.212,100.551,94.4339,0.00642703,0.912169,19.9715,156.757,0.569532,0.0,0.0
972,242.75,76.685,92.0427,118.073,100.563,94.3792,0.00661685,0.913842,19.9559,155.606,0.575881,0.0,0.0
990,247.25,77.6846,92.5665,123.566,100.542,94.4071,0.00674186,0.904535,19.9525,154.595,0.571342,0.0,0.0
1008,251.75,77.9304,92.8747,126.2,100.473,93.9778,0.0070435,0.887016,19.9617,153.534,0.606433,0.0,0.0
1026,256.25,78.2296,91.2673,125.807,100.341,92.387,0.00697031,0.856329,19.9818,152.634,0.74943,0.0,0.0
1044,260.75,76.667,89.9376,129.154,100.198,92.0387,0.00697002,0.810269,20.0246,151.693,0.77078,0.0,0.0
1062,265.25,75.8052,87.6851,130.178,100.023,94.37,0.00752962,0.756915,20.079,150.752,0.527876,0.0,0.0
1080,269.75,74.1398,85.7052,131.425,99.8326,94.7846,0.00850411,0.716165,20.1374,149.821,0.470849,0.0,0.0
1098,274.25,73.3489,84.2088,131.45,99.6793,93.5612,0.00873513,0.710742,20.1749,149.061,0.574787,0.0,0.0
1116,278.75,71.5508,80.7048,141.487,99.5129,96.7622,0.0097777,0.707153,20.1786,148.58,0.254364,0.0,0.0
1134,283.25,67.6456,75.1958,146.163,99.3673,99.7051,0.0107861,0.631942,20.1858,148.26,-0.0308029,0.0,0.0
1152,287.75,63.6057,68.9841,148.977,99.2147,99.7198,0.00843961,0.450735,20.2974,148.22,-0.0460763,0.0,0.0
1170,292.25,59.3704,64.2115,148.455,99.0906,99.6817,0.00562606,0.268782,20.5218,148.06,-0.0539764,0.0,0.0
1188,296.75,56.5621,59.8647,144.251,98.994,99.7715,0.00602163,0.172391,20.7147,148.06,-0.0709911,0.0,0.0
1206,301.25,53.2584,56.1216,148.519,98.9076,99.411,0.00801218,0.135257,20.8167,147.95,-0.0460692,0.0,0.0
1224,305.75,48.6799,51.0485,150.828,98.8508,99.4525,0.0111406,0.11537,20.8507,147.95,-0.0550663,0.0,0.0
1242,310.25,46.2914,48.0129,156.016,98.8142,99.5251,0.0138294,0.101492,20.8726,147.879,-0.065049,0.0,0.0
1260,314.75,44.5899,45.801,152.523,98.7895,99.5315,0.0168385,0.0914732,20.8869,147.849,-0.0679002,0.0,0.0
1278,319.25,42.7525,44.0653,147.849,98.8017,99.2144,0.0198462,0.086873,20.8939,147.779,-0.0378272,0.0,0.0
1296,323.75,41.0981,41.7697,149.546,98.7968,99.3495,0.0205052,0.0851624,20.8963,147.679,-0.0506248,0.0,0.0
1314,328.25,39.9804,40.5632,149.273,98.8317,99.3964,0.0204236,0.0849186,20.8999,147.679,-0.0516969,0.0,0.0
1332,332.75,38.6411,38.9972,148.956,98.8601,99.3256,0.0204842,0.0856379,20.901,147.589,-0.0426298,0.0,0.0
1350,337.25,37.6185,38.5947,151.353,98.8958,99.5032,0.020704,0.08536,20.9012,147.589,-0.055561,0.0,0.0
1368,341.75,36.6296,37.3939,148.203,98.9169,99.2246,0.0208282,0.0848843,20.9012,147.529,-0.028188,0.0,0.0
1386,346.25,35.8531,36.0271,151.579,98.9461,99.4178,0.0205712,0.0846405,20.9012,147.479,-0.0431575,0.0,0.0
1404,350.75,35.0519,35.9389,147.783,98.9709,99.4622,0.0205939,0.0844396,20.9025,147.429,-0.0449385,0.0,0.0
1422,355.25,34.3188,34.8219,155.77,98.9952,99.47,0.0206335,0.0845696,20.9023,147.359,-0.0434189,0.0,0.0
1440,359.75,33.6972,33.6115,154.123,99.0451,99.4925,0.0206122,0.0844748,20.9044,147.319,-0.0408921,0.0,0.0
1458,364.25,33.1775,33.1986,151.159,99.0833,99.4188,0.0207011,0.0844234,20.905,147.179,-0.0306776,0.0,0.0
1476,368.75,32.3296,32.5763,157.159,99.1401,99.3134,0.0200142,0.0841588,20.905,147.199,-0.0158554,0.0,0.0
1494,373.25,31.9242,32.1108,150.47,99.2001,99.6832,0.0196711,0.0840827,20.9039,147.089,-0.044083,0.0,0.0
1512,377.75,31.6945,32.3179,153.979,99.2646,99.832,0.0201438,0.083962,20.9042,147.099,-0.051717,0.0,0.0
1530,382.25,31.2075,31.932,153.224,99.308,99.7295,0.0201762,0.0835245,20.9042,147.069,-0.0384334,0.0,0.0
1548,386.75,31.1193,31.0319,151.75,99.334,99.6368,0.0202449,0.083496,20.9042,146.979,-0.0276238,0.0,0.0
1566,391.25,30.6728,31.1657,150.468,99.3758,99.5568,0.0201765,0.0839017,20.9042,146.939,-0.0165181,0.0,0.0
1584,395.75,30.5698,30.4868,155.745,99.3847,99.6154,0.0198684,0.0834755,20.9028,146.789,-0.0210367,0.0,0.0
1602,400.25,29.8992,30.2687,152.15,99.4111,99.93,0.0199877,0.0829382,20.9029,146.789,-0.0472457,0.0,0.0
1620,404.75,29.0689,29.167,151.71,99.4306,99.7549,0.0197647,0.0820278,20.9035,146.668,-0.0295515,0.0,0.0
1638,409.25,29.4538,29.1323,151.798,99.4642,99.769,0.0196292,0.0824251,20.9048,146.708,-0.0277654,0.0,0.0
1656,413.75,29.1487,29.3223,153.412,99.4724,99.8115,0.0198183,0.0826529,20.903,146.668,-0.0308849,0.0,0.0
1674,418.25,28.8853,29.3217,147.979,99.4995,99.8354,0.0198947,0.0822877,20.9027,146.638,-0.0305783,0.0,0.0
1692,422.75,28.6588,29.1797,153.516,99.5478,100.014,0.0198914,0.0824836,20.9034,146.598,-0.0423885,0.0,0.0
1698,424.25,28.1216,29.2573,149.252,99.5701,100.209,0.0199132,0.0827613,20.9034,146.598,-0.0579965,0.0,0.0