File: 01_Data/Masonite_Board/Cone/Masonite_Board_HRRPUA_75.csv
Time after Ignition,Masonite_Board_R1,Masonite_Board_R2,Masonite_Board_R3,Mean,Std. Dev.
0.0,2.1,5.7,5.5,4.4,2.0
0.5,2.2,5.9,5.5,4.5,2.0
1.0,2.4,6.1,5.7,4.7,2.0
1.5,2.5,6.2,6.0,4.9,2.1
2.0,2.6,6.1,6.2,5.0,2.1
2.5,2.8,6.8,6.7,5.4,2.3
3.0,2.9,7.0,7.0,5.6,2.4
3.5,3.1,8.0,7.3,6.1,2.6
4.0,3.1,8.7,8.1,6.6,3.0
4.5,3.2,10.1,8.9,7.4,3.7
5.0,3.3,11.1,9.6,8.0,4.2
5.5,3.3,11.5,10.7,8.5,4.6
6.0,3.4,12.5,11.6,9.2,5.1
6.5,3.4,13.0,12.6,9.6,5.4
7.0,3.4,13.5,13.7,10.2,5.9
7.5,3.4,13.5,14.7,10.5,6.2
8.0,3.3,14.3,15.3,11.0,6.6
8.5,3.3,14.5,15.7,11.2,6.8
9.0,3.3,14.5,17.3,11.7,7.4
9.5,3.6,14.5,17.9,12.0,7.5
10.0,3.9,14.9,19.3,12.7,8.0
10.5,4.2,15.4,23.0,14.2,9.5
11.0,8.5,15.8,27.2,17.2,9.5
11.5,11.7,19.2,33.8,21.6,11.2
12.0,19.6,21.6,43.5,28.2,13.3
12.5,28.3,23.4,50.5,34.1,14.4
13.0,38.7,29.9,61.5,43.4,16.3
13.5,46.4,34.6,72.4,51.1,19.4
14.0,56.8,47.3,80.0,61.4,16.8
14.5,67.7,55.4,90.3,71.1,17.7
15.0,76.0,68.2,105.2,83.1,19.5
15.5,89.1,85.4,109.8,94.8,13.2
16.0,101.3,91.7,122.4,105.1,15.7
16.5,112.0,111.8,130.1,118.0,10.5
17.0,122.2,119.5,142.9,128.2,12.8
17.5,132.3,127.3,147.9,135.8,10.8
18.0,147.2,136.5,157.4,147.0,10.5
18.5,152.2,148.2,168.7,156.4,10.9
19.0,167.2,156.8,180.2,168.1,11.7
19.5,174.8,165.2,189.8,176.6,12.4
20.0,188.8,169.5,195.7,184.7,13.6
20.5,188.1,178.0,209.3,191.8,16.0
21.0,198.9,183.4,210.8,197.7,13.7
21.5,207.0,194.5,215.4,205.6,10.5
22.0,209.2,198.7,233.4,213.7,17.8
22.5,218.5,201.2,240.9,220.2,19.9
23.0,227.2,207.1,246.0,226.8,19.4
23.5,237.6,217.1,248.7,234.5,16.0
24.0,242.2,223.9,254.1,240.1,15.2
24.5,246.6,225.3,262.2,244.7,18.5
25.0,258.2,230.4,267.0,251.9,19.1
25.5,257.4,239.3,269.0,255.2,14.9
26.0,279.6,243.7,276.4,266.6,19.9
26.5,268.6,252.6,280.4,267.2,13.9
27.0,288.0,257.7,279.9,275.2,15.7
27.5,291.4,260.5,284.9,278.9,16.3
28.0,284.8,270.5,304.5,286.6,17.1
28.5,299.8,273.6,296.6,290.0,14.3
29.0,295.2,292.4,306.9,298.2,7.7
29.5,306.2,284.0,315.5,301.9,16.1
30.0,319.6,296.3,315.1,310.3,12.4
30.5,321.0,300.8,316.3,312.7,10.6
31.0,321.6,304.5,329.7,318.6,12.8
31.5,330.6,310.1,330.0,323.6,11.7
32.0,325.4,300.0,320.4,315.3,13.4
32.5,333.4,321.0,342.9,332.5,11.0
33.0,342.1,323.1,338.3,334.5,10.0
33.5,346.1,322.6,338.0,335.6,11.9
34.0,354.7,340.5,348.5,347.9,7.1
34.5,363.2,337.3,371.7,357.4,17.9
35.0,362.7,353.2,361.2,359.0,5.1
35.5,369.7,350.8,378.0,366.2,14.0
36.0,386.5,360.9,381.7,376.4,13.6
36.5,383.4,351.7,372.5,369.2,16.1
37.0,379.0,353.3,400.2,377.5,23.5
37.5,383.4,368.8,381.6,377.9,7.9
38.0,397.1,378.2,399.6,391.6,11.7
38.5,404.8,375.3,402.9,394.4,16.5
39.0,409.2,369.3,400.2,392.9,20.9
39.5,407.5,394.9,405.3,402.6,6.7
40.0,402.2,385.5,407.7,398.5,11.6
40.5,424.6,383.4,429.9,412.6,25.4
41.0,422.8,389.0,418.3,410.0,18.4
41.5,420.9,386.8,423.0,410.2,20.3
42.0,431.2,408.3,423.9,421.1,11.7
42.5,434.9,414.6,450.6,433.4,18.1
43.0,420.1,393.8,441.9,418.6,24.1
43.5,432.4,427.0,449.5,436.3,11.8
44.0,449.0,424.8,432.4,435.4,12.4
44.5,437.7,437.3,471.1,448.7,19.4
45.0,450.0,441.9,467.5,453.1,13.1
45.5,464.1,444.5,472.0,460.2,14.2
46.0,459.1,443.9,492.0,465.0,24.6
46.5,442.7,433.0,484.8,453.5,27.5
47.0,469.9,449.7,482.7,467.5,16.7
47.5,477.9,430.0,494.3,467.4,33.4
48.0,477.1,439.6,499.8,472.1,30.4
48.5,477.3,460.1,521.6,486.3,31.7
49.0,463.7,432.3,509.5,468.5,38.8
49.5,497.7,452.7,508.7,486.4,29.6
50.0,490.6,453.6,493.7,479.3,22.3
50.5,495.4,459.7,509.1,488.1,25.5
51.0,495.3,464.8,522.2,494.1,28.7
51.5,514.3,471.1,512.2,499.2,24.4
52.0,504.8,464.7,532.6,500.7,34.1
52.5,502.2,461.0,532.0,498.4,35.6
53.0,516.7,471.3,545.2,511.1,37.2
53.5,522.5,484.0,521.5,509.3,21.9
54.0,521.4,486.8,551.2,519.8,32.3
54.5,511.7,517.3,537.1,522.1,13.3
55.0,526.3,493.9,542.6,520.9,24.8
55.5,524.3,508.9,551.0,528.1,21.3
56.0,500.8,507.1,559.9,522.6,32.5
56.5,517.1,501.9,548.8,522.6,23.9
57.0,511.2,532.3,552.0,531.8,20.4
57.5,537.2,532.0,561.3,543.5,15.6
58.0,512.2,513.0,557.3,527.5,25.8
58.5,535.8,533.8,552.7,540.8,10.4
59.0,533.1,533.8,572.2,546.4,22.4
59.5,526.6,545.3,597.0,556.3,36.5
60.0,523.7,548.2,584.2,552.0,30.4
60.5,535.4,566.9,584.9,562.4,25.0
61.0,530.5,553.9,574.2,552.8,21.9
61.5,544.4,556.0,611.5,570.6,35.9
62.0,515.8,559.8,598.7,558.1,41.5
62.5,520.7,556.3,610.8,562.6,45.4
63.0,531.0,561.0,584.7,558.9,26.9
63.5,550.9,580.0,613.3,581.4,31.2
64.0,548.5,570.9,597.9,572.4,24.8
64.5,549.7,597.3,601.5,582.9,28.8
65.0,534.5,599.6,623.9,586.0,46.2
65.5,533.5,598.2,612.7,581.5,42.1
66.0,563.6,603.0,594.5,587.0,20.8
66.5,566.0,624.0,633.7,607.9,36.6
67.0,560.3,601.8,606.3,589.5,25.4
67.5,570.9,619.0,610.8,600.2,25.7
68.0,604.0,611.6,612.6,609.4,4.7
68.5,596.6,601.4,610.4,602.8,7.0
69.0,589.9,641.5,631.2,620.9,27.3
69.5,600.6,610.2,614.2,608.3,7.0
70.0,589.6,626.6,641.2,619.1,26.6
70.5,605.4,642.1,647.2,631.6,22.8
71.0,600.6,656.5,616.0,624.4,28.9
71.5,610.5,649.9,624.4,628.3,20.0
72.0,596.2,628.4,660.7,628.5,32.3
72.5,603.5,639.6,638.9,627.3,20.7
73.0,618.6,675.0,644.1,645.9,28.2
73.5,624.3,651.5,645.4,640.4,14.3
74.0,636.6,680.8,643.9,653.7,23.7
74.5,607.2,659.3,647.3,638.0,27.3
75.0,635.7,709.5,640.7,662.0,41.2
75.5,649.6,684.4,661.6,665.2,17.7
76.0,644.7,682.7,648.0,658.5,21.1
76.5,631.5,684.2,642.3,652.7,27.8
77.0,636.0,671.4,644.2,650.5,18.6
77.5,594.6,685.3,664.0,648.0,47.4
78.0,623.8,691.8,652.7,656.1,34.1
78.5,638.6,692.9,653.7,661.7,28.0
79.0,635.6,701.3,647.7,661.5,34.9
79.5,615.1,687.0,642.0,648.1,36.3
80.0,651.7,693.7,652.1,665.8,24.2
80.5,641.8,687.8,638.1,655.9,27.7
81.0,644.5,681.5,653.6,659.9,19.3
81.5,642.5,690.5,635.2,656.1,30.0
82.0,657.9,693.3,639.3,663.5,27.4
82.5,651.7,662.4,627.7,647.3,17.8
83.0,639.8,663.0,620.4,641.1,21.3
83.5,657.3,660.4,636.3,651.3,13.1
84.0,649.3,662.4,631.0,647.6,15.8
84.5,646.9,640.6,621.1,636.2,13.4
85.0,669.1,662.2,627.7,653.0,22.2
85.5,665.2,659.1,643.1,655.8,11.4
86.0,665.6,670.0,636.8,657.5,18.0
86.5,685.6,664.4,637.3,662.4,24.2
87.0,655.5,663.4,636.3,651.7,13.9
87.5,660.0,660.0,641.1,653.7,10.9
88.0,670.5,641.6,630.5,647.5,20.7
88.5,671.8,673.9,628.7,658.1,25.5
89.0,668.1,675.3,640.5,661.3,18.4
89.5,655.9,686.3,650.4,664.2,19.4
90.0,664.7,681.0,663.1,669.6,9.9
90.5,662.1,679.2,666.4,669.3,8.9
91.0,672.4,685.2,644.3,667.3,20.9
91.5,662.6,693.6,658.7,671.6,19.1
92.0,672.9,682.5,657.5,670.9,12.6
92.5,669.7,679.1,661.2,670.0,9.0
93.0,659.0,687.9,656.3,667.8,17.5
93.5,665.1,690.9,646.6,667.6,22.2
94.0,668.9,677.3,639.6,661.9,19.8
94.5,663.2,680.6,668.9,670.9,8.9
95.0,669.8,666.9,654.5,663.7,8.1
95.5,661.1,671.3,655.2,662.5,8.2
96.0,671.0,668.8,654.1,664.6,9.2
96.5,673.0,663.3,664.0,666.8,5.4
97.0,681.0,660.5,653.9,665.1,14.2
97.5,676.6,656.9,667.6,667.0,9.9
98.0,674.7,654.8,652.2,660.6,12.3
98.5,677.8,644.0,650.7,657.5,17.9
99.0,677.3,623.5,663.1,654.6,27.9
99.5,677.1,620.4,645.6,647.7,28.4
100.0,678.5,606.0,658.8,647.7,37.5
100.5,678.5,601.7,640.8,640.3,38.4
101.0,674.9,585.4,623.4,627.9,44.9
101.5,683.1,549.4,625.4,619.3,67.1
102.0,668.9,513.2,605.9,596.0,78.3
102.5,666.2,490.8,589.3,582.1,87.9
103.0,658.8,461.8,580.1,566.9,99.2
103.5,647.6,432.3,568.3,549.4,108.8
104.0,647.1,396.3,554.4,532.6,126.8
104.5,631.6,371.7,533.6,512.3,131.2
105.0,630.6,347.5,520.9,499.7,142.8
105.5,604.3,324.7,495.4,474.8,140.9
106.0,594.6,299.2,470.9,454.9,148.3
106.5,577.7,273.7,441.2,430.9,152.3
107.0,555.6,256.0,426.8,412.8,150.2
107.5,555.1,234.5,411.7,400.4,160.6
108.0,526.9,,381.8,454.3,102.6
108.5,484.8,,364.6,424.7,85.0
109.0,457.6,,350.3,403.9,75.8
109.5,434.8,,332.6,383.7,72.3
110.0,381.5,,309.6,345.6,50.8
110.5,365.9,,298.0,332.0,48.0
111.0,343.5,,267.1,305.3,54.0
111.5,317.3,,256.2,286.7,43.2
112.0,303.6,,243.5,273.6,42.5
112.5,283.1,,219.8,251.4,44.8
113.0,258.5,,201.6,230.0,40.2
113.5,238.9,,185.4,212.1,37.8
114.0,219.9,,171.2,195.5,34.4
114.5,201.2,,158.2,179.7,30.4
115.0,184.2,,144.3,164.3,28.2
115.5,171.4,,134.8,153.1,25.9
116.0,158.4,,126.0,142.2,22.9
116.5,145.2,,118.9,132.1,18.6
117.0,132.7,,112.3,122.5,14.4
117.5,125.4,,108.1,116.8,12.2