File: 01_Data/Masonite_Board/Cone/Masonite_Cone_HF75Scalar_230106_R3.csv
LABORATORY,FSRI
TEST IDENT,Masonite_HF75_R3
OPERATOR,Marino
MATERIAL,Masonite
ORIENTATION,Horizontal
HEAT FLUX,75
SURF AREA,0.01
C FACTOR,0.0414609
SPEC HOLDER DIFF,-566
SPECIMEN MASS,34.62
SCAN TIME,0.25
O2 DELAY TIME,11
CO DELAY TIME,11
CO2 DELAY TIME,8
FLOW FACTOR,1
SCAN COUNT,1049
TIME TO IGN,22.25
END OF TEST SCAN,569
END OF TEST TIME,142.25
TEST STATUS,1
PRE TEST CMT,Dimensions: 101.59 x 100.96 x 2.96 mm; with calcium silicate substrate; with tie wires
POST TEST CMT,"Warped, charred, and fractured while burning."