File: 01_Data/Masonite_Board/Cone/Masonite_Cone_HF50Scan_221212_R3.csv
Names,Time,Stack TC,Smoke TC,Exh Press,Smoke Comp,Smoke Meas,CO Meter,CO2 Meter,O2 Meter,Sample Mass,Ext Coeff,Start Test,Flame Verif
Chan Gain,,500,500,1,1,1,1,1,1,1,1,1.0,1.0
Offset,,0,0,0.131978,0,0,0,0,0,0,0,0.0,0.0
Gain,,1,1,25.011,13.4278,14.1503,1,1,1,1.00089,1.02125,1.0,1.0
Units,sec,C,C,Pa,%,%,%,%,%,g,/m,,
Baseline,,33.3344,33.9916,155.413,99.5927,99.7696,0.000864624,0.0534629,20.93,-448.726,-0.015893,,
14,3.25,32.212,32.9832,153.804,99.3076,99.4322,0.00101269,0.0577827,20.9256,105.584,-0.0112261,0.0,0.0
28,6.75,32.0744,32.5592,152.603,99.3015,99.471,0.00114681,0.0590402,20.9229,105.564,-0.0152811,0.0,0.0
42,10.25,32.384,32.9692,156.299,99.2671,99.1605,0.000962217,0.0587483,20.9222,105.404,0.00961892,0.0,0.0
56,13.75,32.5342,33.2077,153.796,99.2519,99.0189,0.000674969,0.0579952,20.922,105.374,0.021056,0.0,0.0
70,17.25,32.195,33.7054,154.846,99.2183,98.7628,0.000767034,0.0578125,20.9229,105.244,0.0412196,0.0,0.0
84,20.75,32.5134,33.0174,153.878,99.2015,98.391,0.000787587,0.0582193,20.9223,105.164,0.0734909,0.0,0.0
98,24.25,32.7836,33.0476,153.344,99.1986,98.0602,0.000999797,0.0586809,20.9214,105.044,0.1034,0.0,0.0
112,27.75,32.4682,33.0338,157.036,99.1826,97.6491,0.000931614,0.0596929,20.9213,104.903,0.139592,0.0,0.0
126,31.25,32.2885,33.3911,155.57,99.1736,97.2959,0.000694333,0.0621287,20.9203,104.753,0.171244,0.0,0.0
140,34.75,32.9732,33.3001,149.339,99.1605,96.7608,0.00088276,0.0639419,20.918,104.513,0.219459,0.0,0.0
154,38.25,32.7121,33.2161,155.992,99.1618,96.3951,0.000970732,0.0636548,20.9155,104.323,0.253496,0.0,0.0
168,41.75,32.7113,33.4702,161.803,99.1286,95.7193,0.000977199,0.0620023,20.9149,104.033,0.313524,0.0,0.0
182,45.25,33.1624,33.6317,146.385,99.1204,98.6812,0.000876343,0.0606407,20.9175,103.702,0.039778,0.0,1.0
196,48.75,34.5361,34.5061,142.805,99.0941,97.4384,0.0009771,0.0613745,20.9187,103.212,0.150949,0.0,1.0
210,52.25,36.5107,36.2985,141.49,99.0831,96.6848,0.00162349,0.0921889,20.9203,102.752,0.219498,0.0,0.0
224,55.75,38.6216,38.471,141.627,99.07,96.3238,0.00226939,0.196953,20.8641,102.111,0.251825,0.0,0.0
238,59.25,40.9565,40.6722,137.826,99.0581,97.0195,0.00294175,0.304523,20.7306,101.49,0.186282,0.0,0.0
252,62.75,43.1032,43.7242,134.409,99.0433,96.4849,0.00347681,0.395971,20.624,100.89,0.234448,0.0,0.0
266,66.25,46.4165,45.9955,134.31,99.0171,95.9874,0.00390738,0.470293,20.5132,100.119,0.278383,0.0,0.0
280,69.75,49.1112,49.2547,126.685,99.0044,95.433,0.00419655,0.538849,20.4237,99.4586,0.329133,0.0,0.0
294,73.25,52.285,51.8095,124.529,98.9696,92.8242,0.00442478,0.602614,20.357,98.6178,0.574271,0.0,0.0
308,76.75,55.2214,55.5029,123.307,98.9442,92.899,0.00484406,0.668668,20.276,97.8872,0.564763,0.0,0.0
322,80.25,57.8617,59.2081,116.145,98.9077,93.0367,0.00531106,0.732984,20.1873,96.9163,0.548186,0.0,0.0
336,83.75,61.398,62.6573,120.183,98.9118,93.1628,0.00586824,0.80333,20.1128,96.0155,0.536425,0.0,0.0
350,87.25,65.3177,66.2249,119.995,98.8724,91.7758,0.00625939,0.883124,20.0276,94.8845,0.66724,0.0,0.0
364,90.75,68.6576,70.4883,123.732,98.8491,91.4359,0.0064795,0.964962,19.9232,93.8836,0.698358,0.0,0.0
378,94.25,72.6644,74.5458,116.349,98.8286,90.336,0.00671195,1.03434,19.8417,92.7026,0.804914,0.0,0.0
392,97.75,76.7596,78.7365,113.854,98.7987,89.9526,0.00730905,1.11295,19.7525,91.4414,0.84031,0.0,0.0
406,101.25,79.536,82.752,110.205,98.7839,85.7694,0.00825036,1.1965,19.6676,90.1403,1.26557,0.0,0.0
420,104.75,82.5907,86.2932,114.001,98.7528,87.3525,0.00897718,1.29602,19.5593,88.5589,1.0989,0.0,0.0
434,108.25,85.8811,89.7765,109.572,98.7421,86.5998,0.00964016,1.38273,19.451,87.1176,1.17546,0.0,0.0
448,111.75,88.8406,93.0518,111.382,98.7167,87.0247,0.0113689,1.53057,19.337,85.5662,1.12931,0.0,0.0
462,115.25,91.5988,96.4791,108.282,98.7114,83.3641,0.0130061,1.64421,19.1805,84.0849,1.51381,0.0,0.0
476,118.75,94.1843,99.1752,109.022,98.6872,90.4949,0.0144192,1.71082,19.0673,82.6436,0.776345,0.0,0.0
490,122.25,96.4067,102.836,109.198,98.679,85.2361,0.016339,1.76056,18.9909,81.3424,1.31193,0.0,0.0
504,125.75,98.0777,104.552,117.422,98.6688,86.8714,0.0184961,1.77455,18.9367,80.1214,1.14075,0.0,0.0
518,129.25,99.044,106.168,115.479,98.6503,89.1666,0.0174588,1.72094,18.925,78.9803,0.905465,0.0,0.0
532,132.75,100.045,107.188,127.128,98.6434,83.542,0.0154708,1.61053,19.0033,77.9795,1.48854,0.0,0.0
546,136.25,98.6757,106.962,130.358,98.6327,88.4131,0.0149871,1.50461,19.1063,77.1387,0.979893,0.0,0.0
560,139.75,96.6623,105.784,134.233,98.6315,96.8558,0.0145096,1.38808,19.2242,76.7584,0.162746,0.0,0.0
574,143.25,93.4845,103.36,145.697,98.6077,99.167,0.0146824,1.18395,19.3506,76.4481,-0.0506668,0.0,0.0
588,146.75,89.6556,99.6088,143.841,98.6307,99.4274,0.013256,0.875902,19.6088,76.4181,-0.0720741,0.0,0.0
602,150.25,86.2405,96.8677,141.3,98.6184,99.5561,0.00940747,0.564279,20.0013,76.2479,-0.0847788,0.0,0.0
616,153.75,83.1114,92.9725,149.839,98.6262,99.4883,0.00629638,0.351829,20.3661,76.2579,-0.077968,0.0,0.0
630,157.25,80.605,89.8585,148.509,98.6245,99.4157,0.00504853,0.241325,20.5888,76.0878,-0.0715822,0.0,0.0
644,160.75,77.8858,87.4505,147.669,98.6462,99.4771,0.00523633,0.19301,20.7017,76.1278,-0.0751337,0.0,0.0
658,164.25,75.2086,84.8029,152.054,98.6647,99.4499,0.00575343,0.168357,20.759,75.9677,-0.071009,0.0,0.0
672,167.75,72.8954,82.2468,150.503,98.6913,99.5207,0.00627876,0.153743,20.7866,75.9276,-0.0749678,0.0,0.0
686,171.25,70.9877,79.7485,147.695,98.7233,99.5254,0.0066701,0.145146,20.8032,75.9176,-0.0724951,0.0,0.0
700,174.75,69.0612,77.8896,151.103,98.7495,99.6658,0.00729926,0.139465,20.8134,75.8676,-0.0827388,0.0,0.0
714,178.25,67.5963,75.4091,150.949,98.7827,99.5531,0.00758568,0.136236,20.8186,75.8976,-0.069592,0.0,0.0
728,181.75,65.5841,73.6229,149.485,98.8229,99.6904,0.00744867,0.134917,20.8213,75.7375,-0.0782998,0.0,0.0
742,185.25,64.3539,71.746,148.426,98.8745,99.6433,0.0077553,0.135984,20.823,75.7875,-0.0693891,0.0,0.0
756,188.75,62.6318,70.4034,147.364,98.9032,99.7608,0.00791338,0.135923,20.8221,75.6574,-0.0773454,0.0,0.0
770,192.25,61.3847,68.4162,148.678,98.9864,99.5108,0.00801245,0.134705,20.8222,75.7074,-0.0473327,0.0,0.0
784,195.75,59.8946,67.0538,150.285,99.029,99.7854,0.00810563,0.132625,20.8247,75.5873,-0.0681671,0.0,0.0
798,199.25,59.2907,65.5969,153.135,99.1097,99.8294,0.00823837,0.131879,20.8272,75.5873,-0.0648206,0.0,0.0
812,202.75,58.1433,64.035,147.561,99.1745,99.8912,0.00825247,0.131249,20.8278,75.5573,-0.0645103,0.0,0.0
826,206.25,56.4009,62.8275,153.899,99.2482,100.008,0.00855139,0.130991,20.8279,75.4472,-0.0683388,0.0,0.0
840,209.75,55.752,61.0107,153.422,99.338,100.06,0.00874279,0.13181,20.8285,75.4672,-0.0648825,0.0,0.0
854,213.25,54.725,59.6096,151.498,99.4043,100.038,0.00861695,0.131717,20.8277,75.3471,-0.0568873,0.0,0.0
868,216.75,53.4347,58.8627,153.127,99.5019,100.239,0.00868055,0.130797,20.8285,75.3972,-0.0661438,0.0,0.0
882,220.25,52.5618,57.6317,149.292,99.5674,100.195,0.00891162,0.13049,20.8294,75.267,-0.0562666,0.0,0.0
896,223.75,52.5226,57.3946,152.719,99.665,100.343,0.00905349,0.131066,20.8296,75.3371,-0.0607684,0.0,0.0
910,227.25,51.751,56.2319,149.565,99.7219,100.383,0.00878373,0.130436,20.8296,75.207,-0.0591955,0.0,0.0
924,230.75,51.3088,55.583,146.93,99.8006,100.4,0.00862682,0.129422,20.8311,75.247,-0.0536331,0.0,0.0
938,234.25,49.9684,54.5555,152.951,99.8449,100.44,0.00869507,0.129146,20.832,75.1069,-0.0532834,0.0,0.0
952,237.75,49.8451,53.6335,152.477,99.9026,100.535,0.00868475,0.128114,20.8334,75.1369,-0.0564923,0.0,0.0
966,241.25,49.1973,53.3914,153.861,99.9371,100.624,0.00861411,0.127059,20.8353,75.0869,-0.0613302,0.0,0.0
980,244.75,49.1937,51.9307,151.414,99.9596,100.592,0.00852578,0.125893,20.837,74.9868,-0.0565025,0.0,0.0
994,248.25,48.3471,51.7847,154.176,99.9584,100.567,0.00839281,0.124727,20.839,74.9968,-0.0543443,0.0,0.0
1008,251.75,48.2768,51.039,148.994,99.9657,100.568,0.00841697,0.124439,20.8395,74.8967,-0.0538367,0.0,0.0
1022,255.25,47.0526,50.4419,152.442,99.9502,100.476,0.00873169,0.124675,20.8396,74.9267,-0.0469962,0.0,0.0
1036,258.75,46.7447,49.7345,150.441,99.8973,100.557,0.00878151,0.123939,20.8388,74.8066,-0.0589332,0.0,0.0
1050,262.25,47.0871,49.7237,148.368,99.8625,100.542,0.00865937,0.124022,20.8381,74.8667,-0.0607103,0.0,0.0
1064,265.75,46.5277,49.1327,145.475,99.817,100.385,0.00880555,0.123754,20.8376,74.7466,-0.0508521,0.0,0.0
1078,269.25,45.7161,48.6112,153.154,99.8043,100.356,0.00874623,0.123315,20.8393,74.7866,-0.0493711,0.0,0.0
1092,272.75,45.575,47.9154,151.297,99.7453,100.325,0.00850349,0.123266,20.8397,74.6865,-0.0519315,0.0,0.0
1106,276.25,45.4596,47.9246,151.816,99.7088,100.259,0.00857023,0.122597,20.8398,74.6965,-0.0492686,0.0,0.0
1120,279.75,45.2365,47.3406,152.174,99.6687,100.244,0.00870516,0.121755,20.8403,74.6765,-0.051526,0.0,0.0
1134,283.25,44.1951,47.1185,153.388,99.6109,100.183,0.00886428,0.121589,20.8413,74.5664,-0.0512784,0.0,0.0
1148,286.75,44.5739,46.8095,153.548,99.6023,100.141,0.00903341,0.121605,20.842,74.6065,-0.048306,0.0,0.0
1162,290.25,43.7421,46.2658,151.912,99.5703,100.136,0.00901841,0.121265,20.8439,74.4663,-0.0507559,0.0,0.0
1176,293.75,44.1533,45.9183,154.447,99.5433,100.016,0.00895421,0.120403,20.8444,74.5364,-0.0424434,0.0,0.0
1190,297.25,43.625,45.9332,152.102,99.5117,100.018,0.00909297,0.120052,20.8445,74.4063,-0.0454381,0.0,0.0
1204,300.75,43.8555,45.6358,155.892,99.5047,100.037,0.00926131,0.119541,20.846,74.4663,-0.0478056,0.0,0.0
1218,304.25,43.915,44.8366,152.775,99.4826,99.9871,0.00913751,0.118911,20.8465,74.3462,-0.0453114,0.0,0.0
1232,307.75,43.0578,44.9044,154.236,99.5412,100.056,0.0090986,0.118706,20.8466,74.3963,-0.0462238,0.0,0.0
1246,311.25,43.3213,44.6557,150.269,99.6551,100.257,0.00913028,0.117814,20.8473,74.2962,-0.0538995,0.0,0.0
1260,314.75,42.4018,44.2167,152.912,99.7731,100.297,0.00914271,0.11658,20.8486,74.3262,-0.0468845,0.0,0.0
1274,318.25,42.9818,44.186,150.49,99.8678,100.301,0.00912595,0.116181,20.8503,74.3062,-0.0388136,0.0,0.0
1288,321.75,42.2067,44.0664,151.309,99.9584,100.523,0.0091248,0.115865,20.8511,74.1961,-0.0504192,0.0,0.0
1302,325.25,42.3706,43.813,149.762,100.04,100.503,0.00930276,0.115531,20.8512,74.2461,-0.0413806,0.0,0.0
1303,325.5,42.3183,43.6509,153.826,100.042,100.472,0.0092904,0.115459,20.8511,74.2461,-0.038427,0.0,0.0