File: 01_Data/Masonite_Board/Cone/Masonite_Cone_HF75Scan_230106_R1.csv
Names,Time,Stack TC,Smoke TC,Exh Press,Smoke Comp,Smoke Meas,CO Meter,CO2 Meter,O2 Meter,Sample Mass,Ext Coeff,Start Test,Flame Verif
Chan Gain,,500,500,1,1,1,1,1,1,1,1,1.0,1.0
Offset,,0,0,0.303564,0,0,0,0,0,0,0,0.0,0.0
Gain,,1,1,25.011,13.3935,16.078,1,1,1,1.00088,1.03447,1.0,1.0
Units,sec,C,C,Pa,%,%,%,%,%,g,/m,,
Baseline,,44.4039,47.4004,142.831,100.025,100.076,0.000462937,0.0466608,20.9625,-446.003,-0.00460375,,
11,2.5,41.953,44.2747,145.679,101.14,101.147,0.000497984,0.0479594,20.963,177.756,-0.000659887,0.0,0.0
22,5.25,42.2636,44.7608,143.864,101.13,100.778,0.000612406,0.0489291,20.9625,177.545,0.0316668,0.0,0.0
33,8,42.2654,45.0943,141.431,101.104,100.146,0.000487825,0.0496717,20.9614,177.415,0.0863662,0.0,0.0
44,10.75,42.6995,44.9987,143.095,101.085,100.22,0.000350782,0.0500605,20.9592,177.295,0.0780133,0.0,0.0
55,13.5,42.7698,45.4346,142.463,101.071,99.199,0.000370232,0.0500925,20.9574,177.255,0.169646,0.0,0.0
66,16.25,43.2271,45.8149,139.956,101.039,98.5366,0.000522505,0.0502287,20.9582,177.115,0.227579,0.0,0.0
77,19,43.4796,45.9787,140.939,101.001,96.4758,0.000703538,0.0508792,20.9587,176.945,0.415956,0.0,0.0
88,21.75,43.4691,47.1912,132.065,100.967,100.454,0.000922408,0.0519353,20.9574,176.695,0.0462283,0.0,1.0
99,24.5,44.3922,48.4164,129.359,100.934,99.6985,0.000955246,0.0522822,20.9558,176.485,0.111731,0.0,1.0
110,27.25,46.3076,51.7461,126.913,100.882,99.5361,0.00108815,0.0561217,20.9553,175.784,0.121855,0.0,0.0
121,30,49.0212,55.9935,121.771,100.827,98.4924,0.00153257,0.104197,20.9541,175.183,0.212539,0.0,0.0
132,32.75,52.317,60.3204,118.509,100.763,98.4708,0.00189743,0.202208,20.8892,174.573,0.208787,0.0,0.0
143,35.5,55.392,65.0859,118.64,100.689,97.3644,0.00228994,0.31286,20.7656,173.902,0.304661,0.0,0.0
154,38.25,58.3852,69.1233,118.143,100.633,96.7599,0.00273429,0.415567,20.6259,173.222,0.356127,0.0,0.0
165,41,61.7669,73.118,118.609,100.571,95.7933,0.00323145,0.494727,20.5166,172.581,0.441666,0.0,0.0
176,43.75,65.4001,77.714,113.887,100.533,94.1393,0.00381871,0.57756,20.4209,171.78,0.596323,0.0,0.0
187,46.5,68.2106,82.151,107.247,100.502,92.9671,0.00430004,0.646228,20.3207,171,0.70718,0.0,0.0
198,49.25,71.5629,86.1851,114.588,100.471,92.2581,0.00465355,0.711033,20.2484,170.219,0.773883,0.0,0.0
209,52,74.4723,90.4326,108.667,100.44,92.9808,0.0049762,0.777143,20.1808,169.508,0.700228,0.0,0.0
220,54.75,77.4154,93.9038,111.711,100.411,90.7341,0.00538339,0.839896,20.0978,168.638,0.919566,0.0,0.0
231,57.5,80.2593,97.7578,107.5,100.412,89.7204,0.00589995,0.896473,20.0263,167.717,1.02163,0.0,0.0
242,60.25,83.0914,100.96,113.763,100.483,88.4633,0.00649058,0.954768,19.9556,166.956,1.15606,0.0,0.0
253,63,86.2199,105.245,100.477,100.564,89.6772,0.00697969,0.998921,19.8899,166.135,1.03973,0.0,0.0
264,65.75,88.6067,107.688,109.814,100.621,92.1698,0.00736976,1.04839,19.84,165.265,0.796038,0.0,0.0
275,68.5,91.1839,110.462,110.029,100.655,91.2802,0.00779794,1.10274,19.7876,164.314,0.887139,0.0,0.0
286,71.25,93.1155,113.223,117.85,100.681,92.5824,0.00840093,1.14824,19.718,163.303,0.760993,0.0,0.0
297,74,95.5557,116.099,110.102,100.756,92.1231,0.00874118,1.18066,19.6688,162.432,0.812821,0.0,0.0
308,76.75,97.7082,119.198,97.8815,100.82,93.3871,0.00867249,1.20685,19.6382,161.481,0.694944,0.0,0.0
319,79.5,100.344,122.936,103.938,100.885,93.2448,0.00879709,1.23646,19.6077,160.571,0.714665,0.0,0.0
330,82.25,103.469,125.753,107.042,100.94,92.9033,0.00897129,1.27172,19.574,159.46,0.752885,0.0,0.0
341,85,106.659,129.447,98.0189,100.939,92.4877,0.00910288,1.33595,19.5323,158.519,0.793459,0.0,0.0
352,87.75,108.9,132.61,103.107,100.989,92.9715,0.00950563,1.39526,19.4497,157.438,0.750634,0.0,0.0
363,90.5,110.284,134.905,104.539,101.052,91.5383,0.00973901,1.43654,19.3823,156.597,0.897265,0.0,0.0
374,93.25,112.656,136.857,97.2884,101.059,91.6374,0.00977145,1.47708,19.3366,155.496,0.888032,0.0,0.0
385,96,114.779,139.777,107.996,101.076,91.9009,0.00961081,1.49295,19.2944,154.415,0.86352,0.0,0.0
396,98.75,116.003,140.805,99.508,101.095,91.9465,0.00953786,1.50318,19.2773,153.454,0.860739,0.0,0.0
407,101.5,117.905,142.946,104.449,101.114,91.6202,0.00982912,1.5302,19.2644,152.564,0.894723,0.0,0.0
418,104.25,118.615,143.083,103.185,101.155,89.3931,0.0101567,1.5333,19.2376,151.563,1.12166,0.0,0.0
429,107,118.315,143.182,105.187,101.16,85.5233,0.0103252,1.52462,19.2342,150.682,1.52368,0.0,0.0
440,109.75,119.222,142.162,110.892,101.157,84.2377,0.0103945,1.51094,19.2456,149.601,1.66086,0.0,0.0
451,112.5,118.377,140.44,112.971,101.153,84.3933,0.0106223,1.48324,19.2595,149.03,1.64379,0.0,0.0
462,115.25,116.895,138.817,114.754,101.149,93.6295,0.0114511,1.43761,19.2912,148.38,0.701025,0.0,0.0
473,118,114.591,134.734,124.598,101.145,96.6701,0.0129587,1.37819,19.339,148.02,0.410578,0.0,0.0
484,120.75,110.74,128.527,131.785,101.12,102.536,0.0139303,1.3099,19.3898,147.859,-0.12619,0.0,0.0
495,123.5,106.592,121.959,131.714,101.1,102.194,0.0133551,1.15874,19.4662,147.709,-0.0976287,0.0,0.0
506,126.25,102.915,116.075,135.123,101.092,102.263,0.0111847,0.924534,19.6268,147.699,-0.104503,0.0,0.0
517,129,98.6349,110.416,134.467,101.077,102.365,0.00857121,0.6564,19.9361,147.659,-0.114905,0.0,0.0
528,131.75,95.0335,105.568,137.914,101.058,102.119,0.00625473,0.443701,20.2808,147.579,-0.0947829,0.0,0.0
539,134.5,92.0166,101.331,134.7,101.055,102.317,0.00454232,0.304916,20.5205,147.459,-0.112594,0.0,0.0
550,137.25,88.9397,98.1478,135.528,101.048,102.174,0.00356023,0.226513,20.6831,147.459,-0.100502,0.0,0.0
561,140,85.0102,92.3458,135.201,101.049,102.924,0.00322002,0.185649,20.7622,147.409,-0.166851,0.0,0.0
572,142.75,82.6876,89.8042,139.859,101.068,102.128,0.00321115,0.162818,20.8015,147.399,-0.0947233,0.0,0.0
583,145.5,80.4437,87.0898,134.784,101.046,101.719,0.0032168,0.149684,20.8237,147.329,-0.0602433,0.0,0.0
594,148.25,78.4385,84.8956,139.034,101.04,102.455,0.00333779,0.142071,20.8351,147.279,-0.126128,0.0,0.0
605,151,76.3579,82.1708,139.366,101.056,102.754,0.0035083,0.137077,20.8429,147.219,-0.151168,0.0,0.0
616,153.75,74.545,80.7452,134.713,101.057,101.741,0.00358146,0.133303,20.8488,147.189,-0.0612147,0.0,0.0
627,156.5,73.3037,78.4604,135.458,101.07,102.224,0.00372816,0.130927,20.8528,147.209,-0.103044,0.0,0.0
638,159.25,71.8326,76.751,135.088,101.076,102.548,0.00395841,0.129241,20.8561,147.099,-0.131152,0.0,0.0
649,162,70.6684,75.3119,138.204,101.071,102.222,0.00400941,0.127747,20.858,147.059,-0.102833,0.0,0.0
660,164.75,69.532,73.6939,139.675,101.096,102.519,0.00397965,0.126775,20.8592,146.999,-0.126871,0.0,0.0
671,167.5,68.6119,72.6425,139.056,101.094,102.064,0.00405452,0.125935,20.8608,147.049,-0.0866255,0.0,0.0
682,170.25,67.639,71.1585,137.118,101.1,102.213,0.00418597,0.124942,20.8625,147.009,-0.0992838,0.0,0.0
693,173,66.2114,70.1036,137.466,101.078,102.33,0.00423314,0.124488,20.8641,146.909,-0.111706,0.0,0.0
704,175.75,65.2917,69.4068,136.806,101.078,102.249,0.00438053,0.124135,20.8646,146.869,-0.104524,0.0,0.0
715,178.5,64.7044,68.067,134.376,101.07,102.395,0.00448042,0.123602,20.8648,146.859,-0.118145,0.0,0.0
726,181.25,64.187,67.5149,137.566,101.073,102.207,0.0045519,0.123792,20.866,146.839,-0.101219,0.0,0.0
737,184,63.4734,66.9153,137.345,101.019,102.403,0.00469719,0.123747,20.8662,146.668,-0.123517,0.0,0.0
748,186.75,62.7797,66.5562,137.241,100.972,102.18,0.00490153,0.123684,20.8663,146.668,-0.107935,0.0,0.0
759,189.5,61.7701,65.31,141.98,100.932,102.275,0.00501804,0.123112,20.8663,146.658,-0.120022,0.0,0.0
770,192.25,62.0318,64.292,137.215,100.881,101.668,0.00498046,0.122934,20.8679,146.658,-0.0705315,0.0,0.0
781,195,60.8992,64.1287,136.318,100.811,101.946,0.0049961,0.123113,20.8688,146.628,-0.101567,0.0,0.0
792,197.75,60.4032,63.6438,133.939,100.744,102.053,0.00525578,0.123483,20.869,146.588,-0.117156,0.0,0.0
803,200.5,59.7499,63.5978,136.06,100.74,101.75,0.00534435,0.123206,20.869,146.448,-0.0905279,0.0,0.0
814,203.25,59.6084,61.9404,138.089,100.784,102.06,0.00521523,0.123177,20.8692,146.468,-0.114122,0.0,0.0
825,206,58.9619,62.1931,136.789,100.829,101.956,0.0051457,0.123728,20.8682,146.478,-0.100828,0.0,0.0
836,208.75,59.1272,61.5321,134.448,100.871,101.915,0.00516949,0.124468,20.8664,146.428,-0.0934079,0.0,0.0
847,211.5,58.6361,61.3671,137.321,100.907,101.936,0.00518878,0.124879,20.8652,146.378,-0.0920145,0.0,0.0
858,214.25,58.5471,61.2045,140.468,100.957,102.243,0.00527379,0.125707,20.8642,146.338,-0.11487,0.0,0.0
869,217,57.9774,60.5001,139.017,101.023,102.403,0.00553814,0.126599,20.8654,146.278,-0.123106,0.0,0.0
880,219.75,57.7218,60.4365,138.997,101.103,102.038,0.00564873,0.125982,20.8658,146.338,-0.0835058,0.0,0.0
891,222.5,56.832,59.7691,139.766,101.168,101.977,0.00547884,0.125441,20.8668,146.248,-0.0722553,0.0,0.0
902,225.25,57.3278,59.9488,135.996,101.219,102.534,0.00540718,0.125175,20.8684,146.178,-0.117102,0.0,0.0
913,228,56.7174,59.6209,137.092,101.288,102.517,0.00525591,0.125765,20.8689,146.168,-0.109428,0.0,0.0
924,230.75,56.6011,59.179,138.501,101.33,102.516,0.00523734,0.126355,20.8685,146.108,-0.105577,0.0,0.0
935,233.5,56.4062,59.0168,137.163,101.395,101.932,0.00544463,0.126849,20.8674,146.088,-0.0479639,0.0,0.0
946,236.25,55.9422,58.6376,139.81,101.419,102.095,0.00567332,0.12611,20.867,145.998,-0.0602901,0.0,0.0
957,239,55.7985,58.4393,138.824,101.446,102.467,0.00583559,0.125291,20.8678,145.958,-0.0909163,0.0,0.0
968,241.75,55.3237,58.0673,137.191,101.473,102.335,0.00589125,0.124798,20.8684,145.928,-0.0767641,0.0,0.0
979,244.5,55.5983,58.1941,139.091,101.523,102.264,0.00594918,0.124403,20.8688,145.928,-0.0659948,0.0,0.0
990,247.25,55.3149,57.1922,137.711,101.545,102.287,0.00606865,0.123451,20.8697,145.898,-0.0660318,0.0,0.0
1001,250,54.5635,57.0958,139.026,101.56,102.486,0.00613512,0.122331,20.87,145.788,-0.0824163,0.0,0.0
1012,252.75,54.4182,57.3833,140.745,101.563,102.435,0.0060235,0.121903,20.8715,145.738,-0.0775239,0.0,0.0
1023,255.5,54.9931,57.3949,132.502,101.596,102.93,0.00589782,0.12179,20.8717,145.708,-0.118435,0.0,0.0
1030,257.25,54.6325,57.2549,138.511,101.621,102.339,0.00588863,0.121993,20.8709,145.758,-0.0638969,0.0,0.0