File: 01_Data/Masonite_Board/Cone/Masonite_Cone_HF50Scan_230105_R6.csv
Names,Time,Stack TC,Smoke TC,Exh Press,Smoke Comp,Smoke Meas,CO Meter,CO2 Meter,O2 Meter,Sample Mass,Ext Coeff,Start Test,Flame Verif
Chan Gain,,500,500,1,1,1,1,1,1,1,1,1.0,1.0
Offset,,0,0,0.131978,0,0,0,0,0,0,0,0.0,0.0
Gain,,1,1,25.011,13.5924,14.2928,1,1,1,1.00089,1.02125,1.0,1.0
Units,sec,C,C,Pa,%,%,%,%,%,g,/m,,
Baseline,,33.0839,33.8312,156.528,101.062,100.95,0.000829571,0.0465239,20.9354,-450.073,0.0099258,,
16,3.75,30.6634,31.4314,156.569,100.951,100.809,0.000913615,0.0499529,20.9337,172.574,0.0126299,0.0,0.0
32,7.75,30.6023,31.0127,156.307,100.956,100.778,0.000748444,0.0486978,20.9357,172.444,0.0158243,0.0,0.0
48,11.75,30.8822,31.3886,158.264,100.948,100.755,0.000661301,0.0473116,20.938,172.303,0.0171408,0.0,0.0
64,15.75,30.7103,31.2664,158.584,100.935,100.398,0.000684421,0.0464557,20.9392,172.253,0.0478185,0.0,0.0
80,19.75,30.8187,31.3477,157.294,100.937,100.142,0.000761541,0.0455089,20.9414,172.083,0.0707642,0.0,0.0
96,23.75,30.729,31.7057,155.506,100.939,100.071,0.000721733,0.0449576,20.9415,171.973,0.0773498,0.0,0.0
112,27.75,30.9377,31.8737,154.366,100.921,99.3223,0.00078632,0.0445563,20.9411,171.863,0.143023,0.0,0.0
128,31.75,31.0101,31.3677,155.328,100.922,99.2128,0.000707653,0.0455903,20.9405,171.713,0.153014,0.0,0.0
144,35.75,30.993,31.9169,156.367,100.917,98.5634,0.000798174,0.0461996,20.9389,171.523,0.211409,0.0,0.0
160,39.75,31.5007,31.7035,150.592,100.912,98.2201,0.000913255,0.0458664,20.9399,171.343,0.242258,0.0,0.0
176,43.75,31.6794,31.9918,155.901,100.903,97.4729,0.00102845,0.0455334,20.9406,171.132,0.309856,0.0,0.0
192,47.75,31.624,32.112,151.368,100.897,100.598,0.000912613,0.0466367,20.9389,170.852,0.0266231,0.0,1.0
208,51.75,32.2568,32.5509,143.192,100.891,99.7341,0.00108847,0.0475094,20.9368,170.362,0.103347,0.0,0.0
224,55.75,34.1877,33.996,134.422,100.893,98.9402,0.00148441,0.0678532,20.9385,169.831,0.175049,0.0,0.0
240,59.75,36.6944,36.5734,139.026,100.893,98.8185,0.00249884,0.169575,20.8879,169.231,0.186074,0.0,0.0
256,63.75,39.5004,37.4891,133.79,100.883,98.2873,0.00312894,0.279523,20.7754,168.54,0.233555,0.0,0.0
272,67.75,42.2361,42.013,137.293,100.883,97.8275,0.00334167,0.36914,20.6453,167.799,0.275556,0.0,0.0
288,71.75,45.2039,44.8997,133.734,100.881,96.9129,0.00367816,0.446654,20.542,166.999,0.359525,0.0,0.0
304,75.75,48.3066,48.1734,130.934,100.881,96.3995,0.00397681,0.530838,20.4452,166.138,0.407107,0.0,0.0
320,79.75,52.1351,52.141,127.429,100.873,94.6473,0.00443662,0.617047,20.3459,165.297,0.570731,0.0,0.0
336,83.75,54.8297,55.7553,131.723,100.88,95.0473,0.00482065,0.692037,20.2499,164.326,0.533505,0.0,0.0
352,87.75,58.7535,59.367,122.497,100.875,94.7603,0.00558154,0.771477,20.15,163.205,0.560155,0.0,0.0
368,91.75,61.5713,63.2464,118.661,100.867,93.3083,0.00648142,0.833264,20.0666,162.144,0.697789,0.0,0.0
384,95.75,65.4517,66.4659,126.54,100.869,92.767,0.00674921,0.903356,19.9938,160.813,0.750132,0.0,0.0
400,99.75,68.6938,70.0228,118.158,100.878,91.9055,0.00710805,0.975779,19.9113,159.652,0.834446,0.0,0.0
416,103.75,72.6769,74.6638,124.184,100.873,92.4769,0.00759623,1.0573,19.817,158.321,0.778518,0.0,0.0
432,107.75,76.4433,78.9921,114.579,100.88,90.1298,0.0079543,1.1312,19.7267,156.91,1.00941,0.0,0.0
448,111.75,79.6827,83.1291,112.588,100.89,90.9651,0.00844573,1.20981,19.6403,155.549,0.927725,0.0,0.0
464,115.75,83.4248,87.0911,116.816,100.898,91.1775,0.00935025,1.28446,19.5479,154.057,0.907457,0.0,0.0
480,119.75,86.052,90.2943,113.28,100.905,90.4181,0.0105488,1.34675,19.4717,152.736,0.983007,0.0,0.0
496,123.75,89.0045,93.9487,120.118,100.914,90.9437,0.0113554,1.40125,19.4043,151.335,0.931929,0.0,0.0
512,127.75,90.5577,96.3874,115.695,100.934,92.0734,0.0112007,1.40883,19.355,150.174,0.823138,0.0,0.0
528,131.75,92.3316,98.7099,120.89,100.935,93.0544,0.0111267,1.39147,19.3463,148.923,0.728272,0.0,0.0
544,135.75,93.2291,100.276,115.033,100.953,92.8128,0.0107589,1.31904,19.3868,147.832,0.753112,0.0,0.0
560,139.75,93.9177,100.878,125.65,100.963,90.5485,0.0105328,1.23375,19.4701,146.751,0.975322,0.0,0.0
576,143.75,93.8571,101.321,125.899,100.975,88.9949,0.00999827,1.14778,19.5633,145.68,1.1314,0.0,0.0
592,147.75,93.6817,101.434,127.44,100.988,90.258,0.00940653,1.06219,19.648,144.609,1.00632,0.0,0.0
608,151.75,92.8083,100.824,127.183,101.001,91.0615,0.00997811,1.02316,19.7505,143.688,0.928029,0.0,0.0
624,155.75,91.6923,99.5223,132.469,101.021,96.0431,0.0106418,0.981007,19.7855,143.077,0.45269,0.0,0.0
640,159.75,88.3132,97.4447,144.792,101.012,101.491,0.010128,0.920342,19.8337,142.857,-0.0423811,0.0,0.0
656,163.75,84.1808,94.2814,150.075,101.018,101.702,0.00878252,0.750039,19.9228,142.747,-0.0604039,0.0,0.0
672,167.75,81.1737,90.6214,149.453,101.022,101.664,0.00674369,0.465732,20.1363,142.657,-0.0567314,0.0,0.0
688,171.75,78.2636,86.6959,147.061,101.014,101.667,0.00518673,0.264506,20.48,142.557,-0.0577363,0.0,0.0
704,175.75,74.6579,83.8697,150.971,101.022,101.542,0.00531072,0.1813,20.7023,142.427,-0.0460751,0.0,0.0
720,179.75,72.6878,80.9312,151.854,101.012,101.614,0.0059135,0.148743,20.7847,142.387,-0.0533054,0.0,0.0
736,183.75,69.2494,78.569,149.949,101.015,101.568,0.00653313,0.134535,20.8195,142.307,-0.0488584,0.0,0.0
752,187.75,67.6794,76.0333,147.783,100.993,101.522,0.00737999,0.126709,20.834,142.257,-0.0468067,0.0,0.0
768,191.75,65.462,73.6771,151.178,100.985,101.53,0.00778257,0.122621,20.841,142.187,-0.0481599,0.0,0.0
784,195.75,63.7321,70.835,152.635,100.978,101.497,0.00844444,0.119051,20.8427,142.097,-0.0459721,0.0,0.0
800,199.75,61.7255,69.0561,150.61,100.978,101.457,0.00861401,0.117822,20.8474,142.077,-0.0423543,0.0,0.0
816,203.75,60.141,67.1505,156.751,100.963,101.433,0.00881833,0.116532,20.8483,142.026,-0.0416741,0.0,0.0
832,207.75,58.6634,65.5514,150.692,100.953,101.419,0.00909905,0.114979,20.8502,142.016,-0.0412476,0.0,0.0
848,211.75,57.7034,63.4071,148.963,100.947,101.426,0.00916221,0.113264,20.8525,141.976,-0.0424198,0.0,0.0
864,215.75,56.1743,62.4018,151.326,100.926,101.387,0.00930613,0.112158,20.8541,141.896,-0.0408281,0.0,0.0
880,219.75,55.1416,60.7868,150.024,100.916,101.31,0.00942129,0.111366,20.8568,141.876,-0.0349645,0.0,0.0
896,223.75,53.9672,59.4596,152.526,100.904,101.283,0.00972761,0.110825,20.8579,141.796,-0.0335264,0.0,0.0
912,227.75,52.8209,58.084,148.897,100.889,101.315,0.0100579,0.111804,20.8581,141.806,-0.0377079,0.0,0.0
928,231.75,52.0366,57.0205,155.24,100.874,101.338,0.0099286,0.109843,20.8568,141.706,-0.041114,0.0,0.0
944,235.75,51.5055,55.9709,149.576,100.856,101.245,0.00969016,0.108796,20.8611,141.666,-0.0345196,0.0,0.0
960,239.75,50.6342,55.1092,152.556,100.864,101.169,0.00992326,0.109221,20.8602,141.566,-0.0270265,0.0,0.0
976,243.75,50.0496,53.8744,150.109,100.877,101.157,0.0102389,0.109051,20.8588,141.506,-0.0248031,0.0,0.0
992,247.75,48.7526,52.9776,149.459,100.967,101.361,0.0103575,0.108339,20.8585,141.416,-0.0349099,0.0,0.0
1008,251.75,48.3511,52.3233,151.78,101.067,101.294,0.010055,0.107893,20.8603,141.316,-0.0201053,0.0,0.0
1024,255.75,47.7365,51.4724,149.499,101.148,101.442,0.0099021,0.106978,20.8607,141.266,-0.0260063,0.0,0.0
1040,259.75,47.51,50.9008,152.298,101.203,101.436,0.010261,0.106562,20.8611,141.226,-0.0205816,0.0,0.0
1056,263.75,46.4402,49.4466,149.314,101.246,101.476,0.0103261,0.105897,20.8646,141.166,-0.0203461,0.0,0.0
1072,267.75,45.5599,48.731,152.171,101.305,101.434,0.0100894,0.104713,20.8661,141.076,-0.0114019,0.0,0.0
1088,271.75,44.7425,48.0345,153.164,101.369,101.589,0.0102195,0.103172,20.8682,141.056,-0.0194562,0.0,0.0
1104,275.75,44.1867,47.5348,152.181,101.415,101.838,0.0102108,0.103734,20.8686,140.986,-0.0372489,0.0,0.0
1120,279.75,43.9992,46.8799,152.648,101.447,101.614,0.0105548,0.103333,20.868,140.966,-0.0147211,0.0,0.0
1136,283.75,43.7783,46.7995,153.464,101.477,101.713,0.0103938,0.102885,20.8684,140.936,-0.0208856,0.0,0.0
1152,287.75,43.8938,45.9233,153.018,101.513,101.637,0.0103673,0.101793,20.8682,140.946,-0.0109748,0.0,0.0
1168,291.75,43.1525,45.1417,155.527,101.539,101.806,0.00997965,0.100767,20.8686,140.915,-0.0234983,0.0,0.0
1184,295.75,42.6236,44.9341,150.349,101.568,101.751,0.00978775,0.100728,20.8704,140.865,-0.0161364,0.0,0.0
1200,299.75,42.9121,44.783,153.276,101.606,101.799,0.0101236,0.101545,20.8692,140.755,-0.016958,0.0,0.0
1216,303.75,42.349,44.384,153.393,101.628,101.748,0.0104077,0.101158,20.8681,140.715,-0.0106391,0.0,0.0
1232,307.75,41.9146,43.8147,152.033,101.643,101.756,0.0102292,0.101169,20.8707,140.685,-0.00997725,0.0,0.0
1248,311.75,41.2654,42.9184,152.241,101.643,101.841,0.0101057,0.10123,20.8713,140.625,-0.0174989,0.0,0.0
1264,315.75,41.5236,43.3382,152.879,101.652,101.941,0.0103589,0.10118,20.8708,140.535,-0.0254397,0.0,0.0
1280,319.75,41.0498,42.9869,154.721,101.645,101.87,0.010106,0.0995503,20.872,140.445,-0.0198479,0.0,0.0
1296,323.75,41.0753,43.1465,151.136,101.641,101.849,0.0103055,0.100642,20.8721,140.355,-0.0183352,0.0,0.0
1312,327.75,41.5179,42.3552,149.159,101.64,101.821,0.0108062,0.101498,20.8709,140.305,-0.0158785,0.0,0.0
1328,331.75,40.6744,41.8291,151.939,101.638,101.743,0.0108323,0.10132,20.8679,140.245,-0.00926151,0.0,0.0
1344,335.75,40.6757,41.8928,151.058,101.635,101.737,0.0108183,0.100503,20.868,140.195,-0.00898357,0.0,0.0
1360,339.75,40.629,42.0737,156.842,101.626,101.842,0.0105064,0.100207,20.8687,140.175,-0.0189992,0.0,0.0
1376,343.75,40.2977,41.1819,153.689,101.627,101.734,0.010285,0.100133,20.8689,140.125,-0.00944485,0.0,0.0
1392,347.75,40.0468,41.3107,153.041,101.633,101.759,0.0103177,0.0988354,20.8689,140.115,-0.0111603,0.0,0.0
1408,351.75,39.8953,40.7605,151.558,101.623,101.751,0.0102885,0.0989031,20.8709,140.125,-0.0111972,0.0,0.0
1424,355.75,39.469,40.6025,151.858,101.624,101.765,0.0107248,0.0990022,20.8738,140.025,-0.0123906,0.0,0.0
1440,359.75,39.8961,40.7241,150.723,101.617,101.76,0.0108154,0.0987364,20.8743,140.015,-0.012551,0.0,0.0
1456,363.75,39.6002,40.5832,156.092,101.602,101.725,0.010577,0.0985767,20.875,139.945,-0.0108711,0.0,0.0
1472,367.75,39.4862,40.0628,153.55,101.591,101.648,0.0105101,0.0982333,20.8752,139.915,-0.00501795,0.0,0.0
1488,371.75,39.1484,39.9412,152.85,101.589,101.713,0.0105821,0.0979596,20.8766,139.875,-0.0109657,0.0,0.0
1504,375.75,39.0001,40.0298,154.992,101.58,101.632,0.0106915,0.0977589,20.8753,139.815,-0.00454835,0.0,0.0
1520,379.75,38.8415,39.8744,151.902,101.583,101.618,0.0104928,0.0968668,20.8743,139.764,-0.0030991,0.0,0.0