File: 01_Data/Masonite_Board/Cone/Masonite_Cone_HF50Scan_230105_R5.csv
Names,Time,Stack TC,Smoke TC,Exh Press,Smoke Comp,Smoke Meas,CO Meter,CO2 Meter,O2 Meter,Sample Mass,Ext Coeff,Start Test,Flame Verif
Chan Gain,,500,500,1,1,1,1,1,1,1,1,1.0,1.0
Offset,,0,0,0.131978,0,0,0,0,0,0,0,0.0,0.0
Gain,,1,1,25.011,13.5924,14.2928,1,1,1,1.00089,1.02125,1.0,1.0
Units,sec,C,C,Pa,%,%,%,%,%,g,/m,,
Baseline,,32.46,33.3829,156.237,99.7643,99.6276,0.00101055,0.0471042,20.9348,-449.899,0.0122893,,
15,3.5,30.7282,31.6179,156.383,99.8435,99.6848,0.000601867,0.056888,20.9246,175.246,0.0142529,0.0,0.0
30,7.25,30.8013,31.5317,152.886,99.8717,99.6128,0.000572028,0.0561734,20.9244,175.136,0.0232536,0.0,0.0
45,11,30.7959,31.9439,154.284,99.8908,99.4632,0.000675113,0.0556157,20.9265,174.966,0.0384298,0.0,0.0
60,14.75,30.8255,32.2557,157.556,99.9169,99.1998,0.000795139,0.0541717,20.9281,174.846,0.0645331,0.0,0.0
75,18.5,31.0929,32.0483,151.481,99.9497,99.0214,0.000881198,0.0520875,20.9303,174.816,0.0835952,0.0,0.0
90,22.25,31.3442,31.9375,155.866,99.9962,98.901,0.00063327,0.0515863,20.931,174.726,0.0986559,0.0,0.0
105,26,31.2028,32.2302,153.445,100.022,98.6925,0.000786169,0.052826,20.9296,174.626,0.119865,0.0,0.0
120,29.75,31.4061,32.4483,152.076,100.026,98.1939,0.00069116,0.052748,20.9285,174.455,0.165643,0.0,0.0
135,33.5,31.2705,32.3279,155.261,100.065,97.8703,0.000837671,0.0527604,20.9283,174.295,0.198709,0.0,0.0
150,37.25,31.8328,32.4003,155.21,100.095,97.3141,0.000988435,0.0538921,20.9272,174.185,0.252433,0.0,0.0
165,41,31.8889,32.5269,153.523,100.131,99.0305,0.00095527,0.0558146,20.9257,173.935,0.0990361,0.0,1.0
180,44.75,32.0848,32.6115,146.22,100.142,98.9703,0.00113421,0.0572771,20.9231,173.545,0.105448,0.0,1.0
195,48.5,33.3301,34.2846,144.171,100.147,98.2559,0.00146449,0.0607457,20.9227,173.014,0.170761,0.0,0.0
210,52.25,36.2149,35.2786,139.538,100.151,98.043,0.0019653,0.116027,20.9134,172.384,0.190559,0.0,0.0
225,56,38.1667,37.8174,138.126,100.155,98.1124,0.00265344,0.225122,20.8166,171.883,0.184634,0.0,0.0
240,59.75,40.5828,40.1449,132.993,100.17,97.5602,0.00301291,0.322265,20.7004,171.202,0.236456,0.0,0.0
255,63.5,43.3766,43.063,134.5,100.161,96.6289,0.00364615,0.398561,20.592,170.442,0.321637,0.0,0.0
270,67.25,45.7694,46.1134,129.638,100.141,96.7048,0.00426146,0.459598,20.5077,169.621,0.312822,0.0,0.0
285,71,48.4075,48.9728,128.671,100.126,95.8032,0.00467659,0.523056,20.4383,168.84,0.395323,0.0,0.0
300,74.75,51.4297,52.2007,124.779,100.115,95.1725,0.00474729,0.585824,20.365,168.12,0.453568,0.0,0.0
315,78.5,54.2199,54.6475,123.044,100.122,92.6501,0.00483414,0.64407,20.2797,167.269,0.694832,0.0,0.0
330,82.25,57.1619,58.0511,123.143,100.121,94.1278,0.00509759,0.702103,20.2203,166.338,0.552961,0.0,0.0
345,86,60.3582,60.9875,123.565,100.082,92.3417,0.00565003,0.766949,20.1444,165.257,0.721135,0.0,0.0
360,89.75,63.378,65.0522,123.249,100.039,92.0228,0.00606841,0.833509,20.0735,164.246,0.748221,0.0,0.0
375,93.5,66.2704,68.9131,123.242,100.014,91.7598,0.00648209,0.905566,19.9941,163.205,0.771597,0.0,0.0
390,97.25,69.8794,71.8711,115.558,99.9758,89.3176,0.0071254,0.971771,19.9026,162.104,1.00987,0.0,0.0
405,101,73.0468,75.6438,115.21,99.9472,89.6661,0.00760309,1.02691,19.8291,160.923,0.97242,0.0,0.0
420,104.75,76.1452,79.2264,125.303,99.8937,91.4658,0.00826827,1.09104,19.7638,159.682,0.7896,0.0,0.0
435,108.5,78.5319,82.9066,119.065,99.8531,88.4017,0.00881889,1.14782,19.6897,158.281,1.09121,0.0,0.0
450,112.25,81.7592,86.0307,120.985,99.8215,89.8096,0.00919897,1.20561,19.6256,157.13,0.946822,0.0,0.0
465,116,84.5436,89.3604,116.7,99.7991,87.3566,0.00945618,1.24942,19.5723,155.869,1.1929,0.0,0.0
480,119.75,87.0071,92.101,118.502,99.7738,88.1626,0.0098324,1.30066,19.5064,154.618,1.10835,0.0,0.0
495,123.5,88.5839,94.4713,114.675,99.7547,88.8788,0.00994938,1.33392,19.4544,153.437,1.03416,0.0,0.0
510,127.25,90.0899,95.9881,123.332,99.7369,90.1019,0.01006,1.32924,19.4307,152.236,0.910121,0.0,0.0
525,131,90.7574,97.6774,120.557,99.7203,89.4079,0.0104102,1.27849,19.4447,151.235,0.977894,0.0,0.0
540,134.75,91.0892,98.0313,129.449,99.7278,90.8408,0.010422,1.22183,19.5039,150.274,0.836137,0.0,0.0
555,138.5,91.79,98.8353,129.52,99.7224,89.9183,0.0102902,1.15243,19.563,149.233,0.927093,0.0,0.0
570,142.25,91.6143,98.5028,131.384,99.7195,88.994,0.0101815,1.07905,19.6517,148.252,1.01939,0.0,0.0
585,146,90.9206,98.7468,129.365,99.7124,88.3676,0.010648,1.0325,19.7283,147.281,1.08203,0.0,0.0
600,149.75,89.9217,98.0767,136.942,99.7191,93.2415,0.0123955,1.01281,19.7716,146.701,0.601677,0.0,0.0
615,153.5,87.449,96.4598,143.73,99.7199,99.4235,0.0143817,0.97305,19.7913,146.43,0.0266657,0.0,0.0
630,157.25,84.5712,93.111,147.119,99.7178,100.46,0.0142259,0.825256,19.8487,146.28,-0.0664558,0.0,0.0
645,161,80.8179,90.4706,147.17,99.7004,100.316,0.0108624,0.57943,20.0331,146.09,-0.0551378,0.0,0.0
660,164.75,77.6073,86.8524,149.349,99.7029,100.264,0.00731857,0.354876,20.3414,146.05,-0.0503172,0.0,0.0
675,168.5,74.676,83.9392,147.541,99.7029,100.152,0.00567327,0.227034,20.604,146.04,-0.0402955,0.0,0.0
690,172.25,72.2482,81.1369,150.718,99.7016,100.298,0.005867,0.168539,20.7394,146.02,-0.053429,0.0,0.0
705,176,69.8238,78.8076,149.485,99.6992,100.234,0.00660238,0.145003,20.7973,145.93,-0.0479237,0.0,0.0
720,179.75,67.8829,76.2176,147.249,99.688,100.05,0.00722772,0.132852,20.8213,145.76,-0.0324637,0.0,0.0
735,183.5,65.8194,73.8421,149.195,99.6913,100.134,0.00776194,0.128296,20.833,145.73,-0.0396996,0.0,0.0
750,187.25,63.6487,72.0393,150.112,99.6954,100.118,0.00829287,0.125714,20.8366,145.73,-0.0379219,0.0,0.0
765,191,62.1722,70.0696,152.32,99.7012,100.153,0.00863861,0.122586,20.8397,145.68,-0.0404832,0.0,0.0
780,194.75,60.5374,68.0772,153.655,99.7046,100.148,0.00895596,0.120267,20.8421,145.61,-0.0397173,0.0,0.0
795,198.5,59.0306,66.6619,149.445,99.6921,100.164,0.00941301,0.117792,20.846,145.48,-0.0423173,0.0,0.0
810,202.25,57.6397,65.0119,150.658,99.695,100.137,0.00928942,0.115639,20.8496,145.43,-0.0396385,0.0,0.0
825,206,57.1663,62.7861,147.985,99.7166,100.048,0.00921292,0.115024,20.8503,145.45,-0.0296967,0.0,0.0
840,209.75,55.1927,61.9989,149.253,99.7303,100.123,0.00934103,0.114115,20.8489,145.379,-0.0351822,0.0,0.0
855,213.5,54.2437,60.5354,148.372,99.7489,100.115,0.00960848,0.113949,20.8507,145.349,-0.0328035,0.0,0.0
870,217.25,52.9797,59.4871,152.713,99.761,100.063,0.00962451,0.112799,20.852,145.199,-0.0270774,0.0,0.0
885,221,52.7232,58.0204,148.095,99.7788,100.038,0.00935339,0.111606,20.8543,145.129,-0.0232108,0.0,0.0
900,224.75,51.9043,56.572,149.295,99.8066,100.333,0.00938162,0.111507,20.856,145.169,-0.0471593,0.0,0.0
915,228.5,50.8423,55.7472,149.221,99.8419,100.018,0.00959467,0.111933,20.8563,145.119,-0.015755,0.0,0.0
930,232.25,50.2119,54.405,152.702,99.8477,100.11,0.00990676,0.111556,20.8546,145.069,-0.0234731,0.0,0.0
945,236,48.8631,54.2164,152.73,99.8655,100.143,0.00977682,0.109987,20.8554,144.919,-0.024878,0.0,0.0
960,239.75,48.8398,52.3394,151.291,99.9082,100.168,0.00980903,0.109285,20.8576,144.859,-0.0232312,0.0,0.0
975,243.5,47.3609,51.26,152.286,99.9526,100.283,0.00999374,0.109655,20.8587,144.909,-0.0295446,0.0,0.0
990,247.25,47.0681,50.4996,152.33,99.9928,100.17,0.00984,0.109608,20.8591,144.839,-0.0158807,0.0,0.0
1005,251,46.4693,49.8231,157.863,100.019,100.329,0.0100009,0.109097,20.8592,144.789,-0.0277662,0.0,0.0
1020,254.75,46.2516,49.4817,149.567,100.037,100.313,0.0103128,0.108842,20.8592,144.659,-0.0246521,0.0,0.0
1035,258.5,46.0136,48.697,150.749,100.062,100.324,0.0102329,0.108091,20.8592,144.589,-0.0233971,0.0,0.0
1050,262.25,45.1493,48.2592,151.468,100.113,100.337,0.00995475,0.108563,20.861,144.609,-0.0200357,0.0,0.0
1065,266,44.8116,47.749,154.957,100.138,100.401,0.00982544,0.108176,20.8602,144.579,-0.0234555,0.0,0.0
1080,269.75,44.5615,47.615,148.289,100.162,100.365,0.00993154,0.107626,20.8605,144.539,-0.0181131,0.0,0.0
1095,273.5,44.2082,46.418,155.88,100.165,100.347,0.00988595,0.107031,20.8613,144.379,-0.0162578,0.0,0.0
1110,277.25,43.9047,46.2084,151.104,100.182,100.347,0.00993713,0.107301,20.8605,144.349,-0.014736,0.0,0.0
1125,281,43.3687,45.8246,158.732,100.2,100.418,0.0101417,0.106776,20.8604,144.389,-0.0195236,0.0,0.0
1140,284.75,43.2874,45.3935,148.041,100.23,100.42,0.00997211,0.107288,20.8612,144.329,-0.0170094,0.0,0.0
1155,288.5,43.0764,44.5627,151.147,100.23,100.426,0.00985696,0.10681,20.8616,144.268,-0.0174786,0.0,0.0
1170,292.25,42.2974,44.7079,152.513,100.227,100.423,0.00983514,0.10643,20.8617,144.138,-0.0175027,0.0,0.0
1185,296,42.0261,44.1625,154.777,100.231,100.554,0.0099863,0.106216,20.8628,144.088,-0.0287603,0.0,0.0
1200,299.75,42.1008,43.7026,153.738,100.246,100.411,0.0101382,0.105997,20.8637,144.088,-0.0146708,0.0,0.0
1215,303.5,41.7707,43.1338,154.604,100.259,100.38,0.0101219,0.105523,20.8638,144.058,-0.0107973,0.0,0.0
1230,307.25,41.5717,43.2025,151.22,100.273,100.422,0.010011,0.105341,20.8633,144.018,-0.0133493,0.0,0.0
1245,311,40.9715,42.6324,152.522,100.252,100.499,0.00993294,0.105051,20.863,143.848,-0.0220085,0.0,0.0
1260,314.75,41.0082,42.818,153.324,100.266,100.351,0.00981118,0.105075,20.863,143.808,-0.00759506,0.0,0.0
1275,318.5,40.7596,42.546,152.636,100.288,100.347,0.00974822,0.105319,20.8636,143.858,-0.00528295,0.0,0.0
1290,322.25,41.4479,42.08,155.398,100.287,100.465,0.00973743,0.105321,20.8642,143.798,-0.0158625,0.0,0.0
1305,326,40.696,42.0023,153.938,100.288,100.408,0.00985135,0.104721,20.8647,143.748,-0.0107326,0.0,0.0
1320,329.75,40.2045,41.6734,150.793,100.283,100.426,0.00977169,0.104296,20.8644,143.608,-0.0127344,0.0,0.0
1335,333.5,39.9422,41.5216,149,100.287,100.348,0.00987545,0.104274,20.8643,143.538,-0.00550895,0.0,0.0
1350,337.25,39.8987,41.1985,151.749,100.311,100.452,0.0100471,0.104246,20.8648,143.548,-0.0126226,0.0,0.0
1365,341,40.0826,40.6157,153.051,100.338,100.35,0.00981557,0.103448,20.8663,143.518,-0.00114702,0.0,0.0
1380,344.75,39.1674,40.7013,148.299,100.342,100.432,0.0102214,0.103852,20.8666,143.478,-0.0080568,0.0,0.0
1395,348.5,39.5081,40.1395,153.515,100.343,100.452,0.0104324,0.103537,20.8668,143.338,-0.00977252,0.0,0.0
1410,352.25,39.5911,40.6009,150.946,100.389,100.388,0.010298,0.102901,20.867,143.268,0.000132421,0.0,0.0
1425,356,39.4779,40.528,149.727,100.406,100.498,0.0102285,0.103081,20.867,143.328,-0.0082663,0.0,0.0
1440,359.75,39.2597,39.8542,150.865,100.452,100.625,0.0102586,0.10307,20.8664,143.258,-0.0153902,0.0,0.0
1443,360.5,38.978,40.313,150.31,100.438,100.497,0.0102337,0.103037,20.8659,143.228,-0.00533905,0.0,0.0