File: 01_Data/Masonite_Board/Cone/Masonite_Cone_HF50Scan_230105_R4.csv
Names,Time,Stack TC,Smoke TC,Exh Press,Smoke Comp,Smoke Meas,CO Meter,CO2 Meter,O2 Meter,Sample Mass,Ext Coeff,Start Test,Flame Verif
Chan Gain,,500,500,1,1,1,1,1,1,1,1,1.0,1.0
Offset,,0,0,0.131978,0,0,0,0,0,0,0,0.0,0.0
Gain,,1,1,25.011,13.4278,14.1503,1,1,1,1.00089,1.02125,1.0,1.0
Units,sec,C,C,Pa,%,%,%,%,%,g,/m,,
Baseline,,32.2387,33.0704,156.357,98.9645,99.0801,0.000796806,0.0467086,20.9384,-449.165,-0.0104518,,
16,3.75,31.0655,31.8798,155.159,100.195,100.265,0.000831357,0.0587463,20.9266,174.626,-0.00621264,0.0,0.0
32,7.75,30.8163,31.8666,157.297,100.337,100.356,0.000791662,0.0573608,20.9243,174.505,-0.00168427,0.0,0.0
48,11.75,31.4352,32.1576,158.716,100.457,100.254,0.000886735,0.0558933,20.9267,174.415,0.0180968,0.0,0.0
64,15.75,31.159,32.0633,157.094,100.564,100.155,0.00105682,0.0528448,20.9276,174.275,0.036505,0.0,0.0
80,19.75,31.0738,32.2785,151.623,100.648,99.9499,0.00120462,0.0497526,20.9317,174.205,0.0623158,0.0,0.0
96,23.75,31.0769,32.3341,154.858,100.697,99.9525,0.00117148,0.0481825,20.9358,174.035,0.0664594,0.0,0.0
112,27.75,31.2762,32.338,150.212,100.716,99.4417,0.000909978,0.0498749,20.9366,173.975,0.114113,0.0,0.0
128,31.75,31.1252,32.2052,153.645,100.721,99.348,0.000933687,0.0534824,20.9329,173.755,0.122924,0.0,0.0
144,35.75,31.8365,32.4311,155.357,100.691,98.2986,0.00111587,0.0522433,20.9311,173.625,0.215387,0.0,0.0
160,39.75,31.126,32.5033,151.951,100.651,97.9281,0.00106209,0.0506959,20.9341,173.434,0.245717,0.0,0.0
176,43.75,31.7221,32.3018,155.929,100.599,99.6269,0.00127645,0.0502943,20.935,173.164,0.0869728,0.0,1.0
192,47.75,32.0915,32.6857,146.924,100.51,99.7707,0.00137199,0.0506569,20.9345,172.734,0.0661657,0.0,1.0
208,51.75,34.2944,34.0547,142.837,100.411,98.5564,0.00145554,0.0541019,20.9334,172.193,0.167025,0.0,0.0
224,55.75,36.2642,35.9727,137.278,100.316,98.1673,0.00231136,0.134735,20.9262,171.633,0.193937,0.0,0.0
240,59.75,38.6422,38.3303,138.89,100.239,98.0637,0.002994,0.249401,20.8003,170.952,0.196555,0.0,0.0
256,63.75,41.0641,41.1058,138.579,100.149,97.0325,0.00352092,0.348216,20.669,170.222,0.283161,0.0,0.0
272,67.75,44.2937,43.5972,130.091,100.067,96.7462,0.0035917,0.421025,20.5692,169.451,0.302336,0.0,0.0
288,71.75,47.1288,46.3596,132.185,99.9948,94.97,0.00376708,0.490858,20.4746,168.56,0.461868,0.0,0.0
304,75.75,49.8734,49.9754,124.284,99.9367,95.2317,0.00406165,0.557654,20.405,167.749,0.432003,0.0,0.0
320,79.75,53.1707,53.2017,125.799,99.8961,94.1914,0.004213,0.623743,20.3258,166.829,0.526762,0.0,0.0
336,83.75,56.3287,56.5821,129.22,100.015,94.1578,0.00467927,0.693948,20.2442,165.798,0.54058,0.0,0.0
352,87.75,59.5113,60.357,129.096,100.13,92.3864,0.00551609,0.7594,20.1662,164.817,0.7211,0.0,0.0
368,91.75,63.1146,64.3734,116.363,100.24,92.2883,0.00594277,0.83357,20.0815,163.626,0.740393,0.0,0.0
384,95.75,66.9102,68.3042,116.38,100.321,91.8738,0.00647965,0.914517,19.982,162.515,0.787936,0.0,0.0
400,99.75,70.8115,72.7106,115.692,100.388,91.977,0.00713889,1.0005,19.9006,161.184,0.783878,0.0,0.0
416,103.75,74.2814,76.5543,120.665,100.442,90.0143,0.00757508,1.07751,19.7941,159.993,0.981897,0.0,0.0
432,107.75,77.8437,80.6539,116.764,100.47,91.1682,0.00812162,1.13942,19.7054,158.611,0.870351,0.0,0.0
448,111.75,81.3739,84.6877,113.254,100.487,92.3704,0.00905751,1.21392,19.6337,157.19,0.754525,0.0,0.0
464,115.75,84.3734,88.6224,113.579,100.489,91.6985,0.00976854,1.29394,19.5385,155.789,0.820111,0.0,0.0
480,119.75,86.8726,92.4664,108.907,100.477,92.6031,0.00965108,1.36719,19.4543,154.227,0.731067,0.0,0.0
496,123.75,89.736,95.0305,121.253,100.446,92.3449,0.00977549,1.40277,19.3802,153.076,0.753305,0.0,0.0
512,127.75,91.3868,97.3264,114.341,100.418,90.5347,0.010168,1.4167,19.3448,151.785,0.92814,0.0,0.0
528,131.75,92.3072,99.0133,121.765,100.385,90.1274,0.0102183,1.36611,19.3437,150.734,0.965563,0.0,0.0
544,135.75,92.9762,100.105,120.915,100.351,92.2508,0.00992103,1.27886,19.4122,149.593,0.75396,0.0,0.0
560,139.75,93.3227,100.532,120.186,100.31,92.5215,0.00995869,1.16862,19.5147,148.602,0.724047,0.0,0.0
576,143.75,93.0821,101.063,125.946,100.263,91.7663,0.00950178,1.0712,19.6355,147.601,0.793266,0.0,0.0
592,147.75,93.0274,100.532,131.267,100.204,90.8102,0.00949898,1.01707,19.7403,146.601,0.881852,0.0,0.0
608,151.75,91.4837,100.327,132.091,100.157,95.1916,0.00972321,0.974972,19.7931,145.95,0.455522,0.0,0.0
624,155.75,88.4274,98.1166,139.37,100.126,100.504,0.00878299,0.924804,19.8495,145.67,-0.0336813,0.0,0.0
640,159.75,85.0188,94.8126,147.489,100.077,100.806,0.00767161,0.783697,19.9057,145.54,-0.0650234,0.0,0.0
656,163.75,81.1823,90.8504,149.495,100.02,100.83,0.00660067,0.490629,20.167,145.389,-0.0723094,0.0,0.0
672,167.75,78.4644,87.0453,148.839,99.9641,100.749,0.00508242,0.284419,20.4992,145.4,-0.0700865,0.0,0.0
688,171.75,75.3404,84.4031,148.987,99.8891,100.631,0.00505325,0.195065,20.6801,145.209,-0.066282,0.0,0.0
704,175.75,72.9415,81.2906,153.063,99.8215,100.535,0.00572153,0.158529,20.7709,145.209,-0.0637714,0.0,0.0
720,179.75,69.6431,78.8043,148.012,99.7543,100.504,0.0062148,0.142451,20.8076,145.119,-0.0670718,0.0,0.0
736,183.75,67.8213,76.2178,149.567,99.6654,100.517,0.00674146,0.133404,20.8229,145.119,-0.0762543,0.0,0.0
752,187.75,65.9219,73.8258,145.79,99.6789,100.344,0.00725728,0.129319,20.8343,145.089,-0.0595541,0.0,0.0
768,191.75,63.6554,72.0256,151.043,99.6793,100.263,0.00791108,0.128466,20.8374,144.999,-0.0522666,0.0,0.0
784,195.75,62.0544,69.5811,150.337,99.6826,100.325,0.00807373,0.125062,20.8353,144.979,-0.0575262,0.0,0.0
800,199.75,61.0234,67.2682,151.755,99.7018,100.363,0.00854427,0.120456,20.8387,144.899,-0.0592267,0.0,0.0
816,203.75,58.9172,66.317,148.241,99.7072,100.295,0.00903192,0.117688,20.8444,144.859,-0.0526173,0.0,0.0
832,207.75,57.8,64.1896,150.483,99.715,100.355,0.00891209,0.116545,20.8473,144.759,-0.0572774,0.0,0.0
848,211.75,56.6672,62.5087,153.083,99.7289,100.369,0.00883833,0.114768,20.8496,144.739,-0.0573371,0.0,0.0
864,215.75,55.2657,61.3973,149.508,99.7441,100.282,0.00898901,0.113849,20.8502,144.629,-0.0482238,0.0,0.0
880,219.75,54.1188,60.1213,151.281,99.7428,100.471,0.00946756,0.11314,20.8534,144.559,-0.0651772,0.0,0.0
896,223.75,53.2001,58.9332,149.188,99.7539,100.283,0.00983459,0.112329,20.8541,144.459,-0.0474181,0.0,0.0
912,227.75,52.6647,57.1319,153.971,99.7699,100.312,0.009991,0.11224,20.8561,144.369,-0.0485674,0.0,0.0
928,231.75,51.3727,56.5591,150.291,99.7867,100.422,0.00972598,0.111631,20.8565,144.309,-0.0568491,0.0,0.0
944,235.75,50.9001,55.0548,157.739,99.8027,100.277,0.00957139,0.11161,20.857,144.228,-0.0424616,0.0,0.0
960,239.75,50.3186,54.3037,150.677,99.8154,100.362,0.00966034,0.11157,20.8571,144.198,-0.0489185,0.0,0.0
976,243.75,49.2179,53.6144,152.298,99.8322,100.287,0.00952296,0.110715,20.8583,144.148,-0.040701,0.0,0.0
992,247.75,48.6148,52.7148,152.277,99.8395,100.388,0.00941516,0.110743,20.8582,144.078,-0.0490995,0.0,0.0
1008,251.75,47.5595,51.4413,153.971,99.8563,100.244,0.00943557,0.109951,20.8581,144.038,-0.0346735,0.0,0.0
1024,255.75,46.992,50.5073,155.555,99.8658,100.257,0.00991147,0.109221,20.8581,144.058,-0.0349854,0.0,0.0
1040,259.75,46.5451,49.6343,152.593,99.8768,100.363,0.0100346,0.109018,20.8581,143.988,-0.043518,0.0,0.0
1056,263.75,46.2128,48.7968,150.143,99.8748,100.314,0.00970586,0.107936,20.8603,143.958,-0.0392684,0.0,0.0
1072,267.75,45.5492,48.5221,152.321,99.8965,100.409,0.00971954,0.108668,20.8614,143.918,-0.0458395,0.0,0.0
1088,271.75,45.0803,47.875,151.375,99.8936,100.373,0.00966941,0.108869,20.8614,143.838,-0.0428983,0.0,0.0
1104,275.75,44.8858,47.0206,152.299,99.8961,100.348,0.00963463,0.107766,20.862,143.748,-0.0404419,0.0,0.0
1120,279.75,44.0858,47.2293,155.301,99.9018,100.355,0.00968541,0.107225,20.8621,143.728,-0.0405058,0.0,0.0
1136,283.75,44.4203,46.6077,152.611,99.9137,100.428,0.00947023,0.106814,20.8633,143.658,-0.0460295,0.0,0.0
1152,287.75,43.8339,45.9985,150.881,99.928,100.305,0.00940151,0.106997,20.8642,143.588,-0.033759,0.0,0.0
1168,291.75,43.1055,45.4093,155.847,99.9207,100.286,0.00952604,0.107136,20.8629,143.518,-0.0326845,0.0,0.0
1184,295.75,42.9425,45.2674,154.134,99.9264,100.34,0.00933253,0.10676,20.8642,143.458,-0.0369905,0.0,0.0
1200,299.75,42.7284,44.788,152.544,99.9162,100.311,0.00925175,0.106669,20.8648,143.378,-0.0353639,0.0,0.0
1216,303.75,42.4301,44.1292,151.224,99.9244,100.358,0.00955873,0.105805,20.8651,143.268,-0.0387557,0.0,0.0
1232,307.75,42.383,43.9028,151.413,99.9297,100.307,0.00963007,0.106161,20.8669,143.178,-0.0337274,0.0,0.0
1248,311.75,41.7194,44.0845,151.114,99.9272,100.472,0.00948854,0.105747,20.8655,143.178,-0.0487457,0.0,0.0
1264,315.75,42.0622,43.0816,154.265,99.933,100.391,0.00941191,0.105129,20.8655,143.077,-0.0409515,0.0,0.0
1280,319.75,41.9358,42.9213,154.716,99.9428,100.213,0.00926003,0.105149,20.8668,143.017,-0.0241793,0.0,0.0
1296,323.75,41.3299,43.1541,153.188,99.9616,100.303,0.00917525,0.104881,20.8672,142.977,-0.0305154,0.0,0.0
1312,327.75,40.9315,42.3714,154.469,99.9604,100.322,0.00942203,0.104405,20.8672,142.947,-0.0323227,0.0,0.0
1328,331.75,41.1463,41.8916,150.385,99.9743,100.446,0.0097659,0.103905,20.8673,142.917,-0.042173,0.0,0.0
1344,335.75,40.7322,42.0489,153.422,99.9629,100.247,0.00986309,0.103868,20.8673,142.907,-0.025429,0.0,0.0
1360,339.75,40.7405,41.736,151.142,99.9768,100.347,0.00961416,0.103734,20.8673,142.827,-0.0331288,0.0,0.0
1376,343.75,40.3096,41.6089,153.867,99.9756,100.343,0.00958589,0.103398,20.8673,142.787,-0.0328533,0.0,0.0
1392,347.75,40.1214,41.3183,154.168,99.9871,100.411,0.00988881,0.103357,20.8673,142.737,-0.0379144,0.0,0.0
1408,351.75,40.0834,41.4752,149.181,99.9821,100.417,0.0100887,0.103336,20.8665,142.657,-0.0388555,0.0,0.0
1424,355.75,39.9976,41.089,151.34,99.9805,100.191,0.0099503,0.102554,20.8659,142.627,-0.0188312,0.0,0.0
1440,359.75,39.5554,40.5385,151.224,99.9727,100.352,0.0098632,0.103074,20.8681,142.577,-0.0339204,0.0,0.0
1456,363.75,39.7511,40.3901,153.855,99.9793,100.148,0.00973929,0.102123,20.8685,142.487,-0.0151185,0.0,0.0
1472,367.75,39.2986,40.9951,154.405,99.9842,100.286,0.00986718,0.102166,20.8701,142.407,-0.0270303,0.0,0.0
1486,371.25,39.7135,40.5699,151.983,99.9739,100.294,0.0100826,0.101522,20.8711,142.367,-0.0286425,0.0,0.0