File: 01_Data/Masonite_Board/Cone/Masonite_Cone_HF15Scan_230106_R2.csv
Names,Time,Stack TC,Smoke TC,Exh Press,Smoke Comp,Smoke Meas,CO Meter,CO2 Meter,O2 Meter,Sample Mass,Ext Coeff,Start Test,Flame Verif
Chan Gain,,500,500,1,1,1,1,1,1,1,1,1.0,1.0
Offset,,0,0,0.303564,0,0,0,0,0,0,0,0.0,0.0
Gain,,1,1,25.011,13.2774,14.4219,1,1,1,1.00089,1.1066,1.0,1.0
Units,sec,C,C,Pa,%,%,%,%,%,g,/m,,
Baseline,,21.5597,22.1098,150.188,99.8375,99.623,0.000444664,0.0482197,20.9605,-443.47,0.0208792,,
30,7.25,19.351,20.0679,148.137,99.3494,99.1105,0.000736825,0.0564437,20.9526,180.772,0.0233651,0.0,0.0
60,14.75,19.5477,20.2157,150.578,99.1322,98.9411,0.000714032,0.056698,20.9497,180.772,0.0187326,0.0,0.0
90,22.25,19.6383,19.9448,151.298,99.1058,98.8935,0.000302443,0.0548578,20.9507,180.682,0.0208171,0.0,0.0
120,29.75,19.3121,19.9191,152.185,99.1662,98.9261,0.000224722,0.0552781,20.9516,180.652,0.0235325,0.0,0.0
150,37.25,19.5204,20.1593,147.134,99.2136,99.0282,0.00046777,0.0542431,20.9529,180.521,0.0181586,0.0,0.0
180,44.75,19.6117,20.2582,150.549,99.3011,99.022,0.000566484,0.0504643,20.9586,180.491,0.0273215,0.0,0.0
210,52.25,19.4333,19.871,153.121,99.3773,99.1052,0.000373714,0.0491848,20.9602,180.411,0.026613,0.0,0.0
240,59.75,19.9161,19.9786,152.016,99.4515,99.2958,0.0007384,0.0489121,20.9619,180.361,0.015206,0.0,0.0
270,67.25,19.737,20.0756,150.058,99.5674,99.3451,0.000585209,0.0499248,20.96,180.241,0.0216934,0.0,0.0
300,74.75,19.1652,20.5927,147.275,99.6277,99.4243,0.00049683,0.0524039,20.9594,180.211,0.019839,0.0,0.0
330,82.25,19.8941,20.5437,150.693,99.6707,99.3785,0.000628377,0.0514425,20.9565,180.141,0.0284927,0.0,0.0
360,89.75,19.9266,20.721,149.952,99.6719,99.3733,0.000786828,0.0493733,20.9598,179.991,0.0291284,0.0,0.0
390,97.25,19.8374,20.6151,149.962,99.648,99.4512,0.000290136,0.0488422,20.9611,179.941,0.0191923,0.0,0.0
420,104.75,20.158,20.8792,150.738,99.5783,99.2399,0.000234,0.0486077,20.9616,179.871,0.0330433,0.0,0.0
450,112.25,20.2949,20.99,149.743,99.4255,99.0427,0.000686058,0.0488666,20.9606,179.741,0.0374453,0.0,0.0
480,119.75,19.964,20.4108,152.709,99.2116,98.8491,0.000493879,0.0489065,20.9591,179.641,0.0355339,0.0,0.0
510,127.25,19.8399,20.5261,147.175,98.9146,98.5577,0.000384629,0.0491795,20.9599,179.49,0.0350854,0.0,0.0
540,134.75,19.9593,20.5022,148.559,98.6338,98.2505,0.000683112,0.04877,20.9622,179.34,0.0377934,0.0,0.0
570,142.25,19.7434,20.954,151.2,98.4381,98.1017,0.00044513,0.0485834,20.964,179.27,0.033222,0.0,0.0
600,149.75,19.8774,20.6963,147.773,98.4085,98.0322,0.000592869,0.0495152,20.9634,179.13,0.0371883,0.0,0.0
630,157.25,20.1515,20.7415,150.157,98.5159,98.1202,0.000518978,0.0491032,20.9617,179.05,0.0390613,0.0,0.0
660,164.75,20.2031,20.5462,146.549,98.682,98.3319,0.00041713,0.0493424,20.9634,178.93,0.0344962,0.0,0.0
690,172.25,19.7584,20.2098,149.644,98.8781,98.603,0.000219915,0.0511798,20.9621,178.82,0.0270411,0.0,0.0
720,179.75,19.9447,20.6263,154.223,99.0301,98.7157,0.000324923,0.0547269,20.9568,178.74,0.0308611,0.0,0.0
750,187.25,19.5423,20.0776,150.761,99.1569,98.7663,0.000429293,0.0527667,20.9559,178.64,0.0383098,0.0,0.0
780,194.75,18.9696,20.1197,149.425,99.2582,98.9107,0.000457367,0.0496039,20.9613,178.56,0.0340431,0.0,0.0
810,202.25,18.8307,19.5553,146.062,99.2647,98.9525,0.000449395,0.049176,20.9616,178.44,0.030575,0.0,0.0
840,209.75,19.0254,19.672,148.407,99.2861,98.9014,0.000574195,0.0488165,20.9599,178.419,0.0376851,0.0,0.0
870,217.25,19.531,19.7583,151.091,99.2756,98.8429,0.000684549,0.0488725,20.9607,178.389,0.0424019,0.0,0.0
900,224.75,19.0344,19.7649,148.796,99.2371,98.8315,0.000561967,0.0488297,20.9619,178.359,0.0397597,0.0,0.0
930,232.25,19.5586,20.402,152.404,99.2343,98.8231,0.000455997,0.0488486,20.962,178.329,0.0403048,0.0,0.0
960,239.75,19.279,20.4504,149.347,99.2132,98.6387,0.000265952,0.0490071,20.9629,178.219,0.056374,0.0,0.0
990,247.25,19.3337,20.2077,148.279,99.1913,98.6369,0.000324076,0.0491576,20.9629,178.239,0.0544065,0.0,0.0
1020,254.75,19.2962,20.3516,151.66,99.0965,98.5766,0.000278797,0.04917,20.9627,178.199,0.0510585,0.0,0.0
1050,262.25,19.5077,20.3831,147.284,98.9948,98.3781,0.000679942,0.0491119,20.9608,178.179,0.0606574,0.0,0.0
1080,269.75,20.067,20.6555,151.35,98.8712,98.166,0.000543714,0.049284,20.9612,178.139,0.0694862,0.0,0.0
1110,277.25,19.6346,20.7585,151.13,98.7383,98.0269,0.000557788,0.050756,20.9604,178.079,0.0701904,0.0,0.0
1140,284.75,19.7505,20.545,148.766,98.6127,97.769,0.000409194,0.0502185,20.9602,178.089,0.0834067,0.0,0.0
1170,292.25,20.0613,20.54,152.331,98.4968,97.5481,0.000527657,0.0496037,20.9598,178.049,0.0939547,0.0,0.0
1200,299.75,20.0117,20.6719,155.027,98.4312,97.4169,0.000306503,0.049438,20.9624,177.989,0.100543,0.0,0.0
1230,307.25,20.0073,21.0073,155.958,98.4393,97.3962,0.00079601,0.0494811,20.9601,177.939,0.103404,0.0,0.0
1260,314.75,19.6078,20.8413,151.312,98.5268,97.3285,0.000618988,0.0496668,20.9597,177.859,0.118788,0.0,0.0
1290,322.25,19.8434,20.5128,149.47,98.7047,97.3491,0.00102099,0.0498907,20.9617,177.829,0.134234,0.0,0.0
1320,329.75,20.2928,20.9026,153.06,98.9466,97.618,0.000809428,0.0498695,20.9609,177.759,0.131218,0.0,0.0
1350,337.25,20.0166,21.3366,147.11,99.1816,97.6916,0.000605177,0.050246,20.9588,177.699,0.146939,0.0,0.0
1380,344.75,19.7693,20.9113,151.098,99.4089,97.9477,0.000960998,0.0506427,20.9604,177.629,0.143743,0.0,0.0
1410,352.25,20.142,21.6767,146.52,99.5787,98.0221,0.00101249,0.0572295,20.9565,177.529,0.152938,0.0,0.0
1440,359.75,20.2971,20.6523,148.031,99.6865,97.9481,0.00115477,0.0633467,20.9458,177.449,0.170765,0.0,0.0
1470,367.25,20.2421,21.4431,146.945,99.7116,97.7853,0.00111648,0.0569515,20.9502,177.369,0.189363,0.0,0.0
1500,374.75,20.4597,21.2141,150.288,99.6265,98.0124,0.000855363,0.0533099,20.9554,177.238,0.158557,0.0,0.0
1530,382.25,20.2107,21.6646,148.023,99.4964,97.4622,0.00124626,0.0532653,20.9557,177.158,0.200516,0.0,0.0
1560,389.75,20.4411,21.0812,146.562,99.3571,97.5428,0.0012759,0.0530556,20.9561,177.028,0.178888,0.0,0.0
1590,397.25,20.3788,21.3024,148.603,99.2306,97.104,0.00125436,0.0544187,20.9562,176.928,0.210297,0.0,0.0
1620,404.75,20.393,21.0576,149.693,99.1103,97.0058,0.00123641,0.0604424,20.9536,176.798,0.208333,0.0,0.0
1650,412.25,20.4569,21.1458,151.977,99.5394,97.3425,0.00151208,0.0580866,20.9509,176.628,0.216635,0.0,0.0
1680,419.75,20.9789,21.5975,147.413,99.8919,97.3064,0.00178925,0.0538699,20.9546,176.518,0.254553,0.0,1.0
1710,427.25,20.2475,21.4088,145.742,99.9543,97.8658,0.00164377,0.0563709,20.9553,176.328,0.204971,0.0,0.0
1740,434.75,19.9846,21.9599,144.234,99.7319,99.6202,0.00175698,0.0573672,20.9508,176.057,0.0108771,0.0,1.0
1770,442.25,23.7528,26.8682,134.452,99.5937,98.4684,0.00225634,0.0989427,20.9435,175.257,0.110305,0.0,0.0
1800,449.75,28.9663,34.3885,126.883,99.9353,99.1264,0.00234064,0.303559,20.7792,174.146,0.0788923,0.0,0.0
1830,457.25,34.0674,39.8615,125.64,100.268,99.283,0.00241842,0.437815,20.5649,173.115,0.0958202,0.0,0.0
1860,464.75,38.5516,45.989,127.283,100.362,99.4798,0.00332647,0.488781,20.4698,171.914,0.085701,0.0,0.0
1890,472.25,41.7753,50.2483,132.751,100.206,99.1484,0.0032709,0.519927,20.4281,170.703,0.103033,0.0,0.0
1920,479.75,45.3018,54.4697,121.564,99.8271,97.9904,0.00319368,0.544186,20.3977,169.451,0.180259,0.0,0.0
1950,487.25,48.6177,57.5293,129.019,99.3096,97.2404,0.00334222,0.572015,20.3681,168.07,0.204393,0.0,0.0
1980,494.75,51.3215,61.0908,127.838,98.8258,96.4108,0.00374876,0.604348,20.3286,166.719,0.240161,0.0,0.0
2010,502.25,53.9291,64.0506,123.311,98.511,95.6991,0.00393755,0.626081,20.3013,165.368,0.281107,0.0,0.0
2040,509.75,56.2287,66.4896,122.251,98.4867,94.4082,0.00403768,0.643747,20.279,163.907,0.410539,0.0,0.0
2070,517.25,57.8478,68.7595,130.58,98.6958,94.8541,0.00431087,0.660621,20.2556,162.495,0.385391,0.0,0.0
2100,524.75,59.9664,70.1083,118.587,98.9936,93.7542,0.00484852,0.676274,20.2384,161.014,0.527851,0.0,0.0
2130,532.25,60.8293,71.3936,126.136,99.2813,93.9003,0.00504156,0.676132,20.2271,159.503,0.540904,0.0,0.0
2160,539.75,62.7448,73.1562,127.914,99.5054,89.868,0.0055984,0.684969,20.2191,157.971,0.988854,0.0,0.0
2190,547.25,64.4886,75.4537,121.49,99.6375,93.4307,0.00651711,0.707759,20.1986,156.32,0.624334,0.0,0.0
2220,554.75,66.1861,76.8464,125.746,99.7047,91.2733,0.00749168,0.784609,20.1424,154.578,0.857663,0.0,0.0
2250,562.25,63.7026,72.4063,134.199,99.71,95.0341,0.00969248,0.807266,20.0444,153.597,0.466227,0.0,0.0
2280,569.75,57.9948,65.7585,140.741,99.633,99.5643,0.00982255,0.577023,20.1853,153.097,0.00669768,0.0,0.0
2310,577.25,52.7972,57.7389,138.797,99.5374,99.5779,0.00524633,0.309492,20.5323,152.857,-0.00395311,0.0,0.0
2340,584.75,48.0704,51.9284,146.675,99.4049,99.4362,0.00715209,0.172717,20.7687,152.797,-0.00305829,0.0,0.0
2370,592.25,41.726,44.2166,142.44,99.3052,99.4644,0.0127134,0.114053,20.8559,152.636,-0.0155462,0.0,0.0
2400,599.75,38.3993,40.324,143.176,99.2302,99.3601,0.0149235,0.0876361,20.8944,152.596,-0.012692,0.0,0.0
2430,607.25,35.9746,37.242,146.925,99.2217,99.3358,0.014753,0.0779561,20.9115,152.556,-0.0111592,0.0,0.0
2460,614.75,33.8387,34.3823,143.459,99.1642,99.1875,0.0141516,0.075887,20.9144,152.456,-0.00228451,0.0,0.0
2490,622.25,31.7417,32.521,144.114,99.1565,99.1554,0.0135635,0.0744715,20.9154,152.416,0.000106459,0.0,0.0
2520,629.75,30.2005,30.9555,145.772,99.1431,99.2263,0.0141115,0.0747207,20.9146,152.336,-0.00813713,0.0,0.0
2550,637.25,29.4976,29.4101,147.561,99.1443,99.1083,0.0143872,0.074532,20.9141,152.296,0.00352756,0.0,0.0
2580,644.75,28.1195,28.5589,145.598,99.1958,99.2408,0.0151838,0.0753668,20.9127,152.326,-0.0044017,0.0,0.0
2610,652.25,27.7744,27.9134,147.491,99.2278,99.2918,0.016333,0.0759972,20.9132,152.086,-0.00626229,0.0,0.0
2640,659.75,27.0955,27.2527,146.994,99.2898,99.3697,0.017138,0.0766302,20.9119,152.156,-0.00781228,0.0,0.0
2670,667.25,26.6393,26.5727,147.408,99.2943,99.3662,0.0179954,0.0774808,20.9104,152.086,-0.00703233,0.0,0.0
2700,674.75,25.4437,26.0583,143.398,99.3165,99.272,0.0184833,0.0779999,20.9084,152.006,0.00435113,0.0,0.0
2730,682.25,25.2654,24.7762,145.33,99.3408,99.4027,0.019107,0.0785138,20.9069,151.956,-0.00604634,0.0,0.0
2760,689.75,24.8914,24.9005,148.455,99.3639,99.3882,0.0200804,0.0790511,20.9057,151.846,-0.00237132,0.0,0.0
2790,697.25,23.7271,24.529,147.106,99.3757,99.3517,0.0202777,0.0789736,20.9064,151.706,0.00234529,0.0,0.0
2820,704.75,24.011,24.1808,146.757,99.4397,99.4784,0.0208306,0.07987,20.9061,151.626,-0.00378062,0.0,0.0
2835,708.5,24.2797,24.4085,147.199,99.4786,99.4208,0.0216171,0.0804061,20.9056,151.656,0.00564417,0.0,0.0