File: 01_Data/Plastic_Laminate_Countertop/Cone/Plastic_Laminate_Countertop_HRRPUA_25.csv
Time after Ignition,Plastic_Laminate_Countertop_R1,Plastic_Laminate_Countertop_R2,Plastic_Laminate_Countertop_R3,Mean,Std. Dev.
0.0,7.5,12.0,16.8,12.1,4.6
19.25,5.9,23.6,38.2,22.6,16.2
38.5,2.6,10.9,59.4,24.3,30.6
57.75,2.3,4.4,78.3,28.3,43.3
77.0,2.3,0.1,84.8,29.1,48.3
96.25,2.0,5.2,83.4,30.2,46.1
115.5,1.1,0.5,84.0,28.5,48.1
134.75,0.6,0.3,78.8,26.6,45.3
154.0,5.4,-1.1,71.5,25.3,40.2
173.25,0.5,3.2,65.8,23.1,36.9
192.5,0.8,-0.4,61.8,20.7,35.5
211.75,0.7,-0.6,59.4,19.8,34.3
231.0,0.7,-0.1,53.7,18.1,30.8
250.25,1.5,-0.7,50.5,17.1,28.9
269.5,4.5,-0.2,49.7,18.0,27.5
288.75,18.6,1.0,47.3,22.3,23.3
308.0,35.4,0.3,46.5,27.4,24.1
327.25,52.0,-0.6,45.6,32.3,28.7
346.5,58.9,1.2,46.1,35.4,30.3
365.75,67.4,-0.5,44.6,37.2,34.6
385.0,72.4,2.8,46.0,40.4,35.2
404.25,74.6,6.5,46.6,42.6,34.2
423.5,74.7,9.5,45.9,43.4,32.7
442.75,70.3,11.2,47.8,43.1,29.8
462.0,66.1,12.3,47.4,41.9,27.3
481.25,58.1,22.3,48.6,43.0,18.5
500.5,51.4,34.4,47.3,44.4,8.9
519.75,48.7,38.7,48.6,45.3,5.7
539.0,44.4,44.0,50.2,46.2,3.5
558.25,39.9,46.9,51.0,45.9,5.6
577.5,39.3,46.5,50.1,45.3,5.5
596.75,39.1,44.2,51.2,44.8,6.0
616.0,40.7,41.1,50.7,44.1,5.6
635.25,40.7,40.1,50.0,43.6,5.6
654.5,41.4,41.0,49.5,44.0,4.8
673.75,42.6,39.2,50.3,44.0,5.7
693.0,41.0,36.5,50.0,42.5,6.9
712.25,41.9,37.6,50.7,43.4,6.7
731.5,43.0,36.0,48.7,42.6,6.4
750.75,42.5,36.3,48.4,42.4,6.1
770.0,43.4,33.4,47.9,41.6,7.4
789.25,42.1,32.6,47.6,40.8,7.6
808.5,42.9,32.3,47.8,41.0,7.9
827.75,43.5,30.3,47.7,40.5,9.1
847.0,45.3,29.4,46.6,40.4,9.5
866.25,46.0,29.8,45.8,40.5,9.3
885.5,43.9,29.2,46.5,39.9,9.3
904.75,45.6,28.9,46.2,40.2,9.8
924.0,45.6,28.3,45.1,39.7,9.8
943.25,45.8,28.2,42.0,38.7,9.2
962.5,46.4,28.4,42.8,39.2,9.6
981.75,45.1,27.6,42.9,38.5,9.5
1001.0,45.2,28.1,39.8,37.7,8.7
1020.25,44.1,28.8,38.9,37.3,7.8
1039.5,43.4,28.1,37.1,36.2,7.7
1058.75,44.0,29.9,38.9,37.6,7.2
1078.0,42.5,27.0,39.9,36.5,8.3
1097.25,42.5,28.4,39.2,36.7,7.4
1116.5,42.6,28.3,37.9,36.3,7.3
1135.75,41.7,27.8,36.4,35.3,7.0
1155.0,39.8,26.7,35.5,34.0,6.7
1174.25,41.0,28.4,34.3,34.6,6.3
1193.5,41.0,29.1,33.5,34.5,6.0
1212.75,39.5,27.2,33.8,33.5,6.2
1232.0,38.9,27.2,33.7,33.3,5.9
1251.25,39.2,27.4,33.2,33.3,5.9
1270.5,38.7,27.2,31.1,32.3,5.9
1289.75,39.2,27.8,29.5,32.1,6.1
1309.0,39.6,26.5,28.0,31.4,7.1
1328.25,40.3,27.3,28.2,31.9,7.2
1347.5,38.2,27.0,28.4,31.2,6.1
1366.75,39.1,25.6,26.3,30.3,7.6
1386.0,38.8,26.0,26.5,30.4,7.3
1405.25,39.1,24.0,27.0,30.0,8.0
1424.5,35.9,24.7,26.8,29.2,5.9
1443.75,35.5,24.3,26.7,28.8,5.9
1463.0,35.0,24.5,23.9,27.8,6.3
1482.25,34.5,26.5,24.4,28.4,5.3
1501.5,33.8,28.1,22.7,28.2,5.5
1520.75,34.6,27.5,24.5,28.9,5.2
1540.0,34.3,28.0,25.7,29.4,4.4
1559.25,33.8,27.8,26.0,29.2,4.1
1578.5,33.2,28.6,25.7,29.2,3.8
1597.75,32.8,29.4,27.5,29.9,2.7
1617.0,30.2,31.0,25.9,29.0,2.7
1636.25,29.4,29.8,24.0,27.8,3.2
1655.5,28.6,30.9,28.5,29.3,1.3
1674.75,28.1,33.2,29.8,30.4,2.6
1694.0,28.5,31.9,29.0,29.8,1.9
1713.25,26.2,31.5,29.2,29.0,2.7
1732.5,24.9,33.8,28.0,28.9,4.5
1751.75,24.4,31.0,29.7,28.4,3.5
1771.0,25.2,31.8,30.8,29.3,3.6
1790.25,24.1,29.6,29.9,27.9,3.2
1809.5,26.2,30.4,30.5,29.0,2.4
1828.75,22.9,30.1,32.7,28.6,5.1
1848.0,24.0,30.4,32.2,28.9,4.3
1867.25,25.0,31.1,33.5,29.9,4.4
1886.5,21.1,30.4,33.0,28.2,6.3
1905.75,22.3,30.7,32.6,28.5,5.5
1925.0,19.1,29.8,32.5,27.1,7.1
1944.25,19.8,29.4,32.3,27.2,6.6
1963.5,21.1,28.2,32.1,27.1,5.6
1982.75,19.8,27.9,32.7,26.8,6.5
2002.0,19.8,26.3,33.1,26.4,6.6
2021.25,22.1,25.3,35.4,27.6,7.0
2040.5,23.1,23.9,35.1,27.4,6.7
2059.75,24.8,23.1,34.3,27.4,6.1
2079.0,24.4,23.5,35.5,27.8,6.7
2098.25,23.0,23.0,36.8,27.6,8.0
2117.5,23.1,23.7,36.2,27.7,7.4
2136.75,24.2,21.0,36.9,27.4,8.4
2156.0,23.9,21.7,36.4,27.3,8.0
2175.25,23.0,22.1,37.5,27.5,8.6
2194.5,24.0,22.2,38.4,28.2,8.9
2213.75,22.6,21.9,41.2,28.6,10.9
2233.0,24.7,21.3,40.3,28.8,10.1
2252.25,25.1,22.0,40.9,29.3,10.1
2271.5,22.3,21.9,40.4,28.2,10.6
2290.75,23.3,22.3,45.1,30.2,12.9
2310.0,22.6,22.6,44.9,30.0,12.9
2329.25,22.4,21.4,45.3,29.7,13.5
2348.5,25.7,22.8,45.8,31.4,12.5
2367.75,23.9,23.0,47.2,31.4,13.7
2387.0,25.8,20.2,49.3,31.8,15.5
2406.25,27.5,23.6,54.5,35.2,16.8
2425.5,23.0,23.0,57.3,34.4,19.8
2444.75,23.2,21.4,58.9,34.5,21.2
2464.0,25.9,21.1,58.7,35.2,20.5
2483.25,25.6,23.6,61.5,36.9,21.3
2502.5,30.3,23.8,62.7,39.0,20.8
2521.75,28.5,23.0,66.1,39.2,23.5
2541.0,30.3,23.9,64.5,39.6,21.9
2560.25,31.5,24.1,66.4,40.7,22.6
2579.5,33.8,23.9,67.8,41.8,23.0
2598.75,36.4,24.8,67.6,42.9,22.1
2618.0,40.0,24.5,69.8,44.8,23.1
2637.25,43.7,23.4,71.8,46.3,24.3
2656.5,43.8,25.1,69.1,46.0,22.1
2675.75,46.3,24.9,71.3,47.5,23.3
2695.0,48.0,24.5,73.5,48.7,24.5
2714.25,49.6,26.3,74.6,50.2,24.2
2733.5,49.8,27.0,74.7,50.5,23.9
2752.75,51.2,26.2,75.7,51.0,24.7
2772.0,51.7,30.0,75.0,52.2,22.5
2791.25,53.3,29.7,74.1,52.4,22.2
2810.5,54.2,30.4,72.9,52.5,21.3
2829.75,54.7,31.2,71.7,52.6,20.3
2849.0,54.4,31.1,70.8,52.1,20.0
2868.25,56.0,32.9,72.0,53.6,19.7
2887.5,57.1,36.3,70.3,54.6,17.1
2906.75,58.7,33.7,71.3,54.6,19.2
2926.0,59.8,35.4,69.1,54.8,17.4
2945.25,64.9,35.0,68.7,56.2,18.5
2964.5,67.0,36.2,,51.6,21.8
2983.75,68.6,38.2,,53.4,21.5
3003.0,70.4,38.4,,54.4,22.6
3022.25,71.8,38.9,,55.3,23.3
3041.5,71.5,40.0,,55.7,22.3
3060.75,72.4,40.2,,56.3,22.7
3080.0,71.7,41.9,,56.8,21.1
3099.25,73.7,42.9,,58.3,21.8
3118.5,72.0,43.4,,57.7,20.2
3137.75,72.6,46.6,,59.6,18.4
3157.0,70.6,47.4,,59.0,16.4
3176.25,72.1,48.9,,60.5,16.4
3195.5,69.3,49.7,,59.5,13.9
3214.75,69.9,52.7,,61.3,12.1
3234.0,70.1,52.7,,61.4,12.3
3253.25,69.4,53.3,,61.3,11.4
3272.5,70.4,54.2,,62.3,11.4
3291.75,70.4,54.0,,62.2,11.6
3311.0,69.0,55.0,,62.0,9.9
3330.25,66.4,57.1,,61.8,6.6
3349.5,66.6,56.3,,61.4,7.3
3368.75,65.8,58.9,,62.4,4.9
3388.0,64.5,56.6,,60.5,5.6
3407.25,63.0,58.1,,60.6,3.5
3426.5,59.8,59.9,,59.8,0.1
3445.75,58.5,60.8,,59.6,1.6
3465.0,58.0,61.4,,59.7,2.4
3484.25,57.1,62.5,,59.8,3.8
3503.5,55.9,,,55.9,
3522.75,54.9,,,54.9,
3542.0,54.1,,,54.1,
3561.25,52.4,,,52.4,
3580.5,51.3,,,51.3,
3599.75,51.6,,,51.6,
3619.0,49.8,,,49.8,
3638.25,50.5,,,50.5,
3657.5,49.0,,,49.0,
3676.75,48.0,,,48.0,
3696.0,47.9,,,47.9,
3715.25,47.1,,,47.1,
3734.5,47.9,,,47.9,
3753.75,48.9,,,48.9,
3773.0,46.8,,,46.8,
3792.25,46.6,,,46.6,
3811.5,46.8,,,46.8,
3830.75,46.2,,,46.2,
3850.0,45.5,,,45.5,
3869.25,44.2,,,44.2,
3888.5,43.6,,,43.6,
3907.75,44.3,,,44.3,
3927.0,43.9,,,43.9,
3946.25,43.9,,,43.9,
3965.5,44.6,,,44.6,
3984.75,45.3,,,45.3,
4004.0,44.9,,,44.9,
4023.25,44.5,,,44.5,
4042.5,43.9,,,43.9,
4061.75,45.4,,,45.4,
4081.0,44.7,,,44.7,
4100.25,45.8,,,45.8,
4119.5,45.5,,,45.5,
4138.75,45.2,,,45.2,
4158.0,44.7,,,44.7,
4177.25,44.9,,,44.9,
4196.5,45.2,,,45.2,
4215.75,44.4,,,44.4,
4235.0,45.4,,,45.4,
4254.25,45.6,,,45.6,
4273.5,45.7,,,45.7,
4292.75,46.0,,,46.0,
4312.0,45.1,,,45.1,
4331.25,45.4,,,45.4,
4350.5,44.5,,,44.5,
4369.75,45.6,,,45.6,
4389.0,46.3,,,46.3,
4408.25,46.4,,,46.4,
4427.5,45.5,,,45.5,
4446.75,47.3,,,47.3,
4466.0,46.3,,,46.3,
4485.25,45.5,,,45.5,
4504.5,44.7,,,44.7,
4523.75,47.0,,,47.0,
4543.0,47.4,,,47.4,
4562.25,47.0,,,47.0,
4581.5,46.8,,,46.8,
4600.75,46.0,,,46.0,
4620.0,45.2,,,45.2,
4639.25,45.1,,,45.1,
4658.5,47.1,,,47.1,
4677.75,45.3,,,45.3,
4697.0,45.0,,,45.0,
4716.25,45.8,,,45.8,
4735.5,45.8,,,45.8,
4754.75,45.0,,,45.0,
4774.0,43.6,,,43.6,
4793.25,43.9,,,43.9,
4812.5,44.8,,,44.8,
4831.75,43.4,,,43.4,
4851.0,44.5,,,44.5,
4870.25,42.6,,,42.6,
4889.5,41.5,,,41.5,
4908.75,41.9,,,41.9,
4928.0,42.3,,,42.3,
4947.25,39.1,,,39.1,
4966.5,40.2,,,40.2,
4985.75,38.9,,,38.9,
5005.0,39.9,,,39.9,
5024.25,39.6,,,39.6,
5043.5,38.3,,,38.3,
5062.75,36.9,,,36.9,
5082.0,36.7,,,36.7,
5101.25,35.9,,,35.9,
5120.5,35.6,,,35.6,
5139.75,32.6,,,32.6,
5159.0,34.0,,,34.0,
5178.25,32.9,,,32.9,
5197.5,31.4,,,31.4,
5216.75,31.7,,,31.7,
5236.0,32.4,,,32.4,
5255.25,31.2,,,31.2,
5274.5,29.5,,,29.5,
5293.75,28.1,,,28.1,
5313.0,26.6,,,26.6,
5332.25,27.6,,,27.6,
5351.5,29.0,,,29.0,
5370.75,28.6,,,28.6,
5390.0,26.0,,,26.0,
5409.25,27.7,,,27.7,
5428.5,26.0,,,26.0,
5447.75,27.0,,,27.0,
5467.0,25.9,,,25.9,
5486.25,25.0,,,25.0,
5505.5,26.2,,,26.2,
5524.75,25.0,,,25.0,
5544.0,25.1,,,25.1,
5563.25,25.0,,,25.0,
5582.5,23.8,,,23.8,
5601.75,24.7,,,24.7,
5621.0,23.7,,,23.7,
5640.25,24.3,,,24.3,
5659.5,23.6,,,23.6,
5678.75,25.3,,,25.3,
5698.0,23.0,,,23.0,
5717.25,22.7,,,22.7,
5736.5,19.9,,,19.9,
5740.75,20.0,,,20.0,