File: 01_Data/Composite_Deck_Board/FTIR/IS/Composite_Deck_Board_IS_S_220928_R1.dpt
7497.03,0.40403
7473.89,0.38935
7450.74,0.38991
7427.6,0.39186
7404.45,0.39083
7381.31,0.40128
7358.16,0.38050
7335.02,0.39515
7311.87,0.39076
7288.73,0.39125
7265.58,0.38542
7242.44,0.37725
7219.29,0.37841
7196.15,0.37530
7173,0.37027
7149.86,0.37493
7126.71,0.36611
7103.57,0.36636
7080.42,0.35736
7057.28,0.34418
7034.13,0.34488
7010.99,0.33666
6987.84,0.33520
6964.7,0.33864
6941.55,0.33597
6918.41,0.33480
6895.26,0.32809
6872.12,0.32830
6848.97,0.33332
6825.83,0.33066
6802.68,0.33300
6779.54,0.33652
6756.39,0.33670
6733.25,0.33849
6710.1,0.33727
6686.96,0.33791
6663.82,0.33432
6640.67,0.33872
6617.53,0.34465
6594.38,0.34421
6571.24,0.33942
6548.09,0.34348
6524.95,0.34180
6501.8,0.34584
6478.66,0.34491
6455.51,0.34833
6432.37,0.35013
6409.22,0.34935
6386.08,0.34910
6362.93,0.35165
6339.79,0.35097
6316.64,0.34904
6293.5,0.35164
6270.35,0.35338
6247.21,0.35218
6224.06,0.35909
6200.92,0.35688
6177.77,0.36170
6154.63,0.36240
6131.48,0.36324
6108.34,0.36455
6085.19,0.36192
6062.05,0.36040
6038.9,0.36038
6015.76,0.35941
5992.61,0.35230
5969.47,0.35461
5946.32,0.35328
5923.18,0.34720
5900.03,0.34048
5876.89,0.33441
5853.74,0.32296
5830.6,0.31200
5807.45,0.29856
5784.31,0.27698
5761.16,0.28881
5738.02,0.31172
5714.87,0.31995
5691.73,0.31409
5668.58,0.30089
5645.44,0.31505
5622.29,0.32010
5599.15,0.32364
5576,0.32379
5552.86,0.32206
5529.71,0.32224
5506.57,0.32292
5483.42,0.32286
5460.28,0.32589
5437.13,0.32702
5413.99,0.32962
5390.84,0.33341
5367.7,0.33442
5344.55,0.33511
5321.41,0.33169
5298.26,0.32214
5275.12,0.30746
5251.97,0.28566
5228.83,0.27015
5205.68,0.26329
5182.54,0.26465
5159.39,0.26786
5136.25,0.27572
5113.1,0.28164
5089.96,0.28521
5066.81,0.29168
5043.67,0.29766
5020.52,0.29897
4997.38,0.29999
4974.23,0.29793
4951.09,0.29387
4927.94,0.28749
4904.8,0.27889
4881.65,0.27017
4858.51,0.26243
4835.36,0.25702
4812.22,0.25320
4789.07,0.24956
4765.93,0.24750
4742.78,0.24662
4719.64,0.24872
4696.49,0.24904
4673.35,0.25142
4650.2,0.25618
4627.06,0.25908
4603.92,0.26351
4580.77,0.26620
4557.63,0.26678
4534.48,0.26828
4511.34,0.26711
4488.19,0.26118
4465.05,0.24695
4441.9,0.23165
4418.76,0.21690
4395.61,0.20761
4372.47,0.20249
4349.32,0.19012
4326.18,0.16470
4303.03,0.18999
4279.89,0.18858
4256.74,0.17308
4233.6,0.18431
4210.45,0.18140
4187.31,0.17652
4164.16,0.17849
4141.02,0.17752
4117.87,0.17588
4094.73,0.16992
4071.58,0.17057
4048.44,0.16730
4025.29,0.16403
4002.15,0.16631
3979,0.16701
3955.86,0.17066
3932.71,0.17280
3909.57,0.17533
3886.42,0.17885
3863.28,0.18240
3840.13,0.18527
3816.99,0.18620
3793.84,0.18682
3770.7,0.18533
3747.55,0.18202
3724.41,0.17516
3701.26,0.16210
3678.12,0.14058
3654.97,0.11564
3631.83,0.09909
3608.68,0.08797
3585.54,0.07961
3562.39,0.07250
3539.25,0.06766
3516.1,0.06419
3492.96,0.06126
3469.81,0.06008
3446.67,0.05872
3423.52,0.05712
3400.38,0.05714
3377.23,0.05685
3354.09,0.05744
3330.94,0.05918
3307.8,0.05917
3284.65,0.06154
3261.51,0.06302
3238.36,0.06595
3215.22,0.06858
3192.07,0.07142
3168.93,0.07387
3145.78,0.07706
3122.64,0.07964
3099.49,0.08129
3076.35,0.08157
3053.2,0.08375
3030.06,0.08320
3006.91,0.07775
2983.77,0.06946
2960.62,0.05342
2937.48,0.04272
2914.33,0.05273
2891.19,0.05502
2868.04,0.05608
2844.9,0.06021
2821.75,0.07970
2798.61,0.08759
2775.46,0.09236
2752.32,0.09460
2729.17,0.09435
2706.03,0.09687
2682.88,0.09858
2659.74,0.09905
2636.59,0.10115
2613.45,0.10404
2590.3,0.10700
2567.16,0.10880
2544.02,0.10989
2520.87,0.11220
2497.73,0.11463
2474.58,0.11773
2451.44,0.12002
2428.29,0.12237
2405.15,0.12564
2382,0.12893
2358.86,0.13058
2335.71,0.12921
2312.57,0.13099
2289.42,0.13086
2266.28,0.13027
2243.13,0.12774
2219.99,0.12802
2196.84,0.12655
2173.7,0.12134
2150.55,0.11687
2127.41,0.11641
2104.26,0.11745
2081.12,0.11793
2057.97,0.11655
2034.83,0.11657
2011.68,0.11966
1988.54,0.12384
1965.39,0.12349
1942.25,0.12380
1919.1,0.12667
1895.96,0.12566
1872.81,0.12680
1849.67,0.12368
1826.52,0.11731
1803.38,0.10698
1780.23,0.09044
1757.09,0.06341
1733.94,0.05801
1710.8,0.06545
1687.65,0.06871
1664.51,0.06208
1641.36,0.06143
1618.22,0.05992
1595.07,0.05646
1571.93,0.06852
1548.78,0.07091
1525.64,0.06456
1502.49,0.05474
1479.35,0.05261
1456.2,0.04723
1433.06,0.04986
1409.91,0.05318
1386.77,0.05091
1363.62,0.04941
1340.48,0.05000
1317.33,0.04958
1294.19,0.05029
1271.04,0.04715
1247.9,0.04696
1224.75,0.04851
1201.61,0.04938
1178.46,0.04636
1155.32,0.04586
1132.17,0.04240
1109.03,0.04359
1085.88,0.04407
1062.74,0.05038
1039.59,0.05480
1016.45,0.05738
993.304,0.06032
970.159,0.06506
947.014,0.07087
923.869,0.06811
900.724,0.06181
877.579,0.06458
854.434,0.06394
831.289,0.06013
808.144,0.05587
784.999,0.05875
761.854,0.05593
738.709,0.05143
715.565,0.04863
692.42,0.04814
669.275,0.04641
646.13,0.04656
622.985,0.04524
599.84,0.04405