File: 01_Data/Composite_Deck_Board/FTIR/IS/Composite_Deck_Board_IS_S_220928_R5.dpt
7497.03,0.39806
7473.89,0.40340
7450.74,0.38768
7427.6,0.38878
7404.45,0.38515
7381.31,0.39226
7358.16,0.38714
7335.02,0.38623
7311.87,0.39027
7288.73,0.39077
7265.58,0.38238
7242.44,0.38469
7219.29,0.38439
7196.15,0.37911
7173,0.36493
7149.86,0.36708
7126.71,0.36872
7103.57,0.36566
7080.42,0.35836
7057.28,0.35492
7034.13,0.34927
7010.99,0.34445
6987.84,0.33754
6964.7,0.33459
6941.55,0.33050
6918.41,0.32776
6895.26,0.33748
6872.12,0.32757
6848.97,0.33482
6825.83,0.33688
6802.68,0.33057
6779.54,0.33305
6756.39,0.33654
6733.25,0.33174
6710.1,0.33946
6686.96,0.33601
6663.82,0.34143
6640.67,0.34223
6617.53,0.34363
6594.38,0.34629
6571.24,0.34764
6548.09,0.35033
6524.95,0.34888
6501.8,0.34826
6478.66,0.34787
6455.51,0.34623
6432.37,0.35017
6409.22,0.35158
6386.08,0.35477
6362.93,0.35260
6339.79,0.35559
6316.64,0.35235
6293.5,0.35451
6270.35,0.35266
6247.21,0.35332
6224.06,0.35683
6200.92,0.35645
6177.77,0.35999
6154.63,0.36168
6131.48,0.36392
6108.34,0.36451
6085.19,0.36406
6062.05,0.36083
6038.9,0.36346
6015.76,0.35614
5992.61,0.35678
5969.47,0.35340
5946.32,0.35093
5923.18,0.34683
5900.03,0.34072
5876.89,0.33732
5853.74,0.32243
5830.6,0.31176
5807.45,0.29809
5784.31,0.27863
5761.16,0.28859
5738.02,0.31488
5714.87,0.32288
5691.73,0.31609
5668.58,0.30304
5645.44,0.31737
5622.29,0.32224
5599.15,0.32433
5576,0.32622
5552.86,0.32269
5529.71,0.32404
5506.57,0.32491
5483.42,0.32296
5460.28,0.32722
5437.13,0.32917
5413.99,0.33363
5390.84,0.33534
5367.7,0.33708
5344.55,0.33619
5321.41,0.33247
5298.26,0.32568
5275.12,0.31223
5251.97,0.29219
5228.83,0.27695
5205.68,0.27246
5182.54,0.27139
5159.39,0.27535
5136.25,0.28262
5113.1,0.28755
5089.96,0.29239
5066.81,0.29628
5043.67,0.30080
5020.52,0.30442
4997.38,0.30469
4974.23,0.30205
4951.09,0.29748
4927.94,0.29041
4904.8,0.28156
4881.65,0.27184
4858.51,0.26381
4835.36,0.25822
4812.22,0.25327
4789.07,0.25011
4765.93,0.24915
4742.78,0.24903
4719.64,0.24897
4696.49,0.24969
4673.35,0.25333
4650.2,0.25826
4627.06,0.26161
4603.92,0.26569
4580.77,0.26713
4557.63,0.27007
4534.48,0.26952
4511.34,0.26868
4488.19,0.26213
4465.05,0.24945
4441.9,0.23274
4418.76,0.21849
4395.61,0.20857
4372.47,0.20345
4349.32,0.19089
4326.18,0.16549
4303.03,0.19194
4279.89,0.19017
4256.74,0.17400
4233.6,0.18552
4210.45,0.18315
4187.31,0.17777
4164.16,0.17908
4141.02,0.17902
4117.87,0.17661
4094.73,0.17232
4071.58,0.17310
4048.44,0.16876
4025.29,0.16599
4002.15,0.16750
3979,0.16923
3955.86,0.17232
3932.71,0.17445
3909.57,0.17739
3886.42,0.18011
3863.28,0.18442
3840.13,0.18768
3816.99,0.18883
3793.84,0.18953
3770.7,0.18873
3747.55,0.18564
3724.41,0.17956
3701.26,0.16737
3678.12,0.14650
3654.97,0.12229
3631.83,0.10574
3608.68,0.09171
3585.54,0.08236
3562.39,0.07420
3539.25,0.06870
3516.1,0.06494
3492.96,0.06174
3469.81,0.05990
3446.67,0.05865
3423.52,0.05814
3400.38,0.05801
3377.23,0.05762
3354.09,0.05772
3330.94,0.05822
3307.8,0.06100
3284.65,0.06127
3261.51,0.06445
3238.36,0.06627
3215.22,0.06942
3192.07,0.07279
3168.93,0.07538
3145.78,0.07869
3122.64,0.08085
3099.49,0.08321
3076.35,0.08482
3053.2,0.08540
3030.06,0.08443
3006.91,0.07914
2983.77,0.07012
2960.62,0.05288
2937.48,0.04340
2914.33,0.05289
2891.19,0.05472
2868.04,0.05626
2844.9,0.06024
2821.75,0.08029
2798.61,0.08839
2775.46,0.09300
2752.32,0.09450
2729.17,0.09530
2706.03,0.09727
2682.88,0.09924
2659.74,0.10017
2636.59,0.10175
2613.45,0.10519
2590.3,0.10733
2567.16,0.10988
2544.02,0.11091
2520.87,0.11259
2497.73,0.11589
2474.58,0.11835
2451.44,0.12067
2428.29,0.12327
2405.15,0.12692
2382,0.12991
2358.86,0.13093
2335.71,0.13068
2312.57,0.13226
2289.42,0.13274
2266.28,0.13192
2243.13,0.12946
2219.99,0.13054
2196.84,0.12888
2173.7,0.12334
2150.55,0.11831
2127.41,0.11795
2104.26,0.11954
2081.12,0.11981
2057.97,0.11858
2034.83,0.11870
2011.68,0.12196
1988.54,0.12630
1965.39,0.12553
1942.25,0.12538
1919.1,0.12864
1895.96,0.12711
1872.81,0.12884
1849.67,0.12527
1826.52,0.11833
1803.38,0.10750
1780.23,0.09079
1757.09,0.06323
1733.94,0.05819
1710.8,0.06589
1687.65,0.06957
1664.51,0.06336
1641.36,0.06355
1618.22,0.06049
1595.07,0.05621
1571.93,0.06819
1548.78,0.07132
1525.64,0.06427
1502.49,0.05504
1479.35,0.05241
1456.2,0.04658
1433.06,0.05048
1409.91,0.05307
1386.77,0.05066
1363.62,0.04998
1340.48,0.04974
1317.33,0.04952
1294.19,0.05082
1271.04,0.04686
1247.9,0.04713
1224.75,0.04806
1201.61,0.04918
1178.46,0.04656
1155.32,0.04550
1132.17,0.04250
1109.03,0.04372
1085.88,0.04438
1062.74,0.05045
1039.59,0.05382
1016.45,0.05780
993.304,0.06052
970.159,0.06529
947.014,0.07096
923.869,0.06815
900.724,0.06193
877.579,0.06414
854.434,0.06422
831.289,0.06130
808.144,0.05684
784.999,0.05917
761.854,0.05708
738.709,0.05230
715.565,0.05005
692.42,0.04989
669.275,0.04723
646.13,0.04610
622.985,0.04339
599.84,0.04483