File: 01_Data/Composite_Deck_Board/FTIR/IS/Composite_Deck_Board_IS_S_220928_R2.dpt
7497.03,0.40363
7473.89,0.40035
7450.74,0.40097
7427.6,0.38943
7404.45,0.39589
7381.31,0.39288
7358.16,0.39284
7335.02,0.38546
7311.87,0.39085
7288.73,0.37870
7265.58,0.38408
7242.44,0.37942
7219.29,0.38306
7196.15,0.37893
7173,0.37184
7149.86,0.36828
7126.71,0.37008
7103.57,0.36960
7080.42,0.36060
7057.28,0.35415
7034.13,0.34410
7010.99,0.34830
6987.84,0.34107
6964.7,0.33237
6941.55,0.33382
6918.41,0.33634
6895.26,0.33182
6872.12,0.33319
6848.97,0.32669
6825.83,0.32910
6802.68,0.33244
6779.54,0.33616
6756.39,0.33885
6733.25,0.33603
6710.1,0.33283
6686.96,0.33409
6663.82,0.33732
6640.67,0.34322
6617.53,0.34160
6594.38,0.34177
6571.24,0.34835
6548.09,0.34786
6524.95,0.34541
6501.8,0.34727
6478.66,0.34781
6455.51,0.35050
6432.37,0.34736
6409.22,0.34957
6386.08,0.35013
6362.93,0.34722
6339.79,0.34853
6316.64,0.35090
6293.5,0.35071
6270.35,0.35307
6247.21,0.35347
6224.06,0.35817
6200.92,0.36218
6177.77,0.36079
6154.63,0.36373
6131.48,0.36448
6108.34,0.36396
6085.19,0.36462
6062.05,0.36286
6038.9,0.35670
6015.76,0.35890
5992.61,0.35559
5969.47,0.35660
5946.32,0.35166
5923.18,0.34737
5900.03,0.34048
5876.89,0.33675
5853.74,0.32468
5830.6,0.30937
5807.45,0.29605
5784.31,0.27760
5761.16,0.29170
5738.02,0.31250
5714.87,0.32032
5691.73,0.31411
5668.58,0.30211
5645.44,0.31572
5622.29,0.32247
5599.15,0.32538
5576,0.32527
5552.86,0.32314
5529.71,0.32301
5506.57,0.32384
5483.42,0.32370
5460.28,0.32785
5437.13,0.32891
5413.99,0.33157
5390.84,0.33571
5367.7,0.33557
5344.55,0.33636
5321.41,0.33376
5298.26,0.32540
5275.12,0.30934
5251.97,0.29003
5228.83,0.27331
5205.68,0.26865
5182.54,0.26727
5159.39,0.27094
5136.25,0.27898
5113.1,0.28294
5089.96,0.29029
5066.81,0.29421
5043.67,0.29930
5020.52,0.30285
4997.38,0.30221
4974.23,0.29988
4951.09,0.29565
4927.94,0.29007
4904.8,0.28072
4881.65,0.27197
4858.51,0.26451
4835.36,0.25764
4812.22,0.25273
4789.07,0.25095
4765.93,0.24875
4742.78,0.24880
4719.64,0.24843
4696.49,0.24996
4673.35,0.25220
4650.2,0.25663
4627.06,0.26126
4603.92,0.26492
4580.77,0.26755
4557.63,0.26875
4534.48,0.27024
4511.34,0.26878
4488.19,0.26189
4465.05,0.24787
4441.9,0.23263
4418.76,0.21821
4395.61,0.20767
4372.47,0.20212
4349.32,0.19069
4326.18,0.16564
4303.03,0.19116
4279.89,0.18788
4256.74,0.17386
4233.6,0.18541
4210.45,0.18224
4187.31,0.17737
4164.16,0.17910
4141.02,0.17888
4117.87,0.17562
4094.73,0.17165
4071.58,0.17227
4048.44,0.16867
4025.29,0.16468
4002.15,0.16757
3979,0.16882
3955.86,0.17218
3932.71,0.17425
3909.57,0.17664
3886.42,0.17942
3863.28,0.18356
3840.13,0.18715
3816.99,0.18735
3793.84,0.18906
3770.7,0.18675
3747.55,0.18403
3724.41,0.17736
3701.26,0.16440
3678.12,0.14382
3654.97,0.11858
3631.83,0.10306
3608.68,0.09011
3585.54,0.08100
3562.39,0.07369
3539.25,0.06802
3516.1,0.06469
3492.96,0.06196
3469.81,0.05994
3446.67,0.05916
3423.52,0.05779
3400.38,0.05728
3377.23,0.05775
3354.09,0.05694
3330.94,0.05831
3307.8,0.06011
3284.65,0.06089
3261.51,0.06312
3238.36,0.06612
3215.22,0.06865
3192.07,0.07129
3168.93,0.07474
3145.78,0.07755
3122.64,0.08092
3099.49,0.08241
3076.35,0.08322
3053.2,0.08422
3030.06,0.08340
3006.91,0.07849
2983.77,0.06979
2960.62,0.05267
2937.48,0.04326
2914.33,0.05317
2891.19,0.05434
2868.04,0.05621
2844.9,0.06033
2821.75,0.08014
2798.61,0.08781
2775.46,0.09276
2752.32,0.09435
2729.17,0.09492
2706.03,0.09739
2682.88,0.09935
2659.74,0.10019
2636.59,0.10168
2613.45,0.10498
2590.3,0.10760
2567.16,0.10937
2544.02,0.11129
2520.87,0.11215
2497.73,0.11574
2474.58,0.11818
2451.44,0.12063
2428.29,0.12291
2405.15,0.12683
2382,0.12934
2358.86,0.13051
2335.71,0.13006
2312.57,0.13200
2289.42,0.13188
2266.28,0.13127
2243.13,0.12880
2219.99,0.12978
2196.84,0.12765
2173.7,0.12248
2150.55,0.11776
2127.41,0.11763
2104.26,0.11878
2081.12,0.11892
2057.97,0.11752
2034.83,0.11770
2011.68,0.12102
1988.54,0.12577
1965.39,0.12484
1942.25,0.12478
1919.1,0.12787
1895.96,0.12675
1872.81,0.12789
1849.67,0.12469
1826.52,0.11782
1803.38,0.10749
1780.23,0.09062
1757.09,0.06352
1733.94,0.05797
1710.8,0.06587
1687.65,0.06900
1664.51,0.06277
1641.36,0.06234
1618.22,0.06041
1595.07,0.05630
1571.93,0.06773
1548.78,0.07113
1525.64,0.06457
1502.49,0.05454
1479.35,0.05285
1456.2,0.04718
1433.06,0.05036
1409.91,0.05290
1386.77,0.05077
1363.62,0.04955
1340.48,0.04994
1317.33,0.04987
1294.19,0.05076
1271.04,0.04682
1247.9,0.04674
1224.75,0.04836
1201.61,0.04901
1178.46,0.04641
1155.32,0.04597
1132.17,0.04248
1109.03,0.04426
1085.88,0.04418
1062.74,0.05058
1039.59,0.05449
1016.45,0.05760
993.304,0.06053
970.159,0.06553
947.014,0.07069
923.869,0.06814
900.724,0.06251
877.579,0.06460
854.434,0.06503
831.289,0.06000
808.144,0.05655
784.999,0.05830
761.854,0.05600
738.709,0.05165
715.565,0.04849
692.42,0.05008
669.275,0.04744
646.13,0.04620
622.985,0.04646
599.84,0.04625