File: 01_Data/Composite_Deck_Board/FTIR/IS/Composite_Deck_Board_IS_S_220928_R7.dpt
7497.03,0.39394
7473.89,0.40323
7450.74,0.40112
7427.6,0.39360
7404.45,0.39442
7381.31,0.38735
7358.16,0.39592
7335.02,0.39855
7311.87,0.39064
7288.73,0.39092
7265.58,0.38583
7242.44,0.38067
7219.29,0.38012
7196.15,0.37710
7173,0.37195
7149.86,0.37680
7126.71,0.37328
7103.57,0.36475
7080.42,0.36036
7057.28,0.35511
7034.13,0.34935
7010.99,0.33950
6987.84,0.33658
6964.7,0.34097
6941.55,0.33190
6918.41,0.33347
6895.26,0.33381
6872.12,0.33380
6848.97,0.33724
6825.83,0.33609
6802.68,0.33311
6779.54,0.33483
6756.39,0.33597
6733.25,0.33794
6710.1,0.33813
6686.96,0.33434
6663.82,0.34432
6640.67,0.34130
6617.53,0.34399
6594.38,0.34457
6571.24,0.34724
6548.09,0.34717
6524.95,0.35010
6501.8,0.35158
6478.66,0.34692
6455.51,0.35276
6432.37,0.35229
6409.22,0.35400
6386.08,0.35203
6362.93,0.35354
6339.79,0.35428
6316.64,0.35362
6293.5,0.35198
6270.35,0.35750
6247.21,0.35699
6224.06,0.35903
6200.92,0.36533
6177.77,0.36006
6154.63,0.36624
6131.48,0.36526
6108.34,0.36564
6085.19,0.36355
6062.05,0.36279
6038.9,0.36089
6015.76,0.36042
5992.61,0.35813
5969.47,0.35517
5946.32,0.35331
5923.18,0.34858
5900.03,0.34563
5876.89,0.33667
5853.74,0.32695
5830.6,0.31350
5807.45,0.30007
5784.31,0.27986
5761.16,0.29128
5738.02,0.31423
5714.87,0.32363
5691.73,0.31742
5668.58,0.30287
5645.44,0.31845
5622.29,0.32351
5599.15,0.32532
5576,0.32671
5552.86,0.32772
5529.71,0.32601
5506.57,0.32750
5483.42,0.32833
5460.28,0.33034
5437.13,0.33137
5413.99,0.33323
5390.84,0.33529
5367.7,0.33954
5344.55,0.33981
5321.41,0.33539
5298.26,0.32931
5275.12,0.31422
5251.97,0.29391
5228.83,0.28017
5205.68,0.27573
5182.54,0.27475
5159.39,0.27777
5136.25,0.28474
5113.1,0.29014
5089.96,0.29432
5066.81,0.29966
5043.67,0.30404
5020.52,0.30524
4997.38,0.30707
4974.23,0.30425
4951.09,0.29983
4927.94,0.29139
4904.8,0.28154
4881.65,0.27354
4858.51,0.26555
4835.36,0.25974
4812.22,0.25447
4789.07,0.25247
4765.93,0.24999
4742.78,0.24949
4719.64,0.25048
4696.49,0.25230
4673.35,0.25414
4650.2,0.25937
4627.06,0.26292
4603.92,0.26638
4580.77,0.26886
4557.63,0.27119
4534.48,0.27258
4511.34,0.27007
4488.19,0.26451
4465.05,0.25042
4441.9,0.23415
4418.76,0.22058
4395.61,0.21003
4372.47,0.20403
4349.32,0.19291
4326.18,0.16657
4303.03,0.19285
4279.89,0.18994
4256.74,0.17519
4233.6,0.18660
4210.45,0.18434
4187.31,0.17926
4164.16,0.18113
4141.02,0.18042
4117.87,0.17841
4094.73,0.17381
4071.58,0.17404
4048.44,0.16939
4025.29,0.16638
4002.15,0.16925
3979,0.16943
3955.86,0.17419
3932.71,0.17621
3909.57,0.17882
3886.42,0.18134
3863.28,0.18606
3840.13,0.19044
3816.99,0.19031
3793.84,0.19157
3770.7,0.18942
3747.55,0.18754
3724.41,0.18182
3701.26,0.16837
3678.12,0.14899
3654.97,0.12421
3631.83,0.10723
3608.68,0.09313
3585.54,0.08231
3562.39,0.07534
3539.25,0.06975
3516.1,0.06461
3492.96,0.06198
3469.81,0.06046
3446.67,0.05918
3423.52,0.05868
3400.38,0.05824
3377.23,0.05773
3354.09,0.05745
3330.94,0.05910
3307.8,0.06110
3284.65,0.06165
3261.51,0.06369
3238.36,0.06676
3215.22,0.06919
3192.07,0.07287
3168.93,0.07562
3145.78,0.07957
3122.64,0.08228
3099.49,0.08377
3076.35,0.08464
3053.2,0.08624
3030.06,0.08484
3006.91,0.07980
2983.77,0.07037
2960.62,0.05358
2937.48,0.04257
2914.33,0.05312
2891.19,0.05520
2868.04,0.05637
2844.9,0.06057
2821.75,0.08050
2798.61,0.08873
2775.46,0.09344
2752.32,0.09558
2729.17,0.09528
2706.03,0.09837
2682.88,0.10032
2659.74,0.10073
2636.59,0.10216
2613.45,0.10586
2590.3,0.10861
2567.16,0.11066
2544.02,0.11192
2520.87,0.11304
2497.73,0.11650
2474.58,0.11929
2451.44,0.12206
2428.29,0.12399
2405.15,0.12775
2382,0.13088
2358.86,0.13228
2335.71,0.13106
2312.57,0.13327
2289.42,0.13364
2266.28,0.13316
2243.13,0.13042
2219.99,0.13109
2196.84,0.12988
2173.7,0.12410
2150.55,0.11941
2127.41,0.11898
2104.26,0.11986
2081.12,0.12072
2057.97,0.11950
2034.83,0.11966
2011.68,0.12275
1988.54,0.12734
1965.39,0.12644
1942.25,0.12637
1919.1,0.12965
1895.96,0.12818
1872.81,0.12956
1849.67,0.12645
1826.52,0.11938
1803.38,0.10825
1780.23,0.09104
1757.09,0.06334
1733.94,0.05848
1710.8,0.06638
1687.65,0.06996
1664.51,0.06350
1641.36,0.06339
1618.22,0.06083
1595.07,0.05646
1571.93,0.06860
1548.78,0.07208
1525.64,0.06498
1502.49,0.05479
1479.35,0.05261
1456.2,0.04697
1433.06,0.05007
1409.91,0.05332
1386.77,0.05073
1363.62,0.04952
1340.48,0.04984
1317.33,0.05044
1294.19,0.05096
1271.04,0.04692
1247.9,0.04696
1224.75,0.04850
1201.61,0.04966
1178.46,0.04633
1155.32,0.04626
1132.17,0.04209
1109.03,0.04318
1085.88,0.04363
1062.74,0.05031
1039.59,0.05430
1016.45,0.05767
993.304,0.06009
970.159,0.06509
947.014,0.07112
923.869,0.06834
900.724,0.06212
877.579,0.06497
854.434,0.06472
831.289,0.06123
808.144,0.05638
784.999,0.05933
761.854,0.05642
738.709,0.05274
715.565,0.04963
692.42,0.04910
669.275,0.04662
646.13,0.04707
622.985,0.04305
599.84,0.04625