File: 01_Data/Composite_Deck_Board/FTIR/IS/Composite_Deck_Board_IS_S_220928_R4.dpt
7497.03,0.39873
7473.89,0.40304
7450.74,0.39960
7427.6,0.39475
7404.45,0.39867
7381.31,0.39289
7358.16,0.39355
7335.02,0.38894
7311.87,0.38513
7288.73,0.38040
7265.58,0.38493
7242.44,0.39651
7219.29,0.37440
7196.15,0.37228
7173,0.37534
7149.86,0.37335
7126.71,0.36967
7103.57,0.36179
7080.42,0.36053
7057.28,0.35290
7034.13,0.34407
7010.99,0.34384
6987.84,0.33871
6964.7,0.33340
6941.55,0.33976
6918.41,0.33676
6895.26,0.33559
6872.12,0.32998
6848.97,0.33152
6825.83,0.33451
6802.68,0.33537
6779.54,0.33829
6756.39,0.33547
6733.25,0.34119
6710.1,0.34230
6686.96,0.34279
6663.82,0.34448
6640.67,0.34108
6617.53,0.34222
6594.38,0.34494
6571.24,0.35068
6548.09,0.34768
6524.95,0.34926
6501.8,0.35168
6478.66,0.34734
6455.51,0.35168
6432.37,0.34945
6409.22,0.35155
6386.08,0.35310
6362.93,0.35357
6339.79,0.35295
6316.64,0.35079
6293.5,0.35438
6270.35,0.35387
6247.21,0.35762
6224.06,0.36226
6200.92,0.36155
6177.77,0.36305
6154.63,0.36294
6131.48,0.36622
6108.34,0.36605
6085.19,0.36885
6062.05,0.36136
6038.9,0.36214
6015.76,0.35825
5992.61,0.36075
5969.47,0.35727
5946.32,0.35283
5923.18,0.34903
5900.03,0.34307
5876.89,0.33716
5853.74,0.32452
5830.6,0.31150
5807.45,0.29758
5784.31,0.27979
5761.16,0.29078
5738.02,0.31496
5714.87,0.32407
5691.73,0.31870
5668.58,0.30434
5645.44,0.31875
5622.29,0.32346
5599.15,0.32656
5576,0.32642
5552.86,0.32578
5529.71,0.32833
5506.57,0.32655
5483.42,0.32719
5460.28,0.32958
5437.13,0.33055
5413.99,0.33485
5390.84,0.33617
5367.7,0.33806
5344.55,0.33955
5321.41,0.33561
5298.26,0.32758
5275.12,0.31392
5251.97,0.29378
5228.83,0.27825
5205.68,0.27087
5182.54,0.27207
5159.39,0.27681
5136.25,0.28352
5113.1,0.28872
5089.96,0.29335
5066.81,0.29846
5043.67,0.30208
5020.52,0.30681
4997.38,0.30532
4974.23,0.30248
4951.09,0.29801
4927.94,0.29093
4904.8,0.28089
4881.65,0.27355
4858.51,0.26556
4835.36,0.25917
4812.22,0.25445
4789.07,0.25093
4765.93,0.25035
4742.78,0.25000
4719.64,0.25094
4696.49,0.25224
4673.35,0.25500
4650.2,0.25851
4627.06,0.26212
4603.92,0.26611
4580.77,0.26947
4557.63,0.27033
4534.48,0.27089
4511.34,0.27018
4488.19,0.26316
4465.05,0.25015
4441.9,0.23397
4418.76,0.22008
4395.61,0.20948
4372.47,0.20387
4349.32,0.19257
4326.18,0.16698
4303.03,0.19223
4279.89,0.19003
4256.74,0.17439
4233.6,0.18644
4210.45,0.18378
4187.31,0.17896
4164.16,0.18075
4141.02,0.17974
4117.87,0.17711
4094.73,0.17310
4071.58,0.17336
4048.44,0.16960
4025.29,0.16608
4002.15,0.16900
3979,0.16969
3955.86,0.17365
3932.71,0.17559
3909.57,0.17787
3886.42,0.18099
3863.28,0.18475
3840.13,0.18898
3816.99,0.18908
3793.84,0.19026
3770.7,0.18864
3747.55,0.18594
3724.41,0.17922
3701.26,0.16753
3678.12,0.14622
3654.97,0.12248
3631.83,0.10541
3608.68,0.09197
3585.54,0.08232
3562.39,0.07414
3539.25,0.06881
3516.1,0.06552
3492.96,0.06204
3469.81,0.06006
3446.67,0.05908
3423.52,0.05783
3400.38,0.05751
3377.23,0.05734
3354.09,0.05823
3330.94,0.05921
3307.8,0.06028
3284.65,0.06196
3261.51,0.06393
3238.36,0.06720
3215.22,0.06924
3192.07,0.07312
3168.93,0.07523
3145.78,0.07830
3122.64,0.08164
3099.49,0.08355
3076.35,0.08425
3053.2,0.08498
3030.06,0.08446
3006.91,0.07923
2983.77,0.06994
2960.62,0.05371
2937.48,0.04323
2914.33,0.05300
2891.19,0.05486
2868.04,0.05605
2844.9,0.06036
2821.75,0.08065
2798.61,0.08801
2775.46,0.09325
2752.32,0.09510
2729.17,0.09540
2706.03,0.09776
2682.88,0.09980
2659.74,0.10045
2636.59,0.10212
2613.45,0.10559
2590.3,0.10850
2567.16,0.11044
2544.02,0.11173
2520.87,0.11307
2497.73,0.11590
2474.58,0.11882
2451.44,0.12170
2428.29,0.12370
2405.15,0.12739
2382,0.13067
2358.86,0.13180
2335.71,0.13116
2312.57,0.13291
2289.42,0.13308
2266.28,0.13240
2243.13,0.13007
2219.99,0.13068
2196.84,0.12913
2173.7,0.12379
2150.55,0.11917
2127.41,0.11864
2104.26,0.11946
2081.12,0.12032
2057.97,0.11887
2034.83,0.11901
2011.68,0.12235
1988.54,0.12670
1965.39,0.12580
1942.25,0.12616
1919.1,0.12898
1895.96,0.12757
1872.81,0.12909
1849.67,0.12585
1826.52,0.11882
1803.38,0.10820
1780.23,0.09088
1757.09,0.06362
1733.94,0.05819
1710.8,0.06623
1687.65,0.06973
1664.51,0.06378
1641.36,0.06296
1618.22,0.06085
1595.07,0.05658
1571.93,0.06836
1548.78,0.07168
1525.64,0.06465
1502.49,0.05497
1479.35,0.05250
1456.2,0.04738
1433.06,0.05006
1409.91,0.05355
1386.77,0.05058
1363.62,0.04979
1340.48,0.04986
1317.33,0.04982
1294.19,0.05045
1271.04,0.04709
1247.9,0.04682
1224.75,0.04789
1201.61,0.04945
1178.46,0.04655
1155.32,0.04603
1132.17,0.04211
1109.03,0.04380
1085.88,0.04366
1062.74,0.05053
1039.59,0.05454
1016.45,0.05763
993.304,0.06095
970.159,0.06530
947.014,0.07084
923.869,0.06911
900.724,0.06227
877.579,0.06492
854.434,0.06493
831.289,0.06148
808.144,0.05622
784.999,0.06096
761.854,0.05715
738.709,0.05172
715.565,0.04949
692.42,0.04958
669.275,0.04651
646.13,0.04658
622.985,0.04528
599.84,0.04298