File: 01_Data/Composite_Deck_Board/FTIR/IS/Composite_Deck_Board_IS_S_220928_R6.dpt
7497.03,0.39729
7473.89,0.40270
7450.74,0.40254
7427.6,0.38965
7404.45,0.39513
7381.31,0.38901
7358.16,0.39046
7335.02,0.38880
7311.87,0.39223
7288.73,0.39233
7265.58,0.37575
7242.44,0.38712
7219.29,0.38356
7196.15,0.38316
7173,0.38102
7149.86,0.37259
7126.71,0.37505
7103.57,0.37241
7080.42,0.36666
7057.28,0.34978
7034.13,0.34713
7010.99,0.34826
6987.84,0.33879
6964.7,0.33648
6941.55,0.33450
6918.41,0.33612
6895.26,0.33325
6872.12,0.33512
6848.97,0.33082
6825.83,0.33558
6802.68,0.34006
6779.54,0.33361
6756.39,0.33501
6733.25,0.33657
6710.1,0.33863
6686.96,0.33931
6663.82,0.34323
6640.67,0.34206
6617.53,0.34726
6594.38,0.35027
6571.24,0.34953
6548.09,0.34935
6524.95,0.35020
6501.8,0.34620
6478.66,0.34955
6455.51,0.35315
6432.37,0.35003
6409.22,0.35254
6386.08,0.35033
6362.93,0.35192
6339.79,0.35030
6316.64,0.35437
6293.5,0.35517
6270.35,0.35643
6247.21,0.35829
6224.06,0.35944
6200.92,0.36388
6177.77,0.36147
6154.63,0.36781
6131.48,0.36437
6108.34,0.36481
6085.19,0.36459
6062.05,0.36537
6038.9,0.36240
6015.76,0.36052
5992.61,0.35886
5969.47,0.35659
5946.32,0.35481
5923.18,0.34943
5900.03,0.34451
5876.89,0.33892
5853.74,0.32568
5830.6,0.31352
5807.45,0.29891
5784.31,0.27906
5761.16,0.29436
5738.02,0.31567
5714.87,0.32274
5691.73,0.31655
5668.58,0.30434
5645.44,0.31840
5622.29,0.32384
5599.15,0.32799
5576,0.32800
5552.86,0.32731
5529.71,0.32673
5506.57,0.32539
5483.42,0.32667
5460.28,0.32931
5437.13,0.33226
5413.99,0.33642
5390.84,0.33838
5367.7,0.34007
5344.55,0.33852
5321.41,0.33738
5298.26,0.32720
5275.12,0.31640
5251.97,0.29727
5228.83,0.28091
5205.68,0.27454
5182.54,0.27491
5159.39,0.27963
5136.25,0.28583
5113.1,0.29117
5089.96,0.29520
5066.81,0.30102
5043.67,0.30387
5020.52,0.30766
4997.38,0.30713
4974.23,0.30473
4951.09,0.29898
4927.94,0.29224
4904.8,0.28296
4881.65,0.27434
4858.51,0.26543
4835.36,0.26084
4812.22,0.25451
4789.07,0.25367
4765.93,0.25177
4742.78,0.25018
4719.64,0.25036
4696.49,0.25209
4673.35,0.25518
4650.2,0.25977
4627.06,0.26379
4603.92,0.26779
4580.77,0.27022
4557.63,0.27111
4534.48,0.27190
4511.34,0.27076
4488.19,0.26397
4465.05,0.25032
4441.9,0.23499
4418.76,0.21981
4395.61,0.21038
4372.47,0.20468
4349.32,0.19308
4326.18,0.16687
4303.03,0.19346
4279.89,0.19012
4256.74,0.17552
4233.6,0.18685
4210.45,0.18421
4187.31,0.17982
4164.16,0.18141
4141.02,0.18157
4117.87,0.17777
4094.73,0.17323
4071.58,0.17447
4048.44,0.17033
4025.29,0.16689
4002.15,0.16899
3979,0.17052
3955.86,0.17423
3932.71,0.17586
3909.57,0.17838
3886.42,0.18133
3863.28,0.18608
3840.13,0.18931
3816.99,0.18993
3793.84,0.19146
3770.7,0.18996
3747.55,0.18791
3724.41,0.18102
3701.26,0.16850
3678.12,0.14808
3654.97,0.12376
3631.83,0.10677
3608.68,0.09292
3585.54,0.08207
3562.39,0.07532
3539.25,0.06926
3516.1,0.06523
3492.96,0.06229
3469.81,0.06024
3446.67,0.05886
3423.52,0.05859
3400.38,0.05796
3377.23,0.05787
3354.09,0.05771
3330.94,0.05835
3307.8,0.06020
3284.65,0.06182
3261.51,0.06412
3238.36,0.06674
3215.22,0.07082
3192.07,0.07265
3168.93,0.07650
3145.78,0.07897
3122.64,0.08213
3099.49,0.08366
3076.35,0.08511
3053.2,0.08615
3030.06,0.08527
3006.91,0.07906
2983.77,0.07069
2960.62,0.05335
2937.48,0.04307
2914.33,0.05350
2891.19,0.05503
2868.04,0.05612
2844.9,0.06087
2821.75,0.08078
2798.61,0.08905
2775.46,0.09343
2752.32,0.09554
2729.17,0.09602
2706.03,0.09824
2682.88,0.10011
2659.74,0.10101
2636.59,0.10225
2613.45,0.10569
2590.3,0.10861
2567.16,0.11082
2544.02,0.11182
2520.87,0.11376
2497.73,0.11686
2474.58,0.11939
2451.44,0.12189
2428.29,0.12411
2405.15,0.12807
2382,0.13075
2358.86,0.13216
2335.71,0.13147
2312.57,0.13329
2289.42,0.13357
2266.28,0.13269
2243.13,0.13010
2219.99,0.13125
2196.84,0.12991
2173.7,0.12415
2150.55,0.11948
2127.41,0.11922
2104.26,0.12044
2081.12,0.12079
2057.97,0.11958
2034.83,0.11979
2011.68,0.12292
1988.54,0.12748
1965.39,0.12644
1942.25,0.12680
1919.1,0.12997
1895.96,0.12831
1872.81,0.13013
1849.67,0.12650
1826.52,0.11944
1803.38,0.10848
1780.23,0.09111
1757.09,0.06342
1733.94,0.05840
1710.8,0.06632
1687.65,0.06990
1664.51,0.06361
1641.36,0.06354
1618.22,0.06101
1595.07,0.05632
1571.93,0.06874
1548.78,0.07184
1525.64,0.06454
1502.49,0.05464
1479.35,0.05269
1456.2,0.04729
1433.06,0.05035
1409.91,0.05321
1386.77,0.05101
1363.62,0.04998
1340.48,0.05005
1317.33,0.04963
1294.19,0.05038
1271.04,0.04709
1247.9,0.04696
1224.75,0.04839
1201.61,0.04893
1178.46,0.04613
1155.32,0.04590
1132.17,0.04202
1109.03,0.04337
1085.88,0.04409
1062.74,0.05112
1039.59,0.05407
1016.45,0.05763
993.304,0.06004
970.159,0.06575
947.014,0.07154
923.869,0.06845
900.724,0.06159
877.579,0.06587
854.434,0.06457
831.289,0.06048
808.144,0.05617
784.999,0.06044
761.854,0.05662
738.709,0.05106
715.565,0.04977
692.42,0.04882
669.275,0.04666
646.13,0.04664
622.985,0.04459
599.84,0.04505