File: 01_Data/Composite_Deck_Board/FTIR/IS/Composite_Deck_Board_IS_S_220928_R3.dpt
7497.03,0.39942
7473.89,0.38921
7450.74,0.40164
7427.6,0.39996
7404.45,0.39121
7381.31,0.40061
7358.16,0.38900
7335.02,0.38868
7311.87,0.38671
7288.73,0.38586
7265.58,0.38827
7242.44,0.38602
7219.29,0.38231
7196.15,0.38077
7173,0.37319
7149.86,0.37668
7126.71,0.37325
7103.57,0.36807
7080.42,0.35803
7057.28,0.35382
7034.13,0.35041
7010.99,0.33932
6987.84,0.33442
6964.7,0.33740
6941.55,0.33809
6918.41,0.33132
6895.26,0.33413
6872.12,0.33146
6848.97,0.33289
6825.83,0.33538
6802.68,0.33250
6779.54,0.33589
6756.39,0.33377
6733.25,0.33882
6710.1,0.33895
6686.96,0.33718
6663.82,0.33882
6640.67,0.34284
6617.53,0.34615
6594.38,0.34792
6571.24,0.34814
6548.09,0.34864
6524.95,0.34560
6501.8,0.34724
6478.66,0.34791
6455.51,0.34870
6432.37,0.34856
6409.22,0.35041
6386.08,0.35158
6362.93,0.34971
6339.79,0.35451
6316.64,0.35396
6293.5,0.35406
6270.35,0.35675
6247.21,0.35372
6224.06,0.35821
6200.92,0.35851
6177.77,0.36206
6154.63,0.36637
6131.48,0.36910
6108.34,0.36529
6085.19,0.36220
6062.05,0.36381
6038.9,0.35954
6015.76,0.35640
5992.61,0.35806
5969.47,0.35584
5946.32,0.35277
5923.18,0.34802
5900.03,0.34431
5876.89,0.33678
5853.74,0.32522
5830.6,0.31133
5807.45,0.29924
5784.31,0.27982
5761.16,0.29063
5738.02,0.31429
5714.87,0.32221
5691.73,0.31761
5668.58,0.30321
5645.44,0.31924
5622.29,0.32336
5599.15,0.32683
5576,0.32577
5552.86,0.32602
5529.71,0.32523
5506.57,0.32534
5483.42,0.32472
5460.28,0.32811
5437.13,0.32966
5413.99,0.33381
5390.84,0.33622
5367.7,0.33825
5344.55,0.33899
5321.41,0.33584
5298.26,0.32786
5275.12,0.31122
5251.97,0.29130
5228.83,0.27628
5205.68,0.27033
5182.54,0.27118
5159.39,0.27523
5136.25,0.28163
5113.1,0.28820
5089.96,0.29201
5066.81,0.29674
5043.67,0.30231
5020.52,0.30383
4997.38,0.30559
4974.23,0.30220
4951.09,0.29819
4927.94,0.29039
4904.8,0.28115
4881.65,0.27241
4858.51,0.26471
4835.36,0.25961
4812.22,0.25463
4789.07,0.25200
4765.93,0.24952
4742.78,0.24967
4719.64,0.24938
4696.49,0.25175
4673.35,0.25390
4650.2,0.25790
4627.06,0.26243
4603.92,0.26609
4580.77,0.26905
4557.63,0.26994
4534.48,0.27093
4511.34,0.26988
4488.19,0.26313
4465.05,0.24903
4441.9,0.23274
4418.76,0.21851
4395.61,0.20917
4372.47,0.20355
4349.32,0.19199
4326.18,0.16641
4303.03,0.19209
4279.89,0.18919
4256.74,0.17482
4233.6,0.18619
4210.45,0.18297
4187.31,0.17837
4164.16,0.17932
4141.02,0.17929
4117.87,0.17721
4094.73,0.17250
4071.58,0.17279
4048.44,0.16904
4025.29,0.16553
4002.15,0.16798
3979,0.16977
3955.86,0.17298
3932.71,0.17525
3909.57,0.17780
3886.42,0.18111
3863.28,0.18472
3840.13,0.18774
3816.99,0.18826
3793.84,0.18955
3770.7,0.18803
3747.55,0.18578
3724.41,0.17899
3701.26,0.16649
3678.12,0.14502
3654.97,0.12115
3631.83,0.10421
3608.68,0.09113
3585.54,0.08198
3562.39,0.07458
3539.25,0.06837
3516.1,0.06436
3492.96,0.06202
3469.81,0.05999
3446.67,0.05860
3423.52,0.05811
3400.38,0.05811
3377.23,0.05802
3354.09,0.05759
3330.94,0.05917
3307.8,0.05980
3284.65,0.06175
3261.51,0.06378
3238.36,0.06640
3215.22,0.06907
3192.07,0.07239
3168.93,0.07542
3145.78,0.07786
3122.64,0.08071
3099.49,0.08303
3076.35,0.08375
3053.2,0.08552
3030.06,0.08423
3006.91,0.07851
2983.77,0.07070
2960.62,0.05361
2937.48,0.04283
2914.33,0.05313
2891.19,0.05501
2868.04,0.05607
2844.9,0.06020
2821.75,0.08025
2798.61,0.08845
2775.46,0.09352
2752.32,0.09522
2729.17,0.09545
2706.03,0.09771
2682.88,0.09953
2659.74,0.10040
2636.59,0.10257
2613.45,0.10524
2590.3,0.10791
2567.16,0.10991
2544.02,0.11145
2520.87,0.11338
2497.73,0.11613
2474.58,0.11854
2451.44,0.12162
2428.29,0.12361
2405.15,0.12717
2382,0.13007
2358.86,0.13132
2335.71,0.13082
2312.57,0.13239
2289.42,0.13283
2266.28,0.13195
2243.13,0.12929
2219.99,0.13042
2196.84,0.12856
2173.7,0.12362
2150.55,0.11875
2127.41,0.11806
2104.26,0.11939
2081.12,0.11963
2057.97,0.11854
2034.83,0.11861
2011.68,0.12168
1988.54,0.12629
1965.39,0.12532
1942.25,0.12533
1919.1,0.12888
1895.96,0.12726
1872.81,0.12888
1849.67,0.12584
1826.52,0.11864
1803.38,0.10779
1780.23,0.09087
1757.09,0.06338
1733.94,0.05853
1710.8,0.06586
1687.65,0.06937
1664.51,0.06297
1641.36,0.06274
1618.22,0.06044
1595.07,0.05602
1571.93,0.06833
1548.78,0.07137
1525.64,0.06450
1502.49,0.05494
1479.35,0.05286
1456.2,0.04715
1433.06,0.05024
1409.91,0.05357
1386.77,0.05085
1363.62,0.04998
1340.48,0.04961
1317.33,0.05002
1294.19,0.05048
1271.04,0.04700
1247.9,0.04692
1224.75,0.04854
1201.61,0.04924
1178.46,0.04633
1155.32,0.04541
1132.17,0.04254
1109.03,0.04384
1085.88,0.04411
1062.74,0.05085
1039.59,0.05416
1016.45,0.05724
993.304,0.06009
970.159,0.06553
947.014,0.07084
923.869,0.06799
900.724,0.06236
877.579,0.06511
854.434,0.06485
831.289,0.06064
808.144,0.05634
784.999,0.05868
761.854,0.05638
738.709,0.05284
715.565,0.04942
692.42,0.04929
669.275,0.04708
646.13,0.04434
622.985,0.04495
599.84,0.04510