File: 01_Data/Rubber_Foam_Pipe_Insulation/FTIR/IS/Rubber_Foam_Pipe_Insulation_IS_S_220825_R4.dpt
7497.03,0.04563
7473.89,0.04558
7450.74,0.05015
7427.6,0.05570
7404.45,0.04702
7381.31,0.05157
7358.16,0.04250
7335.02,0.04683
7311.87,0.04586
7288.73,0.05304
7265.58,0.04948
7242.44,0.03914
7219.29,0.04199
7196.15,0.04373
7173,0.04614
7149.86,0.03595
7126.71,0.04599
7103.57,0.04939
7080.42,0.05634
7057.28,0.04615
7034.13,0.04921
7010.99,0.05018
6987.84,0.04698
6964.7,0.05065
6941.55,0.04524
6918.41,0.04354
6895.26,0.04651
6872.12,0.04134
6848.97,0.04852
6825.83,0.04707
6802.68,0.04932
6779.54,0.04634
6756.39,0.04263
6733.25,0.04344
6710.1,0.04873
6686.96,0.04396
6663.82,0.03994
6640.67,0.04364
6617.53,0.04437
6594.38,0.04111
6571.24,0.04879
6548.09,0.04885
6524.95,0.04407
6501.8,0.04239
6478.66,0.04857
6455.51,0.04769
6432.37,0.04712
6409.22,0.04691
6386.08,0.04849
6362.93,0.04277
6339.79,0.04453
6316.64,0.04562
6293.5,0.04590
6270.35,0.04455
6247.21,0.04890
6224.06,0.04373
6200.92,0.04589
6177.77,0.04363
6154.63,0.04377
6131.48,0.04707
6108.34,0.04536
6085.19,0.04447
6062.05,0.04551
6038.9,0.04553
6015.76,0.04831
5992.61,0.04517
5969.47,0.04468
5946.32,0.04648
5923.18,0.04720
5900.03,0.04651
5876.89,0.04682
5853.74,0.04802
5830.6,0.04751
5807.45,0.04501
5784.31,0.04819
5761.16,0.04700
5738.02,0.04739
5714.87,0.04597
5691.73,0.04679
5668.58,0.04617
5645.44,0.04512
5622.29,0.04614
5599.15,0.04833
5576,0.04699
5552.86,0.04857
5529.71,0.04729
5506.57,0.04758
5483.42,0.04752
5460.28,0.04806
5437.13,0.04813
5413.99,0.04813
5390.84,0.04856
5367.7,0.04690
5344.55,0.04821
5321.41,0.04706
5298.26,0.04848
5275.12,0.04859
5251.97,0.04716
5228.83,0.04814
5205.68,0.05058
5182.54,0.04853
5159.39,0.04827
5136.25,0.04822
5113.1,0.04849
5089.96,0.04902
5066.81,0.04839
5043.67,0.04902
5020.52,0.04897
4997.38,0.04964
4974.23,0.04864
4951.09,0.04828
4927.94,0.04883
4904.8,0.04933
4881.65,0.04945
4858.51,0.04933
4835.36,0.04866
4812.22,0.04993
4789.07,0.05014
4765.93,0.04918
4742.78,0.04995
4719.64,0.04996
4696.49,0.05090
4673.35,0.04995
4650.2,0.05108
4627.06,0.05022
4603.92,0.05069
4580.77,0.04980
4557.63,0.04980
4534.48,0.05023
4511.34,0.05110
4488.19,0.05063
4465.05,0.05082
4441.9,0.05081
4418.76,0.05147
4395.61,0.05148
4372.47,0.05148
4349.32,0.05139
4326.18,0.05077
4303.03,0.05144
4279.89,0.05174
4256.74,0.05139
4233.6,0.05161
4210.45,0.05128
4187.31,0.05141
4164.16,0.05177
4141.02,0.05193
4117.87,0.05223
4094.73,0.05203
4071.58,0.05295
4048.44,0.05207
4025.29,0.05194
4002.15,0.05247
3979,0.05254
3955.86,0.05289
3932.71,0.05285
3909.57,0.05310
3886.42,0.05318
3863.28,0.05341
3840.13,0.05354
3816.99,0.05313
3793.84,0.05336
3770.7,0.05325
3747.55,0.05297
3724.41,0.05361
3701.26,0.05334
3678.12,0.05243
3654.97,0.05196
3631.83,0.05112
3608.68,0.05077
3585.54,0.05096
3562.39,0.04956
3539.25,0.04757
3516.1,0.04293
3492.96,0.04575
3469.81,0.04286
3446.67,0.04124
3423.52,0.04119
3400.38,0.03896
3377.23,0.04068
3354.09,0.04374
3330.94,0.04323
3307.8,0.04250
3284.65,0.04277
3261.51,0.04491
3238.36,0.04359
3215.22,0.04233
3192.07,0.04361
3168.93,0.04457
3145.78,0.04549
3122.64,0.04638
3099.49,0.04627
3076.35,0.04598
3053.2,0.04650
3030.06,0.04682
3006.91,0.04623
2983.77,0.04506
2960.62,0.04240
2937.48,0.04115
2914.33,0.04844
2891.19,0.04673
2868.04,0.04663
2844.9,0.04926
2821.75,0.05229
2798.61,0.05343
2775.46,0.05371
2752.32,0.05448
2729.17,0.05560
2706.03,0.05536
2682.88,0.05588
2659.74,0.05630
2636.59,0.05672
2613.45,0.05635
2590.3,0.05688
2567.16,0.05698
2544.02,0.05662
2520.87,0.05636
2497.73,0.05774
2474.58,0.05865
2451.44,0.05921
2428.29,0.05915
2405.15,0.05929
2382,0.05995
2358.86,0.05984
2335.71,0.05962
2312.57,0.06001
2289.42,0.06002
2266.28,0.06048
2243.13,0.05928
2219.99,0.06060
2196.84,0.06065
2173.7,0.06118
2150.55,0.06116
2127.41,0.06158
2104.26,0.06151
2081.12,0.06178
2057.97,0.06174
2034.83,0.06193
2011.68,0.06194
1988.54,0.06197
1965.39,0.06231
1942.25,0.06248
1919.1,0.06209
1895.96,0.06202
1872.81,0.06175
1849.67,0.06066
1826.52,0.05995
1803.38,0.05849
1780.23,0.05778
1757.09,0.05399
1733.94,0.04423
1710.8,0.03945
1687.65,0.03982
1664.51,0.04420
1641.36,0.04765
1618.22,0.04505
1595.07,0.04418
1571.93,0.04816
1548.78,0.04226
1525.64,0.04151
1502.49,0.04361
1479.35,0.04683
1456.2,0.04504
1433.06,0.05002
1409.91,0.05975
1386.77,0.06154
1363.62,0.06199
1340.48,0.06582
1317.33,0.06592
1294.19,0.06539
1271.04,0.06352
1247.9,0.06187
1224.75,0.06407
1201.61,0.06264
1178.46,0.06317
1155.32,0.06099
1132.17,0.06082
1109.03,0.05777
1085.88,0.06139
1062.74,0.06116
1039.59,0.05402
1016.45,0.05461
993.304,0.06117
970.159,0.05350
947.014,0.06321
923.869,0.06483
900.724,0.06606
877.579,0.05578
854.434,0.05909
831.289,0.06061
808.144,0.05351
784.999,0.05424
761.854,0.05528
738.709,0.05424
715.565,0.05324
692.42,0.05288
669.275,0.05025
646.13,0.05291
622.985,0.04636
599.84,0.04582