File: 01_Data/Rubber_Foam_Pipe_Insulation/FTIR/IS/Rubber_Foam_Pipe_Insulation_IS_S_220825_R5.dpt
7497.03,0.05054
7473.89,0.04219
7450.74,0.04333
7427.6,0.04862
7404.45,0.04146
7381.31,0.04436
7358.16,0.04752
7335.02,0.04677
7311.87,0.05100
7288.73,0.04878
7265.58,0.05371
7242.44,0.04399
7219.29,0.04611
7196.15,0.04344
7173,0.05268
7149.86,0.04646
7126.71,0.04593
7103.57,0.04584
7080.42,0.04852
7057.28,0.04820
7034.13,0.04405
7010.99,0.04797
6987.84,0.03710
6964.7,0.04671
6941.55,0.04495
6918.41,0.04310
6895.26,0.05196
6872.12,0.04421
6848.97,0.04819
6825.83,0.04844
6802.68,0.04551
6779.54,0.04350
6756.39,0.05057
6733.25,0.04809
6710.1,0.04375
6686.96,0.04249
6663.82,0.04679
6640.67,0.04460
6617.53,0.04576
6594.38,0.04237
6571.24,0.04269
6548.09,0.04639
6524.95,0.05058
6501.8,0.04804
6478.66,0.04309
6455.51,0.04618
6432.37,0.04197
6409.22,0.04527
6386.08,0.04063
6362.93,0.04682
6339.79,0.04425
6316.64,0.04516
6293.5,0.04322
6270.35,0.04766
6247.21,0.04547
6224.06,0.04480
6200.92,0.04445
6177.77,0.04806
6154.63,0.04479
6131.48,0.04450
6108.34,0.04696
6085.19,0.04718
6062.05,0.04470
6038.9,0.04516
6015.76,0.04828
5992.61,0.04467
5969.47,0.04728
5946.32,0.04675
5923.18,0.04844
5900.03,0.04836
5876.89,0.04466
5853.74,0.04544
5830.6,0.04781
5807.45,0.04687
5784.31,0.04547
5761.16,0.04718
5738.02,0.04662
5714.87,0.04769
5691.73,0.04827
5668.58,0.04795
5645.44,0.04512
5622.29,0.04767
5599.15,0.04706
5576,0.04783
5552.86,0.04885
5529.71,0.04650
5506.57,0.04818
5483.42,0.04804
5460.28,0.04615
5437.13,0.04680
5413.99,0.04883
5390.84,0.04775
5367.7,0.04729
5344.55,0.04801
5321.41,0.04801
5298.26,0.04751
5275.12,0.04828
5251.97,0.05034
5228.83,0.04970
5205.68,0.04645
5182.54,0.04988
5159.39,0.04870
5136.25,0.04745
5113.1,0.04931
5089.96,0.05011
5066.81,0.04921
5043.67,0.05039
5020.52,0.04927
4997.38,0.04951
4974.23,0.04897
4951.09,0.04818
4927.94,0.04895
4904.8,0.04952
4881.65,0.04858
4858.51,0.05031
4835.36,0.04976
4812.22,0.04979
4789.07,0.04987
4765.93,0.04968
4742.78,0.05027
4719.64,0.05000
4696.49,0.05008
4673.35,0.05120
4650.2,0.05034
4627.06,0.05063
4603.92,0.04994
4580.77,0.05056
4557.63,0.05184
4534.48,0.05064
4511.34,0.05092
4488.19,0.05041
4465.05,0.05151
4441.9,0.05142
4418.76,0.05097
4395.61,0.05112
4372.47,0.05076
4349.32,0.05081
4326.18,0.05071
4303.03,0.05125
4279.89,0.05193
4256.74,0.05115
4233.6,0.05114
4210.45,0.05160
4187.31,0.05121
4164.16,0.05195
4141.02,0.05210
4117.87,0.05175
4094.73,0.05163
4071.58,0.05252
4048.44,0.05241
4025.29,0.05261
4002.15,0.05281
3979,0.05267
3955.86,0.05255
3932.71,0.05262
3909.57,0.05278
3886.42,0.05305
3863.28,0.05332
3840.13,0.05340
3816.99,0.05303
3793.84,0.05349
3770.7,0.05309
3747.55,0.05416
3724.41,0.05341
3701.26,0.05283
3678.12,0.05329
3654.97,0.05291
3631.83,0.05143
3608.68,0.05038
3585.54,0.05152
3562.39,0.05080
3539.25,0.04851
3516.1,0.04336
3492.96,0.04578
3469.81,0.04345
3446.67,0.04152
3423.52,0.04029
3400.38,0.03945
3377.23,0.04085
3354.09,0.04323
3330.94,0.04349
3307.8,0.04336
3284.65,0.04392
3261.51,0.04445
3238.36,0.04333
3215.22,0.04222
3192.07,0.04285
3168.93,0.04537
3145.78,0.04539
3122.64,0.04565
3099.49,0.04617
3076.35,0.04642
3053.2,0.04638
3030.06,0.04664
3006.91,0.04689
2983.77,0.04511
2960.62,0.04203
2937.48,0.04094
2914.33,0.04851
2891.19,0.04694
2868.04,0.04716
2844.9,0.04986
2821.75,0.05242
2798.61,0.05363
2775.46,0.05410
2752.32,0.05484
2729.17,0.05552
2706.03,0.05579
2682.88,0.05640
2659.74,0.05639
2636.59,0.05700
2613.45,0.05663
2590.3,0.05664
2567.16,0.05716
2544.02,0.05698
2520.87,0.05641
2497.73,0.05785
2474.58,0.05883
2451.44,0.05935
2428.29,0.05977
2405.15,0.05949
2382,0.06032
2358.86,0.06055
2335.71,0.06066
2312.57,0.06083
2289.42,0.06079
2266.28,0.06070
2243.13,0.05946
2219.99,0.06051
2196.84,0.06088
2173.7,0.06124
2150.55,0.06158
2127.41,0.06147
2104.26,0.06168
2081.12,0.06190
2057.97,0.06185
2034.83,0.06215
2011.68,0.06173
1988.54,0.06204
1965.39,0.06206
1942.25,0.06249
1919.1,0.06231
1895.96,0.06215
1872.81,0.06153
1849.67,0.06120
1826.52,0.06028
1803.38,0.05855
1780.23,0.05784
1757.09,0.05455
1733.94,0.04459
1710.8,0.04001
1687.65,0.04029
1664.51,0.04477
1641.36,0.04813
1618.22,0.04534
1595.07,0.04469
1571.93,0.04833
1548.78,0.04241
1525.64,0.04219
1502.49,0.04424
1479.35,0.04716
1456.2,0.04555
1433.06,0.05057
1409.91,0.06026
1386.77,0.06154
1363.62,0.06248
1340.48,0.06609
1317.33,0.06573
1294.19,0.06527
1271.04,0.06320
1247.9,0.06193
1224.75,0.06379
1201.61,0.06327
1178.46,0.06330
1155.32,0.06076
1132.17,0.06182
1109.03,0.05861
1085.88,0.06086
1062.74,0.06170
1039.59,0.05423
1016.45,0.05509
993.304,0.06151
970.159,0.05339
947.014,0.06355
923.869,0.06508
900.724,0.06615
877.579,0.05617
854.434,0.05974
831.289,0.05963
808.144,0.05362
784.999,0.05452
761.854,0.05587
738.709,0.05485
715.565,0.05421
692.42,0.05480
669.275,0.05071
646.13,0.05202
622.985,0.04772
599.84,0.04588