File: 01_Data/Rubber_Foam_Pipe_Insulation/FTIR/IS/Rubber_Foam_Pipe_Insulation_IS_S_220825_R7.dpt
7497.03,0.05023
7473.89,0.04654
7450.74,0.04325
7427.6,0.04625
7404.45,0.04431
7381.31,0.04674
7358.16,0.04979
7335.02,0.04331
7311.87,0.04079
7288.73,0.05072
7265.58,0.05389
7242.44,0.04200
7219.29,0.04649
7196.15,0.04939
7173,0.04980
7149.86,0.05057
7126.71,0.05436
7103.57,0.04626
7080.42,0.04838
7057.28,0.04984
7034.13,0.04359
7010.99,0.04864
6987.84,0.04887
6964.7,0.04829
6941.55,0.04411
6918.41,0.04739
6895.26,0.04682
6872.12,0.04399
6848.97,0.04134
6825.83,0.05160
6802.68,0.04649
6779.54,0.05022
6756.39,0.04571
6733.25,0.04070
6710.1,0.04355
6686.96,0.04613
6663.82,0.04749
6640.67,0.04600
6617.53,0.04902
6594.38,0.04304
6571.24,0.03991
6548.09,0.04501
6524.95,0.04758
6501.8,0.04552
6478.66,0.04671
6455.51,0.04656
6432.37,0.04857
6409.22,0.04535
6386.08,0.04671
6362.93,0.04327
6339.79,0.04502
6316.64,0.04413
6293.5,0.04429
6270.35,0.04638
6247.21,0.04824
6224.06,0.04826
6200.92,0.04918
6177.77,0.04653
6154.63,0.04753
6131.48,0.04554
6108.34,0.04845
6085.19,0.04520
6062.05,0.04788
6038.9,0.04681
6015.76,0.04644
5992.61,0.04687
5969.47,0.04632
5946.32,0.04560
5923.18,0.04686
5900.03,0.04917
5876.89,0.04763
5853.74,0.04593
5830.6,0.04902
5807.45,0.04736
5784.31,0.04605
5761.16,0.04868
5738.02,0.04789
5714.87,0.04741
5691.73,0.04634
5668.58,0.04763
5645.44,0.04840
5622.29,0.04581
5599.15,0.04639
5576,0.04727
5552.86,0.04714
5529.71,0.04701
5506.57,0.04654
5483.42,0.04693
5460.28,0.04661
5437.13,0.04783
5413.99,0.04660
5390.84,0.04833
5367.7,0.04747
5344.55,0.04751
5321.41,0.04767
5298.26,0.04805
5275.12,0.04825
5251.97,0.04707
5228.83,0.04806
5205.68,0.04795
5182.54,0.04750
5159.39,0.04879
5136.25,0.04894
5113.1,0.04968
5089.96,0.04950
5066.81,0.04902
5043.67,0.04895
5020.52,0.04892
4997.38,0.04908
4974.23,0.04926
4951.09,0.04939
4927.94,0.04857
4904.8,0.04865
4881.65,0.04965
4858.51,0.04986
4835.36,0.04978
4812.22,0.04965
4789.07,0.04922
4765.93,0.05019
4742.78,0.04926
4719.64,0.05061
4696.49,0.04958
4673.35,0.05039
4650.2,0.05000
4627.06,0.05035
4603.92,0.05081
4580.77,0.05006
4557.63,0.05035
4534.48,0.05030
4511.34,0.05028
4488.19,0.05121
4465.05,0.05083
4441.9,0.05016
4418.76,0.05126
4395.61,0.05134
4372.47,0.05064
4349.32,0.05085
4326.18,0.05113
4303.03,0.05148
4279.89,0.05121
4256.74,0.05157
4233.6,0.05095
4210.45,0.05125
4187.31,0.05172
4164.16,0.05127
4141.02,0.05214
4117.87,0.05156
4094.73,0.05189
4071.58,0.05205
4048.44,0.05163
4025.29,0.05161
4002.15,0.05185
3979,0.05240
3955.86,0.05234
3932.71,0.05199
3909.57,0.05267
3886.42,0.05253
3863.28,0.05223
3840.13,0.05222
3816.99,0.05222
3793.84,0.05309
3770.7,0.05253
3747.55,0.05200
3724.41,0.05263
3701.26,0.05288
3678.12,0.05224
3654.97,0.05159
3631.83,0.05017
3608.68,0.05008
3585.54,0.04994
3562.39,0.04907
3539.25,0.04710
3516.1,0.04276
3492.96,0.04444
3469.81,0.04340
3446.67,0.04079
3423.52,0.04057
3400.38,0.03952
3377.23,0.04121
3354.09,0.04186
3330.94,0.04312
3307.8,0.04247
3284.65,0.04298
3261.51,0.04410
3238.36,0.04369
3215.22,0.04202
3192.07,0.04326
3168.93,0.04459
3145.78,0.04608
3122.64,0.04536
3099.49,0.04561
3076.35,0.04620
3053.2,0.04626
3030.06,0.04630
3006.91,0.04649
2983.77,0.04498
2960.62,0.04219
2937.48,0.04075
2914.33,0.04829
2891.19,0.04686
2868.04,0.04665
2844.9,0.04950
2821.75,0.05196
2798.61,0.05332
2775.46,0.05397
2752.32,0.05422
2729.17,0.05494
2706.03,0.05573
2682.88,0.05568
2659.74,0.05610
2636.59,0.05608
2613.45,0.05668
2590.3,0.05638
2567.16,0.05652
2544.02,0.05671
2520.87,0.05621
2497.73,0.05747
2474.58,0.05870
2451.44,0.05892
2428.29,0.05906
2405.15,0.05979
2382,0.05922
2358.86,0.05820
2335.71,0.05868
2312.57,0.05967
2289.42,0.05992
2266.28,0.05997
2243.13,0.05892
2219.99,0.06001
2196.84,0.06019
2173.7,0.06099
2150.55,0.06081
2127.41,0.06104
2104.26,0.06099
2081.12,0.06133
2057.97,0.06139
2034.83,0.06167
2011.68,0.06132
1988.54,0.06165
1965.39,0.06185
1942.25,0.06178
1919.1,0.06183
1895.96,0.06187
1872.81,0.06125
1849.67,0.06045
1826.52,0.05934
1803.38,0.05793
1780.23,0.05764
1757.09,0.05381
1733.94,0.04334
1710.8,0.03950
1687.65,0.03927
1664.51,0.04401
1641.36,0.04781
1618.22,0.04461
1595.07,0.04398
1571.93,0.04751
1548.78,0.04207
1525.64,0.04125
1502.49,0.04285
1479.35,0.04657
1456.2,0.04380
1433.06,0.04950
1409.91,0.05955
1386.77,0.06097
1363.62,0.06122
1340.48,0.06554
1317.33,0.06567
1294.19,0.06479
1271.04,0.06290
1247.9,0.06172
1224.75,0.06360
1201.61,0.06254
1178.46,0.06236
1155.32,0.06036
1132.17,0.06171
1109.03,0.05802
1085.88,0.06086
1062.74,0.06094
1039.59,0.05409
1016.45,0.05521
993.304,0.06093
970.159,0.05307
947.014,0.06380
923.869,0.06460
900.724,0.06629
877.579,0.05617
854.434,0.05861
831.289,0.05970
808.144,0.05282
784.999,0.05398
761.854,0.05470
738.709,0.05498
715.565,0.05294
692.42,0.05414
669.275,0.05022
646.13,0.05215
622.985,0.04584
599.84,0.04519