File: 01_Data/Rubber_Foam_Pipe_Insulation/FTIR/IS/Rubber_Foam_Pipe_Insulation_IS_S_220825_R1.dpt
7497.03,0.05025
7473.89,0.05007
7450.74,0.05123
7427.6,0.04260
7404.45,0.05191
7381.31,0.04911
7358.16,0.05129
7335.02,0.04379
7311.87,0.04714
7288.73,0.05371
7265.58,0.04016
7242.44,0.04425
7219.29,0.04640
7196.15,0.04613
7173,0.04892
7149.86,0.04934
7126.71,0.05309
7103.57,0.04905
7080.42,0.04539
7057.28,0.04731
7034.13,0.04516
7010.99,0.04879
6987.84,0.04447
6964.7,0.04236
6941.55,0.04864
6918.41,0.04740
6895.26,0.04339
6872.12,0.04566
6848.97,0.04675
6825.83,0.04040
6802.68,0.04801
6779.54,0.04667
6756.39,0.04393
6733.25,0.04805
6710.1,0.04394
6686.96,0.04234
6663.82,0.04672
6640.67,0.04512
6617.53,0.04477
6594.38,0.04631
6571.24,0.04443
6548.09,0.04636
6524.95,0.04751
6501.8,0.04629
6478.66,0.04654
6455.51,0.04655
6432.37,0.04524
6409.22,0.04660
6386.08,0.04737
6362.93,0.04637
6339.79,0.04182
6316.64,0.04493
6293.5,0.04484
6270.35,0.04893
6247.21,0.04564
6224.06,0.04789
6200.92,0.04556
6177.77,0.05011
6154.63,0.04504
6131.48,0.04775
6108.34,0.04724
6085.19,0.04622
6062.05,0.04178
6038.9,0.04439
6015.76,0.04698
5992.61,0.04487
5969.47,0.04545
5946.32,0.04815
5923.18,0.04617
5900.03,0.04704
5876.89,0.04683
5853.74,0.04558
5830.6,0.04757
5807.45,0.04585
5784.31,0.04685
5761.16,0.04693
5738.02,0.04674
5714.87,0.04716
5691.73,0.04672
5668.58,0.04735
5645.44,0.04705
5622.29,0.04541
5599.15,0.04797
5576,0.04742
5552.86,0.04626
5529.71,0.04758
5506.57,0.04676
5483.42,0.04856
5460.28,0.04606
5437.13,0.04785
5413.99,0.04725
5390.84,0.04930
5367.7,0.04776
5344.55,0.04816
5321.41,0.04766
5298.26,0.04799
5275.12,0.04698
5251.97,0.04859
5228.83,0.04846
5205.68,0.04807
5182.54,0.04762
5159.39,0.04761
5136.25,0.04838
5113.1,0.04809
5089.96,0.04768
5066.81,0.04911
5043.67,0.04931
5020.52,0.04881
4997.38,0.04810
4974.23,0.04856
4951.09,0.04915
4927.94,0.04938
4904.8,0.04993
4881.65,0.04890
4858.51,0.04835
4835.36,0.05006
4812.22,0.04934
4789.07,0.04976
4765.93,0.04976
4742.78,0.04941
4719.64,0.04953
4696.49,0.04935
4673.35,0.05008
4650.2,0.04957
4627.06,0.04972
4603.92,0.04991
4580.77,0.04982
4557.63,0.05004
4534.48,0.05037
4511.34,0.05009
4488.19,0.05012
4465.05,0.05018
4441.9,0.05061
4418.76,0.05036
4395.61,0.05059
4372.47,0.05054
4349.32,0.05043
4326.18,0.05034
4303.03,0.05015
4279.89,0.05103
4256.74,0.05079
4233.6,0.05122
4210.45,0.05073
4187.31,0.05157
4164.16,0.05117
4141.02,0.05111
4117.87,0.05158
4094.73,0.05189
4071.58,0.05183
4048.44,0.05232
4025.29,0.05169
4002.15,0.05222
3979,0.05219
3955.86,0.05277
3932.71,0.05226
3909.57,0.05266
3886.42,0.05284
3863.28,0.05237
3840.13,0.05327
3816.99,0.05331
3793.84,0.05301
3770.7,0.05293
3747.55,0.05296
3724.41,0.05242
3701.26,0.05266
3678.12,0.05254
3654.97,0.05201
3631.83,0.05110
3608.68,0.05004
3585.54,0.05001
3562.39,0.04951
3539.25,0.04720
3516.1,0.04297
3492.96,0.04586
3469.81,0.04290
3446.67,0.04097
3423.52,0.04104
3400.38,0.03900
3377.23,0.04037
3354.09,0.04276
3330.94,0.04324
3307.8,0.04310
3284.65,0.04268
3261.51,0.04401
3238.36,0.04312
3215.22,0.04126
3192.07,0.04244
3168.93,0.04439
3145.78,0.04547
3122.64,0.04524
3099.49,0.04554
3076.35,0.04588
3053.2,0.04602
3030.06,0.04604
3006.91,0.04587
2983.77,0.04473
2960.62,0.04212
2937.48,0.04066
2914.33,0.04783
2891.19,0.04617
2868.04,0.04640
2844.9,0.04940
2821.75,0.05176
2798.61,0.05256
2775.46,0.05353
2752.32,0.05407
2729.17,0.05434
2706.03,0.05531
2682.88,0.05543
2659.74,0.05604
2636.59,0.05599
2613.45,0.05613
2590.3,0.05613
2567.16,0.05638
2544.02,0.05677
2520.87,0.05579
2497.73,0.05673
2474.58,0.05795
2451.44,0.05841
2428.29,0.05865
2405.15,0.05866
2382,0.05893
2358.86,0.05970
2335.71,0.05945
2312.57,0.05924
2289.42,0.05949
2266.28,0.05971
2243.13,0.05864
2219.99,0.05989
2196.84,0.05956
2173.7,0.06025
2150.55,0.06044
2127.41,0.06074
2104.26,0.06091
2081.12,0.06076
2057.97,0.06128
2034.83,0.06120
2011.68,0.06131
1988.54,0.06144
1965.39,0.06144
1942.25,0.06131
1919.1,0.06144
1895.96,0.06124
1872.81,0.06091
1849.67,0.06020
1826.52,0.05929
1803.38,0.05802
1780.23,0.05723
1757.09,0.05379
1733.94,0.04356
1710.8,0.03901
1687.65,0.03926
1664.51,0.04368
1641.36,0.04749
1618.22,0.04482
1595.07,0.04383
1571.93,0.04756
1548.78,0.04227
1525.64,0.04136
1502.49,0.04312
1479.35,0.04682
1456.2,0.04465
1433.06,0.04963
1409.91,0.05957
1386.77,0.06069
1363.62,0.06143
1340.48,0.06496
1317.33,0.06533
1294.19,0.06417
1271.04,0.06232
1247.9,0.06086
1224.75,0.06341
1201.61,0.06204
1178.46,0.06261
1155.32,0.06013
1132.17,0.06051
1109.03,0.05785
1085.88,0.06045
1062.74,0.06060
1039.59,0.05335
1016.45,0.05484
993.304,0.05958
970.159,0.05274
947.014,0.06296
923.869,0.06422
900.724,0.06504
877.579,0.05525
854.434,0.05874
831.289,0.05977
808.144,0.05222
784.999,0.05338
761.854,0.05431
738.709,0.05421
715.565,0.05309
692.42,0.05386
669.275,0.05021
646.13,0.05032
622.985,0.04532
599.84,0.04477