File: 01_Data/Rubber_Foam_Pipe_Insulation/FTIR/IS/Rubber_Foam_Pipe_Insulation_IS_S_220825_R8.dpt
7497.03,0.04858
7473.89,0.04376
7450.74,0.04177
7427.6,0.05423
7404.45,0.04894
7381.31,0.04714
7358.16,0.04938
7335.02,0.05091
7311.87,0.04737
7288.73,0.05540
7265.58,0.05053
7242.44,0.05046
7219.29,0.04504
7196.15,0.04851
7173,0.04619
7149.86,0.05140
7126.71,0.04484
7103.57,0.04885
7080.42,0.04513
7057.28,0.04836
7034.13,0.04183
7010.99,0.04380
6987.84,0.05158
6964.7,0.04562
6941.55,0.04821
6918.41,0.04755
6895.26,0.05049
6872.12,0.04467
6848.97,0.04764
6825.83,0.04615
6802.68,0.03784
6779.54,0.04145
6756.39,0.04750
6733.25,0.04787
6710.1,0.04713
6686.96,0.04527
6663.82,0.04488
6640.67,0.04555
6617.53,0.04619
6594.38,0.04900
6571.24,0.04511
6548.09,0.04644
6524.95,0.04292
6501.8,0.04757
6478.66,0.04397
6455.51,0.04873
6432.37,0.04539
6409.22,0.04704
6386.08,0.04970
6362.93,0.04799
6339.79,0.04843
6316.64,0.04751
6293.5,0.04739
6270.35,0.04650
6247.21,0.04570
6224.06,0.04659
6200.92,0.04261
6177.77,0.04560
6154.63,0.04710
6131.48,0.04511
6108.34,0.04496
6085.19,0.04349
6062.05,0.04512
6038.9,0.04477
6015.76,0.04782
5992.61,0.04566
5969.47,0.04619
5946.32,0.04672
5923.18,0.04526
5900.03,0.04684
5876.89,0.04745
5853.74,0.04650
5830.6,0.04548
5807.45,0.04507
5784.31,0.04700
5761.16,0.04769
5738.02,0.04619
5714.87,0.04784
5691.73,0.04432
5668.58,0.04538
5645.44,0.04683
5622.29,0.04701
5599.15,0.04762
5576,0.04752
5552.86,0.05010
5529.71,0.04766
5506.57,0.04743
5483.42,0.04620
5460.28,0.04747
5437.13,0.04779
5413.99,0.04724
5390.84,0.04824
5367.7,0.04762
5344.55,0.04835
5321.41,0.04731
5298.26,0.04750
5275.12,0.04889
5251.97,0.04852
5228.83,0.04818
5205.68,0.04889
5182.54,0.04874
5159.39,0.04920
5136.25,0.04800
5113.1,0.04739
5089.96,0.04858
5066.81,0.04860
5043.67,0.04861
5020.52,0.04827
4997.38,0.04886
4974.23,0.04958
4951.09,0.04928
4927.94,0.04895
4904.8,0.04934
4881.65,0.04941
4858.51,0.04894
4835.36,0.04913
4812.22,0.05001
4789.07,0.04975
4765.93,0.04960
4742.78,0.05016
4719.64,0.05007
4696.49,0.05146
4673.35,0.04914
4650.2,0.05036
4627.06,0.04947
4603.92,0.05018
4580.77,0.05084
4557.63,0.04966
4534.48,0.04963
4511.34,0.05003
4488.19,0.05070
4465.05,0.04996
4441.9,0.05071
4418.76,0.05041
4395.61,0.05068
4372.47,0.05077
4349.32,0.05002
4326.18,0.05113
4303.03,0.05080
4279.89,0.05068
4256.74,0.05095
4233.6,0.05219
4210.45,0.05094
4187.31,0.05128
4164.16,0.05130
4141.02,0.05202
4117.87,0.05205
4094.73,0.05179
4071.58,0.05183
4048.44,0.05201
4025.29,0.05189
4002.15,0.05183
3979,0.05237
3955.86,0.05210
3932.71,0.05182
3909.57,0.05218
3886.42,0.05256
3863.28,0.05272
3840.13,0.05313
3816.99,0.05258
3793.84,0.05288
3770.7,0.05383
3747.55,0.05341
3724.41,0.05361
3701.26,0.05285
3678.12,0.05270
3654.97,0.05119
3631.83,0.05154
3608.68,0.05056
3585.54,0.05037
3562.39,0.04950
3539.25,0.04712
3516.1,0.04304
3492.96,0.04532
3469.81,0.04291
3446.67,0.04128
3423.52,0.04057
3400.38,0.03889
3377.23,0.04060
3354.09,0.04238
3330.94,0.04300
3307.8,0.04323
3284.65,0.04267
3261.51,0.04408
3238.36,0.04345
3215.22,0.04220
3192.07,0.04308
3168.93,0.04489
3145.78,0.04556
3122.64,0.04566
3099.49,0.04576
3076.35,0.04595
3053.2,0.04630
3030.06,0.04605
3006.91,0.04587
2983.77,0.04464
2960.62,0.04229
2937.48,0.04041
2914.33,0.04844
2891.19,0.04661
2868.04,0.04636
2844.9,0.04947
2821.75,0.05307
2798.61,0.05306
2775.46,0.05407
2752.32,0.05400
2729.17,0.05511
2706.03,0.05555
2682.88,0.05547
2659.74,0.05623
2636.59,0.05636
2613.45,0.05626
2590.3,0.05630
2567.16,0.05642
2544.02,0.05696
2520.87,0.05647
2497.73,0.05732
2474.58,0.05836
2451.44,0.05917
2428.29,0.05922
2405.15,0.05964
2382,0.05971
2358.86,0.05921
2335.71,0.05902
2312.57,0.05974
2289.42,0.06026
2266.28,0.06021
2243.13,0.05920
2219.99,0.05997
2196.84,0.06066
2173.7,0.06078
2150.55,0.06081
2127.41,0.06156
2104.26,0.06118
2081.12,0.06146
2057.97,0.06164
2034.83,0.06156
2011.68,0.06188
1988.54,0.06184
1965.39,0.06196
1942.25,0.06237
1919.1,0.06218
1895.96,0.06170
1872.81,0.06157
1849.67,0.06104
1826.52,0.05958
1803.38,0.05816
1780.23,0.05771
1757.09,0.05393
1733.94,0.04386
1710.8,0.03934
1687.65,0.03974
1664.51,0.04406
1641.36,0.04758
1618.22,0.04497
1595.07,0.04434
1571.93,0.04789
1548.78,0.04239
1525.64,0.04167
1502.49,0.04350
1479.35,0.04703
1456.2,0.04443
1433.06,0.04973
1409.91,0.05944
1386.77,0.06102
1363.62,0.06150
1340.48,0.06541
1317.33,0.06586
1294.19,0.06482
1271.04,0.06329
1247.9,0.06153
1224.75,0.06387
1201.61,0.06221
1178.46,0.06286
1155.32,0.05997
1132.17,0.06041
1109.03,0.05819
1085.88,0.06117
1062.74,0.06176
1039.59,0.05422
1016.45,0.05522
993.304,0.06061
970.159,0.05255
947.014,0.06309
923.869,0.06507
900.724,0.06601
877.579,0.05579
854.434,0.05789
831.289,0.05959
808.144,0.05378
784.999,0.05404
761.854,0.05489
738.709,0.05421
715.565,0.05369
692.42,0.05382
669.275,0.05073
646.13,0.05190
622.985,0.04602
599.84,0.04687