File: 01_Data/Rubber_Foam_Pipe_Insulation/FTIR/IS/Rubber_Foam_Pipe_Insulation_IS_S_220825_R2.dpt
7497.03,0.05059
7473.89,0.04832
7450.74,0.04568
7427.6,0.04461
7404.45,0.04650
7381.31,0.04332
7358.16,0.04801
7335.02,0.04945
7311.87,0.04648
7288.73,0.04792
7265.58,0.05179
7242.44,0.04342
7219.29,0.04683
7196.15,0.04163
7173,0.05137
7149.86,0.04952
7126.71,0.04685
7103.57,0.04605
7080.42,0.04128
7057.28,0.04717
7034.13,0.05233
7010.99,0.04153
6987.84,0.04463
6964.7,0.04756
6941.55,0.04380
6918.41,0.04771
6895.26,0.04671
6872.12,0.05091
6848.97,0.04702
6825.83,0.04481
6802.68,0.05212
6779.54,0.04682
6756.39,0.04597
6733.25,0.04729
6710.1,0.04711
6686.96,0.04969
6663.82,0.05004
6640.67,0.04557
6617.53,0.04314
6594.38,0.04817
6571.24,0.04824
6548.09,0.04077
6524.95,0.04486
6501.8,0.04682
6478.66,0.04290
6455.51,0.04675
6432.37,0.04328
6409.22,0.04794
6386.08,0.04514
6362.93,0.04794
6339.79,0.04584
6316.64,0.04961
6293.5,0.04635
6270.35,0.04415
6247.21,0.04873
6224.06,0.04753
6200.92,0.04724
6177.77,0.04849
6154.63,0.04471
6131.48,0.04461
6108.34,0.04759
6085.19,0.04378
6062.05,0.04721
6038.9,0.04759
6015.76,0.04590
5992.61,0.04557
5969.47,0.04672
5946.32,0.04649
5923.18,0.04608
5900.03,0.04482
5876.89,0.04816
5853.74,0.04751
5830.6,0.04647
5807.45,0.04677
5784.31,0.04558
5761.16,0.04659
5738.02,0.04566
5714.87,0.04747
5691.73,0.04841
5668.58,0.04452
5645.44,0.04798
5622.29,0.04761
5599.15,0.04742
5576,0.04809
5552.86,0.04790
5529.71,0.04853
5506.57,0.04772
5483.42,0.04937
5460.28,0.04700
5437.13,0.04693
5413.99,0.04690
5390.84,0.04766
5367.7,0.04689
5344.55,0.04823
5321.41,0.04794
5298.26,0.04798
5275.12,0.04844
5251.97,0.04772
5228.83,0.04803
5205.68,0.04734
5182.54,0.04927
5159.39,0.04781
5136.25,0.04792
5113.1,0.04852
5089.96,0.04869
5066.81,0.04912
5043.67,0.04918
5020.52,0.04888
4997.38,0.04973
4974.23,0.04961
4951.09,0.04873
4927.94,0.04895
4904.8,0.04860
4881.65,0.05013
4858.51,0.04833
4835.36,0.04964
4812.22,0.04987
4789.07,0.04906
4765.93,0.04951
4742.78,0.05054
4719.64,0.05017
4696.49,0.04996
4673.35,0.05009
4650.2,0.05056
4627.06,0.05062
4603.92,0.05056
4580.77,0.04994
4557.63,0.05093
4534.48,0.05094
4511.34,0.05081
4488.19,0.04999
4465.05,0.05051
4441.9,0.05060
4418.76,0.05048
4395.61,0.05088
4372.47,0.05111
4349.32,0.05071
4326.18,0.05073
4303.03,0.05107
4279.89,0.05158
4256.74,0.05077
4233.6,0.05106
4210.45,0.05162
4187.31,0.05218
4164.16,0.05170
4141.02,0.05189
4117.87,0.05179
4094.73,0.05186
4071.58,0.05217
4048.44,0.05204
4025.29,0.05167
4002.15,0.05242
3979,0.05263
3955.86,0.05228
3932.71,0.05221
3909.57,0.05239
3886.42,0.05262
3863.28,0.05290
3840.13,0.05298
3816.99,0.05297
3793.84,0.05313
3770.7,0.05396
3747.55,0.05349
3724.41,0.05274
3701.26,0.05262
3678.12,0.05315
3654.97,0.05186
3631.83,0.05136
3608.68,0.05012
3585.54,0.05033
3562.39,0.04975
3539.25,0.04748
3516.1,0.04304
3492.96,0.04574
3469.81,0.04362
3446.67,0.04141
3423.52,0.04098
3400.38,0.03928
3377.23,0.04054
3354.09,0.04288
3330.94,0.04334
3307.8,0.04273
3284.65,0.04312
3261.51,0.04420
3238.36,0.04305
3215.22,0.04196
3192.07,0.04307
3168.93,0.04454
3145.78,0.04608
3122.64,0.04517
3099.49,0.04591
3076.35,0.04679
3053.2,0.04620
3030.06,0.04624
3006.91,0.04618
2983.77,0.04500
2960.62,0.04184
2937.48,0.04078
2914.33,0.04778
2891.19,0.04682
2868.04,0.04691
2844.9,0.04973
2821.75,0.05244
2798.61,0.05341
2775.46,0.05379
2752.32,0.05435
2729.17,0.05474
2706.03,0.05558
2682.88,0.05570
2659.74,0.05593
2636.59,0.05623
2613.45,0.05624
2590.3,0.05606
2567.16,0.05652
2544.02,0.05681
2520.87,0.05634
2497.73,0.05748
2474.58,0.05883
2451.44,0.05918
2428.29,0.05911
2405.15,0.05952
2382,0.05940
2358.86,0.05973
2335.71,0.05971
2312.57,0.05961
2289.42,0.06017
2266.28,0.06008
2243.13,0.05899
2219.99,0.06016
2196.84,0.06012
2173.7,0.06083
2150.55,0.06111
2127.41,0.06104
2104.26,0.06115
2081.12,0.06141
2057.97,0.06155
2034.83,0.06159
2011.68,0.06154
1988.54,0.06138
1965.39,0.06156
1942.25,0.06187
1919.1,0.06209
1895.96,0.06218
1872.81,0.06140
1849.67,0.06077
1826.52,0.05977
1803.38,0.05808
1780.23,0.05777
1757.09,0.05450
1733.94,0.04387
1710.8,0.03921
1687.65,0.03970
1664.51,0.04434
1641.36,0.04747
1618.22,0.04503
1595.07,0.04379
1571.93,0.04784
1548.78,0.04253
1525.64,0.04200
1502.49,0.04360
1479.35,0.04740
1456.2,0.04523
1433.06,0.04985
1409.91,0.05980
1386.77,0.06171
1363.62,0.06179
1340.48,0.06542
1317.33,0.06555
1294.19,0.06511
1271.04,0.06280
1247.9,0.06154
1224.75,0.06380
1201.61,0.06251
1178.46,0.06264
1155.32,0.06066
1132.17,0.06087
1109.03,0.05770
1085.88,0.06074
1062.74,0.06053
1039.59,0.05439
1016.45,0.05439
993.304,0.06079
970.159,0.05324
947.014,0.06330
923.869,0.06476
900.724,0.06493
877.579,0.05599
854.434,0.05759
831.289,0.06007
808.144,0.05290
784.999,0.05412
761.854,0.05455
738.709,0.05430
715.565,0.05286
692.42,0.05486
669.275,0.05061
646.13,0.05173
622.985,0.04629
599.84,0.04764