File: 01_Data/Accent_Chair/Furniture_Calorimeter/Accent_Chair_R1.csv
Time (s),Convective HRR,TCPlume1,TCPlume2,TCPlume3,DPPlume1,DPPlume2,DPPlume3,HF1,HF2,HF3,HF4,HF5,HF6,RAD2,RAD1,Load Cell,Heat Release Rate,Total Heat Released
-120,0.0,-7.84716,-7.8758,9.78068,-0.100595,-0.0217644,0.13506,0.0134851,-0.823175,0.239501,0.144915,0.226862,0.0998271,0.613177,1.92317,26.1333,0.0,0.0
-90,3.94022,-8.25093,-7.45689,10.1132,-0.115787,-0.0445499,0.0287227,0.0134851,-0.823175,0.239501,0.144915,-0.14809,0.0998271,0.779224,1.92317,26.424,0.0,0.0
-60,1.45001,-8.35828,-7.52494,9.89383,-0.0626168,-0.0445499,-0.00925508,-0.788878,0.0755206,1.05381,0.144915,0.226862,-0.0415946,0.613177,1.92317,26.1125,0.0,0.0
-30,3.94301,-8.20769,-8.27557,10.1171,0.0361276,0.00861639,0.00593601,0.0134851,0.0755206,-0.574803,1.00716,-0.523043,0.241249,0.613177,2.88169,26.2579,0.0,0.0
0,1.76624,-8.18609,-7.9796,9.75592,0.0437233,-0.0597403,-0.0852105,-0.788878,-1.72187,-0.574803,0.144915,0.601814,-0.0415946,0.613177,3.8402,26.2579,0.8923,0.0
30,2.03357,-8.13098,-7.41538,9.65676,0.0133404,-0.0141692,0.127465,0.0134851,0.0755206,0.239501,-1.57957,0.226862,-0.183016,0.779224,2.88169,26.0917,3.10543,0.0552956
60,3.78303,-8.06452,-7.70139,10.2186,0.0361276,0.0162116,0.173038,-0.788878,1.87291,1.05381,-0.717328,-0.523043,-0.183016,0.779224,2.88169,26.0917,5.16604,0.259585
90,1.16143,-8.55262,-6.9362,10.7748,0.165255,0.0541875,0.00593601,0.815849,0.974216,-0.574803,1.8694,0.226862,-0.0415946,0.447131,3.8402,26.2579,19.407,0.4773979
120,11.5292,-3.60088,-1.84686,14.7766,0.301978,0.935229,-0.00165953,3.22294,-0.823175,-0.574803,0.144915,0.226862,0.241249,0.613177,4.79872,26.2786,53.058,1.76836
150,29.5977,1.08511,1.05741,19.0986,-0.0398297,0.563065,0.575602,0.815849,0.974216,1.05381,1.00716,0.976767,-0.0415946,0.945271,3.8402,25.7387,49.0695,3.49599
180,61.9283,11.4472,13.8624,31.3372,0.993189,1.50487,3.02137,5.63003,1.87291,2.68241,1.8694,0.976767,0.665514,0.945271,6.71575,26.0294,294.113,7.98551
210,266.573,50.3304,61.5081,84.6887,6.55326,6.59365,5.89248,14.456,4.569,5.12533,3.59389,3.22648,1.93831,2.43969,15.3424,25.095,971.85,25.3459
240,667.453,184.763,252.668,318.843,8.20153,8.02914,13.564,43.3411,15.3533,16.5256,12.2163,11.1005,7.17092,7.25505,38.3468,23.4337,1341.83,62.8982
270,756.341,188.608,278.561,477.314,11.2474,9.45703,8.64967,41.7364,13.556,13.2684,12.2163,8.85077,5.47385,5.59458,38.3468,21.4401,748.549,97.0457
300,438.828,114.26,162.906,323.804,5.22401,8.25699,6.30264,14.456,4.569,5.12533,4.45613,2.47658,1.51404,1.7755,13.4254,19.6127,303.277,112.585
330,258.562,61.8507,95.7067,232.632,2.45157,3.58595,7.62427,10.4442,3.6703,2.68241,3.59389,1.35172,0.948358,1.44341,9.5913,19.2804,218.742,120.369
360,181.438,45.5133,69.2879,179.761,4.50241,1.81627,5.09495,5.63003,0.0755206,2.68241,1.8694,0.976767,0.665514,1.27736,7.67427,18.6159,187.059,126.017
390,167.825,33.0885,52.9928,144.222,0.788104,3.36569,3.12771,5.63003,1.87291,1.05381,1.8694,1.35172,0.665514,1.27736,7.67427,18.2006,193.915,131.854
420,160.822,37.3656,51.5629,125.717,2.77818,5.19613,3.62901,6.43239,2.77161,2.68241,1.8694,1.72667,0.665514,1.27736,6.71575,17.4323,223.205,138.421
450,201.839,43.7457,58.1726,118.554,2.17812,1.73272,2.8011,8.83948,1.87291,1.86811,2.73164,0.976767,0.665514,1.27736,8.63279,17.1415,296.35,146.701
480,239.544,50.7162,66.4085,118.372,1.98823,1.89982,7.35083,9.64185,1.87291,4.31102,2.73164,1.72667,0.948358,1.27736,9.5913,16.477,282.352,155.728
510,226.907,49.839,61.0197,109.347,3.68207,8.67473,5.08736,9.64185,1.87291,1.86811,1.8694,0.976767,0.806936,1.60946,10.5498,15.7917,274.954,164.044
540,231.684,48.3005,62.799,109.288,5.79369,4.89992,3.16568,8.03712,1.87291,2.68241,1.8694,1.72667,0.948358,1.27736,6.71575,15.1272,282.049,172.45
570,203.192,42.0974,54.4762,103.099,2.20091,2.57579,2.20864,8.83948,2.77161,2.68241,2.73164,1.35172,0.806936,1.27736,7.67427,14.6288,301.875,180.579
600,205.454,40.4113,51.4389,95.5602,2.20091,1.53525,1.66176,7.23476,1.87291,1.86811,1.8694,1.35172,0.806936,1.11132,6.71575,14.1512,250.107,188.314
630,190.774,37.0155,50.7362,89.7088,2.17053,4.91511,1.67696,8.03712,2.77161,1.86811,0.144915,0.976767,0.806936,1.27736,7.67427,13.6321,237.276,196.143
660,173.56,33.9307,42.1929,81.2843,2.29965,4.59611,2.35296,6.43239,1.87291,3.49672,1.8694,1.35172,0.806936,1.11132,5.75724,13.1544,205.7,203.242
690,172.178,31.014,39.4844,77.9565,3.30988,1.47449,0.507242,6.43239,0.974216,1.05381,2.73164,1.35172,0.665514,1.11132,6.71575,12.6561,234.03,210.195
720,172.136,30.643,41.6125,77.6312,0.780508,0.775731,2.35296,6.43239,1.87291,2.68241,1.00716,0.976767,0.665514,1.11132,6.71575,12.1161,255.881,217.604
750,178.726,34.0044,42.08,72.958,1.59325,1.80108,1.48707,5.63003,1.87291,1.86811,1.8694,1.35172,0.665514,0.779224,5.75724,11.8254,251.694,225.256
780,160.717,32.5897,43.3544,72.7113,1.61604,4.36066,1.38073,8.83948,0.974216,3.49672,1.00716,1.35172,0.806936,0.945271,8.63279,11.3478,286.909,233.415
810,189.923,40.2063,51.0878,79.1549,3.06682,4.41383,4.03158,5.63003,2.77161,1.05381,2.73164,0.976767,0.806936,1.27736,6.71575,10.7871,257.888,241.181
840,166.279,37.1569,46.8793,77.2212,2.64906,2.50743,1.06172,7.23476,0.974216,1.86811,0.144915,0.976767,0.948358,0.945271,7.67427,10.351,239.264,248.153
870,157.795,35.2763,45.0513,75.8537,1.64642,1.25423,1.61619,6.43239,2.77161,1.86811,1.00716,1.35172,0.806936,1.27736,8.63279,9.81111,247.867,255.504
900,161.799,31.0489,40.3391,74.6903,2.44397,1.97577,2.4517,7.23476,1.87291,2.68241,1.00716,0.976767,0.806936,1.11132,8.63279,9.47885,188.206,262.854
930,137.487,25.1598,35.3245,70.242,1.3274,2.28717,1.83646,6.43239,1.87291,1.86811,1.8694,1.35172,0.665514,1.27736,6.71575,9.18812,202.049,268.994
960,152.681,22.4952,28.6629,63.5821,1.16789,2.64415,6.2039,4.0253,0.974216,1.86811,1.8694,0.601814,0.948358,1.11132,5.75724,8.35748,242.765,275.971
990,154.667,26.1898,36.0082,69.0047,1.13751,0.730159,1.4339,4.82767,0.974216,1.86811,1.8694,0.976767,0.806936,1.44341,6.71575,8.14982,261.223,283.433
1020,147.845,25.5205,33.2471,64.6099,2.08697,0.920039,0.962975,4.0253,0.974216,2.68241,0.144915,1.72667,0.948358,0.945271,5.75724,7.83832,234.948,290.914
1050,159.928,27.7303,37.3104,67.4575,2.61867,0.942825,1.35035,5.63003,1.87291,1.05381,1.8694,1.35172,0.665514,0.945271,4.79872,7.33994,231.986,298.02
1080,141.201,22.4559,31.5951,63.691,1.28183,0.441542,0.537624,3.22294,-0.823175,2.68241,1.8694,0.976767,0.665514,0.945271,6.71575,6.98691,210.045,304.77
1110,127.601,16.8471,23.9537,57.1539,1.60844,1.07194,0.583197,4.0253,0.0755206,1.05381,0.144915,1.35172,0.806936,1.11132,4.79872,6.82079,182.602,310.871
1140,109.947,12.1532,21.6004,54.1627,0.879253,4.26192,3.54546,3.22294,0.974216,1.05381,1.8694,0.976767,0.665514,1.44341,3.8402,6.53006,154.013,315.945
1170,100.23,11.209,16.292,50.0356,0.719743,1.33777,1.06931,4.0253,0.974216,1.05381,0.144915,0.226862,0.665514,1.27736,4.79872,6.17704,173.947,321.217
1200,91.6316,10.6193,15.4757,46.6496,1.61604,2.12767,1.01614,2.42058,-0.823175,2.68241,1.00716,0.976767,0.806936,0.945271,3.8402,6.01091,159.016,326.299
1230,81.6507,9.41788,14.4683,44.1839,2.38321,1.58842,1.88963,1.61821,0.0755206,1.05381,0.144915,0.976767,0.665514,0.945271,4.79872,5.80325,196.242,331.488
1260,78.0404,8.29231,13.689,41.974,-0.00185106,0.0921635,0.0667004,2.42058,0.0755206,1.05381,0.144915,0.976767,0.665514,0.945271,3.8402,5.67865,162.393,336.42
1290,78.7816,7.5704,11.9767,40.2282,0.051319,0.616232,0.0742959,0.815849,0.974216,1.05381,1.8694,1.35172,0.241249,0.779224,4.79872,5.51252,165.143,341.237
1320,71.6449,4.6451,7.75579,35.9548,0.241212,0.228877,0.233802,2.42058,0.974216,-0.574803,1.00716,0.601814,0.524092,0.779224,4.79872,5.32563,138.855,345.89
1350,70.3499,4.50797,7.38921,33.9107,0.317169,0.958015,1.04653,0.815849,1.87291,1.05381,0.144915,0.601814,0.241249,0.945271,3.8402,5.18026,167.102,350.872
1380,61.6502,1.39562,6.2301,32.8497,0.317169,0.844087,0.993357,1.61821,1.87291,1.05381,0.144915,0.226862,0.382671,0.945271,3.8402,4.99337,126.25,355.604
1410,57.3792,1.94204,4.70939,31.2827,0.0665105,0.464328,0.393309,2.42058,0.0755206,1.05381,0.144915,0.976767,0.665514,0.945271,4.79872,4.99337,131.489,359.646
1440,60.098,3.99283,6.60651,30.7401,1.58566,0.752945,0.773086,0.815849,0.974216,1.86811,1.00716,0.976767,0.524092,0.779224,5.75724,4.84801,140.018,363.85
1470,55.1999,4.12368,7.04341,30.9062,0.712147,0.768135,1.00855,3.22294,0.974216,0.239501,1.00716,0.226862,0.382671,0.613177,4.79872,4.70264,149.978,368.304
1500,48.2764,2.56433,7.16861,32.3064,1.00078,0.55547,2.06433,2.42058,0.0755206,1.86811,1.00716,0.976767,0.524092,0.613177,3.8402,4.68188,169.252,372.939
1530,50.3237,2.54203,6.34273,31.3455,0.545041,0.33521,0.811064,2.42058,0.0755206,1.86811,1.8694,0.976767,0.382671,1.11132,3.8402,4.51575,153.783,377.801
1560,39.1137,1.03216,4.06749,29.185,0.233616,0.152925,1.02374,1.61821,0.974216,1.86811,0.144915,0.226862,0.241249,0.779224,4.79872,4.39115,123.036,382.103
1590,44.8854,0.954857,4.29647,28.9207,0.188042,1.67196,0.83385,2.42058,1.87291,1.05381,0.144915,0.226862,0.382671,0.945271,3.8402,4.30809,146.413,386.591
1620,42.6504,0.0632955,3.32813,27.6661,0.256404,0.471923,0.674344,0.815849,1.87291,1.05381,1.8694,0.226862,0.524092,0.945271,4.79872,4.22502,140.004,391.25
1650,40.0084,-1.69231,2.69321,27.9834,0.0665105,0.282043,0.0515093,2.42058,0.0755206,0.239501,-0.717328,0.226862,0.382671,0.945271,4.79872,4.18349,166.608,395.983
1680,39.5737,0.253923,2.33188,26.1182,0.226021,0.0238068,0.347736,2.42058,-0.823175,1.05381,0.144915,0.226862,0.241249,0.779224,2.88169,4.01736,150.578,400.884
1710,40.5953,-0.965566,1.30852,25.3729,-0.0626168,0.114949,0.651557,0.815849,0.974216,0.239501,0.144915,0.226862,0.382671,0.779224,4.79872,3.85123,162.77,405.83
1740,43.9753,0.356843,2.2051,25.1242,0.0892976,1.20866,1.17565,2.42058,0.974216,0.239501,1.00716,0.601814,0.382671,0.779224,3.8402,3.83047,149.81,410.721
1770,44.2214,0.137572,2.13891,26.4188,0.0361276,0.320019,0.803468,1.61821,0.974216,-0.574803,1.8694,0.226862,0.241249,0.945271,3.8402,3.66434,0.0,415.508
1783,36.7561,-0.944643,1.71217,25.5824,0.0589147,0.107354,0.157847,1.61821,0.974216,1.05381,1.00716,0.226862,0.241249,1.11132,2.88169,3.66434,0.0,415.508