File: 01_Data/Accent_Chair/Furniture_Calorimeter/Accent_Chair_R2.csv
Time (s),Convective HRR,TCPlume1,TCPlume2,TCPlume3,DPPlume1,DPPlume2,DPPlume3,HF1,HF2,HF3,HF4,HF5,HF6,RAD2,RAD1,Load Cell,Heat Release Rate,Total Heat Released
-120,0.0,5.30144,6.65162,16.8203,0.0695743,-0.00434011,0.0297439,-0.0269702,0.0755206,0.143701,0.384024,0.248918,-0.0677398,0.447131,1.92317,26.8601,0.0,0.0
-91,0.0,3.57869,5.5417,16.5157,0.0619786,0.0640166,-0.0158294,-0.829334,-0.823175,-0.670604,-0.478219,-0.126034,0.0736819,0.281084,1.92317,26.9224,0.0,0.0
-62,0.0,2.38624,4.34942,16.0913,0.0543828,0.0108503,-0.0841893,-0.829334,0.974216,0.958005,0.384024,0.62387,-0.0677398,0.447131,1.92317,27.0677,0.0,0.0
-33,0.0,1.51119,3.28291,15.4492,0.0543828,0.0260406,0.0145528,1.57776,-0.823175,-1.48491,-0.478219,-0.126034,-0.209162,0.115037,0.964651,27.047,0.0,0.0
-4,0.0,0.799965,3.10762,15.0461,0.0847657,0.0564214,0.0145528,-0.829334,-0.823175,0.958005,0.384024,-0.126034,0.0736819,0.281084,1.92317,27.2546,0.0,0.0
25,0.0,1.17172,2.13934,14.6538,0.0847657,0.0488262,-0.0158294,0.775393,0.0755206,0.143701,1.24627,-0.126034,0.0736819,0.447131,1.92317,27.2131,0.0,0.0
54,0.0,0.553686,1.48292,14.267,0.00880849,0.00325508,0.0753172,-0.0269702,-0.823175,0.958005,-0.478219,0.248918,0.0736819,0.447131,3.8402,27.2546,0.0,0.0
83,0.0,0.793984,1.99127,14.1251,0.0239999,-0.0954824,-0.0538071,0.775393,0.0755206,0.958005,-0.478219,0.62387,-0.0677398,0.613177,2.88169,27.2131,0.0,0.0
112,0.0,1.82211,3.05782,15.3014,0.502531,0.436181,0.644983,0.775393,0.0755206,0.958005,0.384024,-0.126034,0.356525,0.447131,1.92317,27.2339,9.83968,0.026132
141,0.0,8.60723,10.7585,22.1912,2.46223,1.33241,0.508263,1.57776,0.0755206,1.77231,0.384024,0.248918,0.0736819,0.613177,3.8402,27.2754,74.1857,1.41871
170,8.52751,19.64,22.0785,34.8664,3.03191,2.90462,2.10333,4.78721,0.974216,0.143701,1.24627,0.998823,0.215104,0.779224,5.75724,27.0054,208.859,4.93615
199,114.666,48.0938,53.4277,64.0158,3.3965,4.30213,2.90846,10.4038,3.6703,5.84383,2.97075,1.74873,1.62932,1.60946,9.5913,26.7355,646.529,16.1625
228,407.755,134.811,159.423,185.184,7.4906,2.82107,7.56452,33.6723,16.252,15.6155,10.7309,9.62273,6.15482,6.09272,32.5957,25.3857,1402.98,45.9814
257,704.54,173.998,241.095,366.032,3.3965,10.3935,1.33618,44.103,17.1507,16.4298,12.4554,8.87282,6.15482,5.92667,39.3053,23.579,1117.76,82.9481
286,569.519,135.397,193.276,327.278,5.03718,8.49468,8.53675,21.6368,6.36639,7.47244,7.28197,3.62349,2.47785,2.43969,17.2594,22.2915,683.21,107.151
315,381.175,103.336,149.319,268.023,5.23467,6.83133,5.24029,21.6368,5.46769,8.28674,5.55748,3.62349,2.19501,2.1076,19.1765,20.7548,414.601,123.189
344,250.332,69.5801,99.9673,211.9,5.55369,3.75528,4.46554,13.6132,3.6703,4.21522,4.69524,1.74873,1.20506,1.27736,10.5498,20.1111,299.704,133.001
373,175.541,51.4367,74.385,169.989,1.77102,2.37295,4.92887,8.79903,0.974216,2.58661,2.97075,0.998823,0.780791,0.945271,6.71575,19.5919,218.454,140.086
402,130.974,43.5457,61.8727,141.733,0.9127,1.59065,3.93385,7.99667,2.77161,1.77231,3.833,0.998823,0.639369,1.11132,5.75724,18.9274,246.334,146.719
431,160.813,43.8586,58.1003,125.84,3.2142,2.37295,2.61223,7.99667,2.77161,2.58661,2.10851,1.37378,0.497947,1.11132,8.63279,18.4083,241.153,154.213
460,161.012,52.053,66.5987,124.428,3.65476,4.43125,2.05775,8.79903,2.77161,3.40092,2.10851,1.37378,1.06363,0.945271,6.71575,17.9307,267.327,161.747
489,180.261,54.4987,68.5534,120.216,4.52067,7.56806,5.82515,7.1943,3.6703,2.58661,2.10851,0.998823,0.780791,1.11132,8.63279,17.2869,257.699,169.594
518,143.863,44.107,59.2663,109.988,3.96618,3.95275,1.51847,7.1943,2.77161,2.58661,2.97075,1.37378,0.922213,0.945271,6.71575,16.7678,223.016,176.523
547,121.127,39.6788,49.8252,96.9719,3.73831,4.87937,3.26545,7.1943,1.87291,2.58661,1.24627,1.37378,0.922213,1.27736,6.71575,16.2694,257.718,183.57
576,134.393,41.5516,54.1933,95.2872,3.35093,2.12231,3.02239,7.1943,1.87291,2.58661,2.97075,1.74873,0.780791,1.27736,6.71575,15.7917,222.973,190.281
605,112.432,40.7321,51.7569,93.7034,1.99129,2.74512,2.45272,7.99667,3.6703,3.40092,2.10851,1.37378,0.780791,1.11132,7.67427,15.3141,232.19,197.309
634,134.599,37.2307,46.6188,85.4007,3.63956,2.4565,3.15151,8.79903,3.6703,2.58661,2.97075,1.37378,1.06363,1.27736,6.71575,14.795,240.876,204.77
663,120.428,38.6491,48.6186,83.7484,2.12042,5.13001,1.21465,7.1943,2.77161,1.77231,1.24627,1.74873,0.780791,1.11132,9.5913,14.2758,268.983,211.747
692,121.309,36.1887,47.4757,80.8546,3.32814,0.831131,1.9742,7.1943,1.87291,2.58661,0.384024,0.998823,0.780791,1.11132,6.71575,13.9643,255.906,218.623
721,136.074,34.2045,45.2136,77.5532,0.426573,0.960249,1.53366,7.99667,1.87291,2.58661,2.97075,1.37378,0.780791,1.11132,7.67427,13.4452,242.245,226.277
750,122.39,37.1597,44.8792,78.3596,2.1508,5.66927,1.33618,7.1943,2.77161,2.58661,3.833,1.37378,0.639369,1.11132,6.71575,12.9468,212.506,233.363
779,114.156,36.7483,46.5851,76.3422,3.2142,2.02358,4.69341,7.1943,2.77161,2.58661,2.97075,1.37378,0.639369,1.11132,7.67427,12.6353,251.947,240.332
808,137.49,41.4846,50.0647,84.3757,0.981061,2.31219,5.77198,7.99667,3.6703,3.40092,2.97075,1.74873,0.780791,0.945271,7.67427,12.0954,239.381,247.522
837,114.275,42.1858,53.3095,82.6451,3.53322,1.84129,2.05016,7.1943,1.87291,3.40092,2.97075,1.37378,1.06363,1.11132,6.71575,11.6801,250.327,254.687
866,114.583,41.7443,52.7978,84.4116,0.616466,2.80588,2.12611,7.1943,1.87291,3.40092,2.10851,0.998823,1.06363,1.11132,7.67427,11.1194,278.084,262.078
895,121.378,37.9366,47.3563,83.782,5.47013,4.43885,4.66303,8.79903,2.77161,3.40092,2.97075,1.37378,0.639369,1.11132,7.67427,10.8079,239.366,269.317
924,138.128,35.0468,45.5657,83.771,1.48238,3.36033,4.73139,7.99667,2.77161,3.40092,3.833,1.37378,0.639369,1.27736,9.5913,10.4341,255.534,276.611
953,125.583,39.5931,48.8523,84.1637,3.70793,2.72993,2.51349,9.60139,2.77161,3.40092,2.97075,1.74873,1.06363,1.27736,8.63279,9.97723,290.772,284.438
982,117.801,41.131,53.4076,88.2502,3.62437,4.26416,2.46791,9.60139,2.77161,3.40092,2.10851,0.998823,1.06363,1.60946,7.67427,9.45808,257.328,292.112
1011,98.9973,35.5961,47.7037,85.1908,1.03423,0.352634,0.926018,7.99667,2.77161,2.58661,3.833,1.37378,1.06363,1.11132,8.63279,9.16736,237.546,298.801
1040,87.5056,35.1412,46.1044,81.9921,4.96122,1.64382,3.15151,7.99667,1.87291,1.77231,3.833,0.998823,1.20506,0.945271,8.63279,8.8351,216.896,305.113
1069,81.8022,34.2046,44.5456,79.754,2.49261,5.31229,2.23245,7.99667,2.77161,2.58661,2.97075,0.998823,0.780791,1.27736,6.71575,8.48207,211.925,310.855
1098,68.3184,28.4779,38.8351,75.7402,1.48238,2.72233,3.349,6.39194,1.87291,2.58661,1.24627,0.998823,0.639369,1.11132,6.71575,7.85909,181.062,316.701
1127,73.6338,26.4038,35.1725,72.146,1.35325,3.89959,2.61982,6.39194,2.77161,2.58661,2.10851,1.37378,0.780791,1.11132,4.79872,7.50607,175.461,322.195
1156,45.603,22.3954,31.4223,67.0461,0.28985,0.0184455,2.29322,6.39194,3.6703,1.77231,1.24627,0.998823,0.497947,0.945271,4.79872,7.31917,160.328,326.798
1185,32.1525,19.1457,28.1287,62.2741,1.22282,0.262352,1.79806,5.89162,1.81213,2.22332,2.83046,1.55266,0.675858,0.897208,7.08183,7.06766,188.653,331.651
1214,46.2503,22.4215,30.9222,63.3627,2.61414,4.63632,1.3058,4.78721,2.77161,2.58661,1.24627,0.62387,0.497947,1.11132,5.75724,6.80002,182.029,337.01
1243,42.2191,19.1535,26.812,61.1517,0.905104,1.73496,3.55408,4.78721,2.77161,3.40092,0.384024,0.998823,0.497947,0.779224,5.75724,6.65466,179.262,341.988
1272,38.0335,19.7497,26.0459,60.0006,0.988657,0.709608,0.196846,4.78721,2.77161,2.58661,2.10851,0.62387,0.497947,0.945271,4.79872,6.48853,180.846,347.076
1301,43.0144,19.451,26.0132,58.4232,1.82419,1.37039,3.93385,3.18248,0.974216,2.58661,2.97075,0.998823,0.780791,0.945271,4.79872,6.09397,174.785,352.393
1330,40.2481,21.7215,29.2494,58.8224,0.373403,0.777964,0.280397,4.78721,1.87291,2.58661,3.833,1.37378,0.780791,0.945271,3.8402,5.96938,182.208,357.671
1359,30.0062,18.9725,25.2729,56.7808,1.6191,2.54764,0.758916,3.98485,3.6703,1.77231,1.24627,1.37378,0.639369,0.945271,3.8402,5.80325,176.877,363.173
1388,23.9477,18.4726,24.6246,55.1165,0.981061,0.702013,0.136082,3.18248,2.77161,1.77231,1.24627,0.998823,0.639369,0.945271,3.8402,5.65788,164.952,368.127
1417,19.768,15.7599,22.1532,51.8207,0.373403,1.11975,0.508263,3.98485,1.87291,1.77231,1.24627,0.998823,0.497947,0.779224,4.79872,5.45022,172.44,372.585
1446,16.5347,15.2969,21.2376,50.4844,1.14817,0.512133,1.91344,3.18248,1.87291,2.58661,2.10851,0.62387,0.356525,0.779224,4.79872,5.32563,142.557,377.392
1475,1.56764,10.4833,16.5205,46.2941,0.403786,0.269087,0.720939,2.38012,1.87291,1.77231,1.24627,0.62387,0.497947,0.779224,2.88169,5.13873,134.344,381.645
1504,0.0,9.63662,14.267,42.351,0.798764,0.21592,0.432308,3.18248,0.974216,1.77231,1.24627,0.248918,0.356525,0.945271,1.92317,5.0349,161.606,385.787
1533,0.0,8.24867,12.8061,40.7017,0.327829,0.337443,0.287992,3.18248,1.87291,2.58661,2.10851,0.62387,0.497947,0.613177,3.8402,5.01413,149.488,389.992
1562,0.0,9.65191,14.8159,40.467,1.095,1.81851,0.447499,2.38012,1.87291,2.58661,2.97075,0.998823,0.215104,0.779224,3.8402,4.80647,138.685,394.031
1591,0.0,10.263,14.8154,40.1684,0.722806,0.80075,2.22486,3.98485,0.974216,1.77231,1.24627,0.62387,0.356525,0.945271,2.88169,4.66111,149.806,398.036
1620,0.0,8.1488,12.0194,37.6945,0.624062,0.155159,0.318375,2.38012,2.77161,1.77231,1.24627,1.37378,0.497947,0.613177,2.88169,4.66111,143.783,402.042
1649,0.0,5.91813,10.2508,36.7863,0.669636,1.27165,0.895636,3.18248,0.974216,1.77231,1.24627,0.998823,0.497947,0.613177,3.8402,4.47422,132.132,405.894
1678,0.0,7.02196,10.5888,36.0325,1.57353,0.4058,1.3058,3.18248,1.87291,2.58661,2.97075,0.62387,0.356525,0.779224,4.79872,4.32885,133.6,409.642
1707,0.0,5.32101,9.76927,34.893,0.624062,0.648846,0.895636,3.98485,1.87291,1.77231,2.10851,0.998823,0.215104,0.613177,2.88169,4.16272,113.99,413.201
1736,0.0,4.25975,7.2941,32.2034,0.312637,0.246301,0.158868,3.18248,0.974216,0.958005,1.24627,0.62387,0.639369,0.779224,5.75724,4.16272,140.073,416.743
1765,0.0,6.15114,8.95453,32.7444,0.267063,0.664037,1.58683,1.57776,1.87291,1.77231,2.10851,0.998823,0.497947,0.779224,3.8402,3.97583,118.41,420.759
1781,0.0,4.93138,8.00351,31.6981,0.0543828,-0.110673,0.128486,3.18248,1.87291,1.77231,2.10851,1.37378,0.639369,1.11132,2.88169,4.01736,0.0,420.92