File: 01_Data/Plywood/STA/N2/30K_min/Plywood_STA_N2_30KData_22253_R2.csv
##Temp./Â°C,Time/min,Mass loss(subtr.2)/mg,DSC(subtr.2)/(mW/mg)
48.795,10.00917,-0.08019,0.009836841
51.495,10.82766,-0.08466837,0.12068
54.195,11.04293,-0.08541834,0.20726
56.895,11.20661,-0.09062684,0.279
59.595,11.34641,-0.0905962,0.34202
62.295,11.47241,-0.08909056,0.39691
64.995,11.58929,-0.09126967,0.44387
67.695,11.70049,-0.09045788,0.48722
70.395,11.80712,-0.09243969,0.53026
73.095,11.91043,-0.09314914,0.56782
75.795,12.01128,-0.09619269,0.60059
78.495,12.11044,-0.09490441,0.63364
81.195,12.2079,-0.09640277,0.66525
83.895,12.30387,-0.09741176,0.69957
86.595,12.39879,-0.10035,0.72983
89.295,12.49284,-0.10185,0.75712
91.995,12.58546,-0.10318,0.78055
94.695,12.67833,-0.10348,0.80395
97.395,12.7703,-0.10721,0.81731
100.095,12.86148,-0.10841,0.82971
102.795,12.95262,-0.1121,0.83284
105.495,13.04362,-0.11278,0.83751
108.195,13.13444,-0.11408,0.83462
110.895,13.22407,-0.11672,0.82536
113.595,13.31526,-0.11802,0.81699
116.295,13.40545,-0.11665,0.80311
118.995,13.49533,-0.11918,0.78825
121.695,13.58498,-0.12049,0.77389
124.395,13.67402,-0.12122,0.76198
127.095,13.76285,-0.12282,0.74936
129.795,13.85123,-0.12371,0.73959
132.495,13.93928,-0.12515,0.73411
135.195,14.02707,-0.12523,0.72998
137.895,14.11451,-0.12557,0.72916
140.595,14.2015,-0.12581,0.72998
143.295,14.28812,-0.12814,0.73313
145.995,14.37443,-0.129,0.73897
148.695,14.45993,-0.12943,0.74456
151.395,14.54654,-0.12943,0.75159
154.095,14.63211,-0.12943,0.76008
156.795,14.71769,-0.13074,0.76838
159.495,14.803,-0.13206,0.77828
162.195,14.88811,-0.13206,0.78861
164.895,14.97312,-0.13239,0.79914
167.595,15.0578,-0.13239,0.80988
170.295,15.14238,-0.13371,0.82094
172.995,15.22685,-0.13366,0.83322
175.695,15.31101,-0.13614,0.84203
178.395,15.39515,-0.13578,0.85497
181.095,15.47891,-0.137,0.86411
183.795,15.56232,-0.13832,0.87834
186.495,15.64553,-0.13825,0.89053
189.195,15.72876,-0.13897,0.90137
191.895,15.81165,-0.14162,0.91154
194.595,15.89438,-0.145,0.92291
197.295,15.97712,-0.14631,0.93595
199.995,16.05965,-0.14834,0.9443
202.695,16.14212,-0.15161,0.95335
205.395,16.22459,-0.15441,0.95938
208.095,16.30688,-0.15713,0.9675
210.795,16.38913,-0.15982,0.96797
213.495,16.47143,-0.1618,0.97105
216.195,16.55358,-0.16559,0.97579
218.895,16.6354,-0.16815,0.97393
221.595,16.71755,-0.17102,0.97607
224.295,16.79945,-0.17509,0.97684
226.995,16.8813,-0.18019,0.97577
229.695,16.9632,-0.18693,0.9817
232.395,17.045,-0.19368,0.98493
235.095,17.12677,-0.19884,0.98829
237.795,17.20848,-0.20571,0.99567
240.495,17.29021,-0.21453,1.00262
243.195,17.3719,-0.22045,1.00752
245.895,17.4536,-0.22795,1.01393
248.595,17.53519,-0.23498,1.02081
251.295,17.61674,-0.24338,1.02909
253.995,17.6983,-0.25447,1.03122
256.695,17.78001,-0.26553,1.03738
259.395,17.86165,-0.27601,1.04137
262.095,17.94305,-0.28599,1.04402
264.795,18.02461,-0.29638,1.04531
267.495,18.10613,-0.30601,1.04579
270.195,18.18765,-0.32005,1.04691
272.895,18.26912,-0.33366,1.04384
275.595,18.35067,-0.34692,1.0454
278.295,18.43207,-0.36078,1.04153
280.995,18.51385,-0.37692,1.03717
283.695,18.59556,-0.39323,1.0304
286.395,18.6771,-0.40867,1.02506
289.095,18.75866,-0.43534,1.01849
291.795,18.84043,-0.45709,1.00742
294.495,18.92205,-0.47995,0.99693
297.195,19.00367,-0.5043,0.98755
299.895,19.08537,-0.53104,0.97615
302.595,19.16721,-0.56003,0.96722
305.295,19.24886,-0.59265,0.95939
307.995,19.33027,-0.62681,0.95014
310.695,19.41202,-0.66418,0.94397
313.395,19.49427,-0.70336,0.94047
316.095,19.57606,-0.74735,0.9435
318.795,19.65801,-0.79511,0.94554
321.495,19.74004,-0.8429,0.95204
324.195,19.82214,-0.89409,0.95614
326.895,19.90429,-0.94891,0.96475
329.595,19.98645,-1.00307,0.97107
332.295,20.06889,-1.06087,0.98025
334.995,20.15109,-1.12375,0.98388
337.695,20.23345,-1.18917,0.9895
340.395,20.31611,-1.25728,0.99535
343.095,20.39861,-1.32878,0.99739
345.795,20.48129,-1.40431,0.99739
348.495,20.56416,-1.48149,0.99362
351.195,20.64675,-1.55958,0.99023
353.895,20.7297,-1.63926,0.98198
356.595,20.81264,-1.7231,0.96535
359.295,20.89522,-1.80956,0.94288
361.995,20.97817,-1.89668,0.91091
364.695,21.06141,-1.98258,0.87323
367.395,21.14477,-2.06969,0.82511
370.095,21.22791,-2.15379,0.76656
372.795,21.31093,-2.23285,0.69703
375.495,21.39409,-2.30741,0.61982
378.195,21.47738,-2.37519,0.53702
380.895,21.56077,-2.43563,0.46049
383.595,21.64411,-2.4872,0.37665
386.295,21.72744,-2.53403,0.29903
388.995,21.81089,-2.57057,0.22681
391.695,21.89429,-2.60254,0.16009
394.395,21.9778,-2.63046,0.10072
397.095,22.0614,-2.65282,0.04795669
399.795,22.14515,-2.67055,-0.001800745
402.495,22.22871,-2.68655,-0.04461296
405.195,22.31258,-2.70012,-0.08829144
407.895,22.39657,-2.71129,-0.12057
410.595,22.48053,-2.72347,-0.15929
413.295,22.56465,-2.73661,-0.19145
415.995,22.64869,-2.74614,-0.2235
418.695,22.73299,-2.75533,-0.24897
421.395,22.81715,-2.76694,-0.2748
424.095,22.90161,-2.77776,-0.29561
426.795,22.98605,-2.78686,-0.31585
429.495,23.0707,-2.79676,-0.32913
432.195,23.15529,-2.80472,-0.34147
434.895,23.24003,-2.81635,-0.34427
437.595,23.32499,-2.8234,-0.34887
440.295,23.40995,-2.83107,-0.35162
442.995,23.49483,-2.83999,-0.3508
445.695,23.57986,-2.84918,-0.34251
448.395,23.66511,-2.85953,-0.32967
451.095,23.75023,-2.86715,-0.31849
453.795,23.83539,-2.87293,-0.30404
456.495,23.92101,-2.88284,-0.28097
459.195,24.00662,-2.889,-0.26461
461.895,24.09224,-2.89894,-0.24848
464.595,24.17772,-2.9074,-0.2308
467.295,24.26339,-2.91366,-0.21284
469.995,24.34901,-2.91743,-0.19714
472.695,24.43496,-2.92349,-0.18067
475.395,24.52081,-2.93073,-0.16712
478.095,24.60691,-2.93541,-0.15456
480.795,24.693,-2.94183,-0.13932
483.495,24.77915,-2.94661,-0.1302
486.195,24.86548,-2.95055,-0.12141
488.895,24.95194,-2.95376,-0.11432
491.595,25.03827,-2.96112,-0.10795
494.295,25.12485,-2.96621,-0.10183
496.995,25.2115,-2.97226,-0.09564241
499.695,25.29805,-2.97723,-0.09217252
502.395,25.38483,-2.97766,-0.08773852
505.095,25.47137,-2.98134,-0.08359736
507.795,25.55832,-2.98689,-0.07954556
510.495,25.6452,-2.99051,-0.07650559
513.195,25.73208,-2.99376,-0.07192025
515.895,25.81922,-2.99839,-0.07076602
518.595,25.90604,-3.00115,-0.07319741
521.295,25.9932,-3.00386,-0.06838506
523.995,26.08027,-3.00553,-0.06933173
526.695,26.16736,-3.01066,-0.06411334
529.395,26.25462,-3.01652,-0.06279195
532.095,26.34184,-3.01789,-0.06023069
534.795,26.42952,-3.022,-0.05743964
537.495,26.51682,-3.02597,-0.05538121
540.195,26.60422,-3.03066,-0.0516696
542.895,26.69193,-3.03357,-0.05561733
545.595,26.77938,-3.03623,-0.05414369
548.295,26.86683,-3.03897,-0.04866197
550.995,26.95439,-3.04135,-0.04827733
553.695,27.04208,-3.04289,-0.04643512
556.395,27.12976,-3.04568,-0.04602984
559.095,27.21729,-3.05012,-0.0436249
561.795,27.30505,-3.05619,-0.04036417
564.495,27.39301,-3.05893,-0.04091215
567.195,27.48073,-3.05893,-0.03812426
569.895,27.56868,-3.06025,-0.03493472
572.595,27.65658,-3.06288,-0.02633366
575.295,27.74451,-3.06593,-0.01446129
577.995,27.83269,-3.06678,-0.003535018
580.695,27.92075,-3.06995,0.004609471
583.395,28.00894,-3.07264,0.01282545
586.095,28.09703,-3.07542,0.02475613
588.795,28.18525,-3.07783,0.02861815
591.495,28.27391,-3.07906,0.03902086
594.195,28.36233,-3.08306,0.04202999
596.895,28.45081,-3.08438,0.04611264
599.595,28.53937,-3.08713,0.04740869
602.295,28.62795,-3.09218,0.04654807
604.995,28.71666,-3.09444,0.04707655
607.695,28.80562,-3.09293,0.04410999
610.395,28.89419,-3.09404,0.0464332
613.095,28.98308,-3.09861,0.05018654
615.795,29.07204,-3.09994,0.0497169
618.495,29.16098,-3.09864,0.04934808
621.195,29.24997,-3.09936,0.05586531
623.895,29.33893,-3.10354,0.05622834
626.595,29.42784,-3.10747,0.05902225
629.295,29.51688,-3.10921,0.06369019
631.995,29.60603,-3.11014,0.06726989
634.695,29.6953,-3.11311,0.07367442
637.395,29.78439,-3.11302,0.07489661
640.095,29.87365,-3.11609,0.07980305
642.795,29.963,-3.11729,0.08611769
645.495,30.05218,-3.1186,0.09036232
648.195,30.14164,-3.1199,0.09514519
650.895,30.23099,-3.11991,0.09944112
653.595,30.32048,-3.12255,0.10474
656.295,30.40997,-3.12255,0.10658
658.995,30.49949,-3.12518,0.11245
661.695,30.58888,-3.12649,0.11504
664.395,30.67841,-3.12777,0.1175
667.095,30.76791,-3.13055,0.11947
669.795,30.85752,-3.13051,0.11736
672.495,30.94695,-3.13321,0.12016
675.195,31.03667,-3.1362,0.11966
677.895,31.12613,-3.13736,0.11631
680.595,31.21604,-3.13616,0.11133
683.295,31.3058,-3.14082,0.11289
685.995,31.39555,-3.14345,0.11081
688.695,31.48531,-3.14416,0.10831
691.395,31.57509,-3.14382,0.10444
694.095,31.66505,-3.14515,0.09927367
696.795,31.75491,-3.14607,0.09494633
699.495,31.84473,-3.14821,0.09093111
702.195,31.93478,-3.15141,0.0904933
704.895,32.02484,-3.15139,0.08156015
707.595,32.11484,-3.15008,0.08373431
710.295,32.20486,-3.14976,0.07572893
712.995,32.29483,-3.15041,0.07310933
715.695,32.38494,-3.15105,0.06701296
718.395,32.47515,-3.15106,0.06341387
721.095,32.56528,-3.15092,0.05730683
723.795,32.65552,-3.1508,0.05863996
726.495,32.74587,-3.15456,0.05291111
729.195,32.83617,-3.15774,0.05272547
731.895,32.92664,-3.15633,0.04925846
734.595,33.01715,-3.15633,0.04395615
737.295,33.10772,-3.15643,0.03978309
739.995,33.19804,-3.15776,0.03375385
742.695,33.2887,-3.15875,0.03338886
745.395,33.37954,-3.15875,0.02952928
748.095,33.47016,-3.16006,0.02538359
750.795,33.56053,-3.15908,0.01726896
753.495,33.65129,-3.16055,0.01327269
756.195,33.742,-3.16357,0.01356962
758.895,33.83271,-3.16356,0.004413611
761.595,33.92336,-3.16612,0.004780148
764.295,34.01425,-3.16739,0.002115346
766.995,34.10496,-3.16915,-0.002802343
769.695,34.19566,-3.16874,-0.008724495
772.395,34.28646,-3.17086,-0.01317515
775.095,34.37725,-3.17159,-0.01652503
777.795,34.46787,-3.17376,-0.01663699
780.495,34.55871,-3.1742,-0.02079063
783.195,34.64927,-3.17552,-0.02528349
785.895,34.7401,-3.17552,-0.02608384
788.595,34.83085,-3.17565,-0.03074599
791.295,34.92161,-3.17456,-0.03689572
793.595,34.99889,-3.17388,-0.04021999