File: 01_Data/Plywood/STA/N2/30K_min/Plywood_STA_N2_30KData_22253_R1.csv
##Temp./Â°C,Time/min,Mass loss(subtr.2)/mg,DSC(subtr.2)/(mW/mg),Sensit./(uV/mW)
48.751,10.01,0.00559,0.01328796,
51.451,10.8291,0.006724464,0.17546,
54.151,11.04478,0.00675261,0.28259,
56.851,11.20798,0.006312562,0.37133,
59.551,11.34805,0.006191716,0.44941,
62.251,11.47401,0.006460411,0.5152,
64.951,11.59143,0.007317153,0.57874,
67.651,11.70207,0.006100927,0.63302,
70.351,11.80896,0.004791179,0.68179,
73.051,11.91271,0.005099146,0.7293,
75.751,12.01344,0.005531267,0.77093,
78.451,12.11192,0.004783763,0.81343,
81.151,12.21025,0.001547518,0.85651,
83.851,12.30613,0.001447863,0.89322,
86.551,12.40104,0.001016287,0.92731,
89.251,12.495,-0.000972594,0.95905,
91.951,12.58787,-0.001765267,0.98675,
94.651,12.68038,-0.002308063,1.01029,
97.351,12.77219,-0.003643311,1.03464,
100.051,12.86358,-0.004977697,1.0494,
102.751,12.95492,-0.007300601,1.06129,
105.451,13.04552,-0.007566352,1.06691,
108.151,13.13616,-0.008782805,1.06589,
110.851,13.2267,-0.01158625,1.06388,
113.551,13.317,-0.0129328,1.05614,
116.251,13.40719,-0.01151959,1.04732,
118.951,13.49705,-0.01283038,1.03846,
121.651,13.58654,-0.01544224,1.02746,
124.351,13.67554,-0.01678439,1.0217,
127.051,13.76427,-0.01546108,1.01124,
129.751,13.85255,-0.01608795,1.00731,
132.451,13.9406,-0.01680041,1.00583,
135.151,14.02813,-0.01941054,1.00479,
137.851,14.11562,-0.01951501,1.00744,
140.551,14.20243,-0.01809975,1.01412,
143.251,14.28887,-0.01940959,1.02047,
145.951,14.37533,-0.0190436,1.02682,
148.651,14.4614,-0.01940902,1.04014,
151.351,14.54716,-0.02072943,1.0492,
154.051,14.63239,-0.02073,1.06029,
156.751,14.7177,-0.02072965,1.07401,
159.451,14.80315,-0.02204049,1.08616,
162.151,14.8882,-0.02204,1.10104,
164.851,14.97298,-0.02204,1.115,
167.551,15.05765,-0.02204012,1.12956,
170.251,15.14229,-0.02335867,1.14274,
172.951,15.22671,-0.02369639,1.15793,
175.651,15.31105,-0.0246751,1.17301,
178.351,15.39491,-0.02468,1.18662,
181.051,15.47858,-0.02467999,1.19906,
183.751,15.5621,-0.02604258,1.21417,
186.451,15.64547,-0.02728175,1.22732,
189.151,15.72836,-0.02829997,1.23851,
191.851,15.81104,-0.02872466,1.2534,
194.551,15.89407,-0.03102615,1.26787,
197.251,15.97663,-0.03083587,1.28055,
199.951,16.05926,-0.03399439,1.2903,
202.651,16.14176,-0.03598264,1.29948,
205.351,16.22411,-0.03765142,1.30665,
208.051,16.30647,-0.04036076,1.31461,
210.751,16.38861,-0.04320041,1.31906,
213.451,16.47098,-0.04478388,1.32377,
216.151,16.55303,-0.04761817,1.3279,
218.851,16.63518,-0.05081787,1.33023,
221.551,16.71708,-0.05524079,1.33332,
224.251,16.79891,-0.05884459,1.33268,
226.951,16.88071,-0.06376497,1.33774,
229.651,16.9625,-0.06871565,1.34098,
232.351,17.04418,-0.07456328,1.34782,
235.051,17.12604,-0.08083868,1.35121,
237.751,17.20763,-0.08617782,1.35835,
240.451,17.2892,-0.09221877,1.36703,
243.151,17.37086,-0.09837194,1.37118,
245.851,17.45255,-0.1068,1.38011,
248.551,17.53405,-0.1149,1.38443,
251.251,17.6156,-0.12266,1.38973,
253.951,17.69706,-0.13138,1.39695,
256.651,17.77867,-0.14042,1.40008,
259.351,17.86023,-0.15151,1.40686,
262.051,17.94186,-0.16144,1.40796,
264.751,18.02325,-0.17228,1.41087,
267.451,18.10484,-0.18233,1.4115,
270.151,18.18647,-0.19352,1.41346,
272.851,18.26785,-0.20599,1.41099,
275.551,18.34937,-0.21934,1.4119,
278.251,18.43123,-0.23437,1.40998,
280.951,18.51293,-0.25035,1.40585,
283.651,18.59463,-0.26582,1.4004,
286.351,18.6763,-0.28404,1.39499,
289.051,18.75795,-0.3035,1.3895,
291.751,18.83962,-0.32446,1.38391,
294.451,18.92128,-0.34632,1.37323,
297.151,19.00297,-0.37136,1.36313,
299.851,19.08478,-0.39802,1.35616,
302.551,19.16655,-0.42824,1.34833,
305.251,19.2483,-0.45957,1.34004,
307.951,19.33016,-0.49642,1.33383,
310.651,19.41213,-0.53208,1.33061,
313.351,19.49404,-0.57286,1.32818,
316.051,19.57606,-0.61567,1.32907,
318.751,19.65795,-0.66152,1.33258,
321.451,19.74009,-0.7094,1.33413,
324.151,19.82222,-0.75911,1.34547,
326.851,19.90449,-0.81232,1.34768,
329.551,19.98668,-0.86897,1.35781,
332.251,20.06909,-0.92633,1.36272,
334.951,20.1514,-0.98873,1.36921,
337.651,20.23399,-1.05289,1.3707,
340.351,20.31653,-1.12017,1.37325,
343.051,20.39914,-1.19013,1.37337,
345.751,20.48169,-1.26434,1.37273,
348.451,20.56431,-1.34104,1.36607,
351.151,20.64713,-1.41965,1.35801,
353.851,20.72989,-1.50038,1.34674,
356.551,20.81261,-1.58592,1.33207,
359.251,20.89562,-1.67096,1.30687,
361.951,20.97857,-1.75695,1.27554,
364.651,21.06193,-1.8455,1.23351,
367.351,21.14501,-1.929,1.18159,
370.051,21.2283,-2.01034,1.11675,
372.751,21.31143,-2.08877,1.04206,
375.451,21.39482,-2.16444,0.96367,
378.151,21.47831,-2.23133,0.87838,
380.851,21.56154,-2.29305,0.79181,
383.551,21.64495,-2.34854,0.70764,
386.251,21.72834,-2.3953,0.62803,
388.951,21.81202,-2.43609,0.54956,
391.651,21.89564,-2.47094,0.48415,
394.351,21.97927,-2.49826,0.42207,
397.051,22.06306,-2.52046,0.37221,
399.751,22.14681,-2.5402,0.32419,
402.451,22.23075,-2.55656,0.28559,
405.151,22.31478,-2.56942,0.25088,
407.851,22.39882,-2.58093,0.21672,
410.551,22.48304,-2.5926,0.18806,
413.251,22.56719,-2.60168,0.15867,
415.951,22.65128,-2.61157,0.12973,
418.651,22.7359,-2.6227,0.10458,
421.351,22.82033,-2.63249,0.08265631,
424.051,22.90459,-2.64291,0.06064283,
426.751,22.98923,-2.65215,0.04433059,
429.451,23.07381,-2.66159,0.02968366,
432.151,23.15843,-2.67216,0.02175736,
434.851,23.24321,-2.68136,0.01598341,
437.551,23.32797,-2.68776,0.01388997,
440.251,23.41294,-2.69857,0.01875153,
442.951,23.49793,-2.70672,0.02170262,
445.651,23.58298,-2.71507,0.02953288,
448.351,23.66811,-2.72261,0.04065001,
451.051,23.75341,-2.73178,0.05545156,
453.751,23.83864,-2.73881,0.06885676,
456.451,23.92407,-2.7463,0.08810502,
459.151,24.00944,-2.75339,0.10563,
461.851,24.09495,-2.76105,0.12479,
464.551,24.1806,-2.76711,0.13998,
467.251,24.26635,-2.77406,0.16054,
469.951,24.35212,-2.78081,0.17433,
472.651,24.43796,-2.7876,0.19077,
475.351,24.52391,-2.79055,0.20528,
478.051,24.60971,-2.79733,0.21785,
480.751,24.69573,-2.80306,0.23144,
483.451,24.78186,-2.80918,0.23989,
486.151,24.86775,-2.81384,0.24948,
488.851,24.95381,-2.81779,0.25694,
491.551,25.04033,-2.82279,0.26696,
494.251,25.12677,-2.82907,0.27208,
496.951,25.21304,-2.83305,0.27971,
499.651,25.29962,-2.83775,0.28473,
502.351,25.38625,-2.84082,0.28751,
505.051,25.47275,-2.84466,0.29427,
507.751,25.55949,-2.84915,0.29609,
510.451,25.64622,-2.8541,0.29935,
513.151,25.73289,-2.85736,0.30341,
515.851,25.81969,-2.86017,0.30408,
518.551,25.90666,-2.86374,0.30699,
521.251,25.99375,-2.86882,0.30667,
523.951,26.08062,-2.87162,0.3093,
526.651,26.16759,-2.87443,0.31315,
529.351,26.25467,-2.8771,0.3159,
532.051,26.34187,-2.88216,0.31698,
534.751,26.42907,-2.88499,0.31865,
537.451,26.51638,-2.88749,0.32011,
540.151,26.60379,-2.89027,0.32377,
542.851,26.69114,-2.89011,0.32929,
545.551,26.77831,-2.89658,0.32844,
548.251,26.86591,-2.90067,0.32845,
550.951,26.95338,-2.90395,0.33164,
553.651,27.04095,-2.90589,0.33323,
556.351,27.12871,-2.90912,0.3324,
559.051,27.21632,-2.91055,0.33395,
561.751,27.30417,-2.91342,0.33436,
564.451,27.39195,-2.91613,0.33628,
567.151,27.47988,-2.91886,0.33891,
569.851,27.56788,-2.9214,0.3438,
572.551,27.65587,-2.92408,0.34984,
575.251,27.74393,-2.92749,0.36037,
577.951,27.83203,-2.92822,0.37135,
580.651,27.92026,-2.93312,0.37818,
583.351,28.00866,-2.93443,0.38802,
586.051,28.09689,-2.9372,0.40004,
588.751,28.18517,-2.9393,0.40666,
591.451,28.27335,-2.94139,0.41329,
594.151,28.36205,-2.94361,0.42021,
596.851,28.45043,-2.94616,0.42284,
599.551,28.539,-2.94848,0.42532,
602.251,28.62771,-2.95155,0.42777,
604.951,28.71647,-2.95299,0.42804,
607.651,28.80522,-2.9556,0.42883,
610.351,28.89412,-2.95635,0.42746,
613.051,28.98248,-2.95825,0.43249,
615.751,29.07199,-2.96084,0.43325,
618.451,29.16107,-2.96216,0.43577,
621.151,29.25004,-2.96349,0.43947,
623.851,29.33907,-2.96505,0.44378,
626.551,29.42828,-2.9684,0.4496,
629.251,29.51752,-2.97127,0.45195,
631.951,29.60662,-2.97084,0.45929,
634.651,29.6961,-2.97088,0.46052,
637.351,29.78547,-2.97393,0.46765,
640.051,29.87475,-2.97548,0.47155,
642.751,29.96415,-2.97785,0.47855,
645.451,30.05374,-2.97918,0.48511,
648.151,30.14312,-2.97932,0.49264,
650.851,30.23246,-2.9818,0.4976,
653.551,30.3219,-2.98189,0.50483,
656.251,30.41136,-2.98448,0.51151,
658.951,30.50058,-2.98515,0.51711,
661.651,30.59009,-2.98675,0.52131,
664.351,30.67958,-2.98806,0.52517,
667.051,30.7689,-2.98831,0.52737,
669.751,30.85851,-2.98992,0.52601,
672.451,30.94787,-2.9894,0.52986,
675.151,31.03741,-2.99216,0.5285,
677.851,31.1268,-2.99344,0.52854,
680.551,31.21616,-2.99476,0.52789,
683.251,31.30578,-2.99637,0.52672,
685.951,31.39528,-2.99799,0.52582,
688.651,31.48505,-2.99936,0.52537,
691.351,31.5747,-2.99805,0.52171,
694.051,31.66434,-3.00036,0.5209,
696.751,31.75388,-3.00167,0.51743,
699.451,31.84413,-3.00299,0.51875,
702.151,31.93404,-3.00432,0.51336,
704.851,32.02402,-3.00562,0.50898,
707.551,32.11408,-3.0043,0.50924,
710.251,32.20411,-3.00434,0.50528,
712.951,32.29431,-3.00753,0.50551,
715.651,32.38445,-3.00848,0.5013,
718.351,32.47457,-3.00979,0.50141,
721.051,32.56461,-3.01109,0.49698,
723.751,32.65491,-3.01251,0.49332,
726.451,32.74529,-3.01242,0.49183,
729.151,32.83562,-3.01233,0.48669,
731.851,32.92609,-3.01482,0.48696,
734.551,33.0166,-3.01515,0.4833,
737.251,33.10691,-3.01384,0.47677,
739.951,33.19763,-3.01484,0.47586,
742.651,33.28813,-3.01609,0.46869,
745.351,33.37871,-3.01714,0.46292,
748.051,33.46925,-3.01872,0.4582,
750.751,33.55984,-3.02075,0.454,
753.451,33.65045,-3.02075,0.44801,
756.151,33.74107,-3.02076,0.44016,
758.851,33.83173,-3.02076,0.43895,
761.551,33.92239,-3.02207,0.43421,
764.251,34.01314,-3.02338,0.43179,
766.951,34.10399,-3.02472,0.42805,
769.651,34.19453,-3.02471,0.41962,
772.351,34.28547,-3.02477,0.41815,
775.051,34.37623,-3.02509,0.41989,
777.751,34.46702,-3.02602,0.4118,
780.451,34.55764,-3.02832,0.41409,
783.151,34.64804,-3.02832,0.41099,
785.851,34.73911,-3.02964,0.40474,
788.551,34.82988,-3.03095,0.40202,
791.251,34.92094,-3.03056,0.4001,
793.551,34.99839,-3.03095,0.39707,