File: 01_Data/Cellulose_Insulation/Cone/Cellulose_Insulation_Cone_HF50Scan_230620_R3.csv
Names,Time,Stack TC,Smoke TC,Exh Press,Smoke Comp,Smoke Meas,CO Meter,CO2 Meter,O2 Meter,Sample Mass,Ext Coeff,Start Test,Flame Verif
Chan Gain,,500,500,1,1,1,1,1,1,1,1,1.0,1.0
Offset,,0,0,0.245636,0,0,0,0,0,0,0,0.0,0.0
Gain,,1,1,25.011,13.7909,15.0732,1,1,1,1.00094,1.03834,1.0,1.0
Units,sec,C,C,Pa,%,%,%,%,%,g,/m,,
Baseline,,35.3199,38.263,142.699,99.5556,99.4912,0.000284289,0.0476749,20.9546,-445.513,0.00590309,,
22,5.25,35.0429,40.5597,126.592,100.858,101.794,0.000450084,0.0559298,20.9498,78.3639,-0.0841491,0.0,1.0
44,10.75,38.246,48.0094,128.078,100.866,101.457,0.000304327,0.0955334,20.9503,77.403,-0.053204,0.0,0.0
66,16.25,41.4772,52.22,130.704,100.867,101.367,0.00175698,0.340932,20.7383,76.6723,-0.0450712,0.0,0.0
88,21.75,43.4762,53.845,132.668,100.874,101.376,0.00281781,0.373307,20.5719,76.0417,-0.0451726,0.0,0.0
110,27.25,43.3079,54.7095,134.091,100.851,101.368,0.00234057,0.329206,20.6039,75.5012,-0.0466404,0.0,0.0
132,32.75,45.8195,54.7234,129.433,100.846,101.326,0.00175949,0.29386,20.654,74.9707,-0.0431754,0.0,0.0
154,38.25,45.9372,54.5512,140.044,100.841,101.223,0.00177974,0.267321,20.6932,74.4402,-0.0344433,0.0,0.0
176,43.75,46.6496,54.2047,136.687,100.79,101.301,0.00190798,0.250624,20.7206,74.0198,-0.046116,0.0,0.0
198,49.25,46.6796,54.2064,134.367,100.739,101.184,0.00232992,0.232578,20.7403,73.5794,-0.0401284,0.0,0.0
220,54.75,46.3893,53.1715,134.715,100.694,101.053,0.00251043,0.220572,20.7549,73.189,-0.0323923,0.0,0.0
242,60.25,46.665,53.2649,135.717,100.624,100.938,0.00261418,0.208479,20.7725,72.8287,-0.0283816,0.0,0.0
264,65.75,46.0593,52.7808,133.598,100.544,100.941,0.00307375,0.20004,20.7841,72.4283,-0.0359132,0.0,0.0
286,71.25,46.625,52.0786,136.883,100.439,100.839,0.00311418,0.195209,20.7925,72.068,-0.0362718,0.0,0.0
308,76.75,46.1538,52.2058,139.419,100.346,100.9,0.00327036,0.188662,20.7979,71.7076,-0.0501138,0.0,0.0
330,82.25,46.8667,51.9095,135.545,100.217,100.639,0.00333604,0.183541,20.8049,71.3873,-0.0382364,0.0,0.0
352,87.75,46.4717,51.7479,135.684,100.08,100.448,0.0036987,0.182732,20.8073,71.037,-0.0334581,0.0,0.0
374,93.25,46.5024,52.3445,135.748,99.9042,100.512,0.00382254,0.177361,20.8107,70.7067,-0.0552821,0.0,0.0
396,98.75,46.5339,51.8577,134.635,99.6971,100.2,0.00386664,0.174368,20.8134,70.4064,-0.0458334,0.0,0.0
418,104.25,46.3197,52.005,137.599,99.5132,99.9912,0.00412094,0.171485,20.8185,70.036,-0.0436473,0.0,0.0
440,109.75,46.3783,51.1645,137.57,99.3234,99.9921,0.00462844,0.168352,20.8218,69.7458,-0.0611206,0.0,0.0
462,115.25,46.2378,50.9979,139.163,99.19,99.4972,0.00477002,0.162867,20.8262,69.4655,-0.028166,0.0,0.0
484,120.75,45.1817,50.8401,133.295,99.115,99.5455,0.00490535,0.159528,20.8327,69.1752,-0.039468,0.0,0.0
506,126.25,45.5588,50.8408,139.137,99.1142,99.4351,0.00533302,0.157247,20.8343,68.8549,-0.0294388,0.0,0.0
528,131.75,45.3391,50.6155,142.264,99.1904,99.419,0.00564411,0.155065,20.8362,68.6547,-0.0209657,0.0,0.0
550,137.25,45.6939,50.2393,137.396,99.3187,99.7014,0.00573758,0.152344,20.8371,68.3444,-0.0350253,0.0,0.0
572,142.75,45.7773,50.3264,141.039,99.5233,99.947,0.00554494,0.149016,20.8405,68.0742,-0.0386998,0.0,0.0
594,148.25,45.3449,50.2141,135.39,99.7729,100.362,0.00559556,0.145536,20.8439,67.834,-0.0536627,0.0,0.0
616,153.75,45.6233,50.2206,135.231,100.018,100.304,0.0057046,0.144046,20.8475,67.6638,-0.0259455,0.0,0.0
638,159.25,45.1349,50.2016,140.449,100.185,100.777,0.00596043,0.141811,20.8486,67.3535,-0.053666,0.0,0.0
660,164.75,44.0863,50.0981,138.423,100.302,100.777,0.0059324,0.140305,20.8525,67.0933,-0.0430352,0.0,0.0
682,170.25,45.6433,49.9463,133.984,100.337,100.555,0.00615919,0.139872,20.853,66.6729,-0.0197605,0.0,0.0
704,175.75,45.1268,49.5655,137.055,100.285,100.648,0.00651446,0.138143,20.8543,66.5527,-0.0329503,0.0,0.0
726,181.25,44.9839,49.6507,136.358,100.192,100.712,0.00673346,0.137826,20.8557,66.4927,-0.0471473,0.0,0.0
748,186.75,44.7744,49.6994,136.783,100.114,100.45,0.00699554,0.137342,20.856,66.1724,-0.0305652,0.0,0.0
770,192.25,45.6433,49.2988,139.503,100.039,100.415,0.00671031,0.136008,20.8553,65.9622,-0.0341327,0.0,0.0
792,197.75,45.1323,49.2539,134.154,99.9614,100.342,0.00716712,0.135483,20.8547,65.6919,-0.0345877,0.0,0.0
814,203.25,45.2838,48.9463,139.202,99.9021,100.617,0.00686766,0.134672,20.8558,65.5218,-0.064932,0.0,0.0
836,208.75,45.2533,49.486,134.081,99.8907,100.42,0.00703763,0.136118,20.8579,65.3216,-0.0481275,0.0,0.0
858,214.25,44.5075,49.4573,138.024,99.8798,100.385,0.00712481,0.138008,20.8522,65.0814,-0.045996,0.0,0.0
880,219.75,45.2873,49.1835,135.83,99.9012,100.365,0.00693549,0.136604,20.8538,64.8912,-0.0422023,0.0,0.0
902,225.25,44.7467,49.0841,136.709,99.8987,100.288,0.00670377,0.135716,20.8548,64.6209,-0.0354586,0.0,0.0
924,230.75,45.0769,48.6149,137.481,99.905,100.217,0.00652215,0.136009,20.8555,64.4207,-0.0284051,0.0,0.0
946,236.25,45.4489,49.8031,136.708,99.9248,100.759,0.00631225,0.135915,20.8568,64.2406,-0.0757176,0.0,0.0
968,241.75,45.4944,49.4464,139.066,99.9715,100.692,0.00633534,0.136494,20.858,64.0003,-0.0653875,0.0,0.0
990,247.25,45.5269,49.3329,133.586,100.017,100.699,0.00661219,0.135374,20.8589,63.7901,-0.0619126,0.0,0.0
1012,252.75,45.4574,49.4646,138.399,100.076,100.72,0.00650452,0.135049,20.8585,63.6,-0.0583823,0.0,0.0
1034,258.25,45.2406,49.0327,137.059,100.155,100.526,0.00638915,0.135733,20.8575,63.3798,-0.0336134,0.0,0.0
1056,263.75,45.3446,49.1261,137.524,100.19,100.499,0.00637737,0.135089,20.8562,63.1095,-0.0280533,0.0,0.0
1078,269.25,45.2638,49.8699,139.727,100.244,100.91,0.00596194,0.13793,20.857,62.9794,-0.0603555,0.0,0.0
1100,274.75,45.4771,49.5395,136.536,100.287,100.74,0.00632263,0.138706,20.8565,62.7692,-0.0410014,0.0,0.0
1122,280.25,45.1701,49.9654,135.013,100.303,100.722,0.00645507,0.138791,20.8545,62.609,-0.0379682,0.0,0.0
1144,285.75,45.3617,49.1416,138.596,100.299,100.847,0.0058322,0.136102,20.8551,62.4389,-0.0496956,0.0,0.0
1166,291.25,45.3381,49.2608,133.989,100.265,100.692,0.0060649,0.135053,20.8548,62.1986,-0.0386622,0.0,0.0
1188,296.75,45.3131,48.4663,138.29,100.214,100.676,0.00657334,0.133466,20.8567,61.9884,-0.0418751,0.0,0.0
1210,302.25,44.5538,49.2373,134.438,100.128,100.743,0.00662806,0.131744,20.8589,61.8483,-0.0557551,0.0,0.0
1232,307.75,44.8401,48.6363,138.918,100.018,100.365,0.00639717,0.12828,20.8618,61.6982,-0.0315419,0.0,0.0
1254,313.25,45.6626,49.0542,136.785,99.868,100.31,0.00612188,0.127512,20.8678,61.488,-0.0401813,0.0,0.0
1276,318.75,45.1498,48.9407,136.5,99.6895,100.597,0.00628263,0.124539,20.8685,61.4379,-0.0825805,0.0,0.0
1298,324.25,44.7721,48.8665,137.644,99.5351,99.9963,0.00648083,0.122884,20.8705,61.3178,-0.0421058,0.0,0.0
1320,329.75,44.8174,48.7241,135.586,99.36,99.7497,0.00695457,0.126848,20.8692,61.1777,-0.0356554,0.0,0.0
1342,335.25,44.2148,48.6004,133.645,99.2232,99.6384,0.00717136,0.122382,20.8677,61.0776,-0.038032,0.0,0.0
1364,340.75,44.5188,48.0465,135.876,99.1214,99.511,0.00696243,0.116971,20.8727,60.8974,-0.0357306,0.0,0.0
1386,346.25,44.5367,48.406,135.029,99.046,99.3017,0.00730437,0.115037,20.8759,60.7873,-0.0234784,0.0,0.0
1408,351.75,44.1811,47.1183,140.872,99.0683,99.6908,0.00728637,0.113861,20.8775,60.6972,-0.057053,0.0,0.0
1430,357.25,44.5071,47.9324,135.887,99.1475,99.6361,0.00736046,0.112576,20.8789,60.5571,-0.0447782,0.0,0.0
1452,362.75,44.0853,46.9736,136.146,99.3116,99.7014,0.00740915,0.112372,20.8775,60.477,-0.035681,0.0,0.0
1474,368.25,44.667,47.4361,140.164,99.5384,100.024,0.00770963,0.110205,20.8786,60.3869,-0.0443526,0.0,0.0
1496,373.75,44.246,47.9256,135.267,99.8541,100.181,0.00799257,0.109786,20.8829,60.2668,-0.0297879,0.0,0.0
1518,379.25,44,46.8915,140.614,100.119,100.478,0.00757483,0.10896,20.8827,60.1868,-0.0326119,0.0,0.0
1540,384.75,43.8403,46.9425,137.57,100.421,100.785,0.0075964,0.108663,20.8837,60.1067,-0.032929,0.0,0.0
1562,390.25,42.0774,45.635,141.528,100.65,101.13,0.00754981,0.108377,20.8841,60.0466,-0.0433151,0.0,0.0
1584,395.75,42.0135,45.7714,135.829,100.783,101.26,0.00760606,0.106818,20.8841,59.9265,-0.0429643,0.0,0.0
1606,401.25,42.0429,45.562,137.347,100.861,101.115,0.0077188,0.106385,20.8841,59.8664,-0.0229668,0.0,0.0
1628,406.75,41.7466,45.6724,137.233,100.783,101.14,0.0080628,0.104453,20.8884,59.7964,-0.0322338,0.0,0.0
1650,412.25,42.1511,45.4925,137.913,100.675,100.919,0.00846054,0.103363,20.8886,59.7163,-0.0220329,0.0,0.0
1672,417.75,42.0999,44.834,138.176,100.461,100.822,0.00867527,0.101658,20.8901,59.6763,-0.0326321,0.0,0.0
1694,423.25,41.6595,44.4367,139.384,100.212,100.499,0.00891999,0.100586,20.8927,59.5662,-0.0260304,0.0,0.0
1716,428.75,41.3431,44.9227,135.877,100.017,100.339,0.00887525,0.0989501,20.8927,59.5461,-0.0292797,0.0,0.0
1738,434.25,41.4768,44.8457,136.985,100.001,100.265,0.00864332,0.0974856,20.8941,59.4561,-0.024088,0.0,0.0
1760,439.75,40.8958,44.5755,141.19,100.227,100.719,0.00866457,0.0978634,20.894,59.356,-0.0445594,0.0,0.0
1782,445.25,41.0876,44.1738,139.782,100.338,100.633,0.00878956,0.0974126,20.8934,59.346,-0.0267235,0.0,0.0
1804,450.75,41.6948,44.3601,138.705,100.388,100.484,0.0085798,0.0961419,20.8944,59.2659,-0.00875784,0.0,0.0
1826,456.25,40.3153,44.0161,135.76,100.399,100.691,0.00870241,0.0969738,20.8957,59.2459,-0.0265095,0.0,0.0
1848,461.75,40.8538,44.4767,137.981,100.395,100.699,0.00896204,0.0965598,20.8941,59.1958,-0.0274815,0.0,0.0
1870,467.25,41.2914,44.2264,137.541,100.416,100.89,0.00900332,0.0961705,20.8957,59.1458,-0.0429823,0.0,0.0
1892,472.75,41.1182,43.7967,135.173,100.389,100.96,0.00877034,0.094878,20.8959,59.0056,-0.0516178,0.0,0.0
1914,478.25,41.0123,44.2315,141.503,100.39,100.791,0.00904307,0.0952455,20.8965,59.0257,-0.036298,0.0,0.0
1936,483.75,40.7136,43.7952,142.316,100.346,100.596,0.00882928,0.0964118,20.8971,58.9756,-0.0225858,0.0,0.0
1958,489.25,40.9557,44.1783,137.575,100.29,100.429,0.00879713,0.09634,20.8971,58.9456,-0.0125751,0.0,0.0
1980,494.75,40.7933,44.1673,135.689,100.172,100.429,0.00829539,0.0950298,20.8982,58.8855,-0.0233636,0.0,0.0
2002,500.25,41.2025,43.8107,138.897,100.017,100.535,0.00793879,0.0942806,20.8979,58.7854,-0.0471277,0.0,0.0
2024,505.75,40.459,44.0552,140.528,100.017,100.439,0.00813937,0.0952829,20.8985,58.7354,-0.0383367,0.0,0.0
2031,507.5,40.6406,44.3228,141.09,100.037,100.442,0.00831337,0.0962065,20.8984,58.7854,-0.0368659,0.0,0.0