File: 01_Data/Cellulose_Insulation/Cone/Cellulose_Insulation_Cone_HF75Scan_230615_R2.csv
Names,Time,Stack TC,Smoke TC,Exh Press,Smoke Comp,Smoke Meas,CO Meter,CO2 Meter,O2 Meter,Sample Mass,Ext Coeff,Start Test,Flame Verif
Chan Gain,,500,500,1,1,1,1,1,1,1,1,1.0,1.0
Offset,,0,0,0.245636,0,0,0,0,0,0,0,0.0,0.0
Gain,,1,1,25.011,13.8344,15.0336,1,1,1,1.00094,1.03834,1.0,1.0
Units,sec,C,C,Pa,%,%,%,%,%,g,/m,,
Baseline,,44.5118,48.2178,137.965,100.173,100.232,0.000313675,0.0476125,20.9593,-445.534,-0.00533453,,
19,4.5,44.4077,51.6943,118.803,99.9082,98.1435,0.000111958,0.0551036,20.9513,75.7614,0.162323,0.0,1.0
38,9.25,48.3637,61.1561,119.198,99.9445,98.2752,0.000265577,0.127313,20.9495,74.6604,0.153421,0.0,0.0
57,14,52.6111,66.6236,127.664,99.9885,99.2212,0.00231,0.493796,20.732,73.8496,0.070162,0.0,0.0
76,18.75,54.0409,68.8225,122.983,100.021,100.533,0.00401006,0.53982,20.4014,73.1089,-0.0465383,0.0,0.0
95,23.5,56.0198,69.7754,126.864,100.038,100.725,0.00379588,0.479191,20.3922,72.4683,-0.0623171,0.0,0.0
114,28.25,56.5284,69.302,129.703,100.02,101.311,0.00307093,0.40846,20.476,71.9378,-0.116837,0.0,0.0
133,33,57.6941,68.7933,128.945,100.004,100.615,0.00273188,0.35674,20.5568,71.3673,-0.0555104,0.0,0.0
152,37.75,58.1595,68.7548,127.323,99.9576,101.064,0.00210417,0.313404,20.619,70.9569,-0.100272,0.0,0.0
171,42.5,58.518,68.0395,126.597,99.9298,101.292,0.00169575,0.284409,20.6629,70.5065,-0.123338,0.0,0.0
190,47.25,59.0511,67.4867,131.338,99.8888,100.786,0.00173724,0.265991,20.6917,70.1261,-0.0814126,0.0,0.0
209,52,58.6034,66.9697,129.874,99.8428,100.627,0.00167718,0.247204,20.7197,69.7057,-0.0712938,0.0,0.0
228,56.75,58.2565,66.7363,128.176,99.7985,100.821,0.00150784,0.232504,20.7384,69.3154,-0.0928879,0.0,0.0
247,61.5,58.2707,66.0161,134.293,99.747,100.461,0.00132304,0.220616,20.7557,68.955,-0.0649544,0.0,0.0
266,66.25,58.4254,66.0169,123.673,99.7297,100.561,0.00128718,0.216518,20.7674,68.5446,-0.0755982,0.0,0.0
285,71,57.813,65.1349,128.178,99.7022,100.504,0.00151726,0.214295,20.7721,68.2744,-0.0729923,0.0,0.0
304,75.75,58.2937,65.1541,131.514,99.6925,100.211,0.0017806,0.209674,20.7762,67.824,-0.0472314,0.0,0.0
323,80.5,57.7295,64.9561,130.887,99.6579,100.861,0.00180091,0.20199,20.7846,67.5137,-0.109334,0.0,0.0
342,85.25,57.8698,64.3489,130.954,99.6317,100.463,0.00157067,0.199985,20.7923,67.2034,-0.0756519,0.0,0.0
361,90,58.2223,63.9752,126.274,99.6195,100.747,0.00165076,0.194381,20.7924,66.833,-0.102482,0.0,0.0
380,94.75,57.572,64.3956,132.317,99.5899,100.536,0.00170257,0.187503,20.7991,66.5928,-0.0861263,0.0,0.0
399,99.5,57.1532,64.2525,133.146,99.565,100.289,0.0016158,0.18545,20.8039,66.2224,-0.0659737,0.0,0.0
418,104.25,58.3398,64.3502,132.32,99.5536,100.479,0.00148858,0.182383,20.8066,65.8921,-0.0842505,0.0,0.0
437,109,57.8535,64.3314,127.942,99.5245,100.381,0.00183119,0.179462,20.8097,65.6919,-0.0780943,0.0,0.0
456,113.75,57.0793,63.591,136.054,99.481,100.638,0.00203576,0.17882,20.8141,65.4117,-0.105317,0.0,0.0
475,118.5,57.1524,63.6137,129.89,99.4578,100.456,0.00181919,0.175244,20.8155,65.1014,-0.0909433,0.0,0.0
494,123.25,57.3319,63.1794,136.318,99.4337,100.35,0.00190181,0.171793,20.8189,64.8111,-0.0835749,0.0,0.0
513,128,56.9717,62.8662,133.198,99.4375,100.195,0.00200559,0.173231,20.8193,64.5409,-0.0690994,0.0,0.0
532,132.75,57.3342,63.2038,128.059,99.4286,100.195,0.00197468,0.169396,20.8189,64.2606,-0.0699118,0.0,0.0
551,137.5,57.6519,63.0709,129.441,99.4692,100.2,0.0019206,0.169034,20.8232,64.0204,-0.0666994,0.0,0.0
570,142.25,57.3414,63.1153,128.839,99.4924,100.268,0.0020585,0.168879,20.8252,63.7101,-0.0707439,0.0,0.0
589,147,57.1034,63.058,130.117,99.5798,100.541,0.00228321,0.167228,20.826,63.4598,-0.0875102,0.0,0.0
608,151.75,57.2362,62.801,128.554,99.657,100.533,0.00205706,0.165382,20.8276,63.2296,-0.0796977,0.0,0.0
627,156.5,56.9015,62.9941,132.106,99.7613,100.318,0.00182878,0.164729,20.8298,62.9594,-0.0506569,0.0,0.0
646,161.25,57.0035,62.5559,129.945,99.85,100.426,0.00195072,0.163519,20.8302,62.7392,-0.0523489,0.0,0.0
665,166,57.1144,62.544,128.391,99.9749,101.223,0.00188989,0.161755,20.8307,62.4989,-0.113031,0.0,0.0
684,170.75,57.3162,63.0135,130.165,100.103,100.828,0.00187941,0.161018,20.8328,62.2587,-0.0657325,0.0,0.0
703,175.5,55.7635,62.3075,129.838,100.216,101.271,0.00214393,0.159167,20.8364,61.9784,-0.0953848,0.0,0.0
722,180.25,56.3716,62.6959,125.692,100.284,101.358,0.00231728,0.156902,20.8378,61.8183,-0.0970862,0.0,0.0
741,185,56.2952,62.4166,130.525,100.303,101.186,0.0023142,0.156009,20.8399,61.5681,-0.0798494,0.0,0.0
760,189.75,56.455,62.2617,132.746,100.313,101.35,0.00216833,0.155167,20.8386,61.458,-0.0936201,0.0,0.0
779,194.5,56.6718,62.606,132.142,100.342,101.33,0.00226824,0.154224,20.8394,61.2878,-0.0892403,0.0,0.0
798,199.25,56.6532,62.8526,129.903,100.3,101.278,0.00239366,0.151557,20.8412,61.0876,-0.0884125,0.0,0.0
817,204,56.4799,62.043,131.468,100.258,100.952,0.00241475,0.148295,20.8426,60.9274,-0.0628249,0.0,0.0
836,208.75,55.9474,61.356,131.052,100.212,101.138,0.00259964,0.15009,20.8459,60.7072,-0.0837973,0.0,0.0
855,213.5,56.6669,61.961,130.917,100.119,101.344,0.00255061,0.145875,20.8483,60.5371,-0.110779,0.0,0.0
874,218.25,56.6469,62.3481,137.71,100.026,101.04,0.00258932,0.14586,20.8509,60.3569,-0.0918119,0.0,0.0
893,223,56.4775,61.8135,131.198,99.9365,100.884,0.00245337,0.142294,20.8509,60.2969,-0.0859322,0.0,0.0
912,227.75,56.6038,61.8052,127.879,99.8369,100.983,0.0025219,0.141347,20.8552,60.0766,-0.104002,0.0,0.0
931,232.5,56.5534,61.7725,134.975,99.7225,100.889,0.00233796,0.140711,20.8552,59.9165,-0.105959,0.0,0.0
950,237.25,56.3025,61.577,131.654,99.6325,100.988,0.00271308,0.141302,20.8527,59.7563,-0.123077,0.0,0.0
969,242,56.4963,60.467,134.78,99.5088,100.616,0.0028657,0.137589,20.854,59.6162,-0.100772,0.0,0.0
988,246.75,56.6201,61.2104,132.175,99.4557,100.81,0.00276226,0.136636,20.8571,59.446,-0.123235,0.0,0.0
1007,251.5,56.1348,61.1045,132.53,99.3915,100.386,0.00259615,0.137394,20.8572,59.2859,-0.0906494,0.0,0.0
1026,256.25,56.0091,61.078,132.322,99.3716,100.674,0.00288948,0.136249,20.8576,59.1057,-0.118572,0.0,0.0
1045,261,55.5017,60.9563,130.931,99.3856,100.315,0.00271968,0.132822,20.861,58.9356,-0.0848192,0.0,0.0
1064,265.75,55.7345,60.7585,133.121,99.4599,100.434,0.0023818,0.131216,20.8645,58.8855,-0.0887946,0.0,0.0
1083,270.5,55.8934,61.1826,135.295,99.5785,100.749,0.00254443,0.130439,20.8657,58.7154,-0.106476,0.0,0.0
1102,275.25,56.0734,61.0685,129.603,99.7453,100.616,0.00277816,0.132406,20.8676,58.5652,-0.0791572,0.0,0.0
1121,280,55.0619,61.3947,135.942,99.9277,100.922,0.0026387,0.132755,20.8646,58.5052,-0.0902189,0.0,0.0
1140,284.75,55.7942,61.1695,129.451,100.103,101.07,0.00259169,0.128891,20.864,58.4551,-0.0875064,0.0,0.0
1159,289.5,55.6697,60.7546,131.149,100.297,101.048,0.00250432,0.126375,20.8695,58.285,-0.0679059,0.0,0.0
1178,294.25,55.3501,60.5426,134.996,100.466,101.364,0.00285072,0.124877,20.8702,58.1849,-0.0810697,0.0,0.0
1197,299,55.5243,60.4518,129.103,100.625,101.844,0.00275001,0.122935,20.8717,58.0647,-0.109713,0.0,0.0
1216,303.75,54.9205,59.7998,133.278,100.804,101.821,0.00292587,0.123104,20.8733,57.9947,-0.0914713,0.0,0.0
1235,308.5,54.9611,59.8256,130.809,100.939,101.713,0.00320803,0.12195,20.8721,57.9046,-0.0695431,0.0,0.0
1254,313.25,54.7257,59.4801,132.592,101.013,101.71,0.00314416,0.120843,20.873,57.7444,-0.0626702,0.0,0.0
1273,318,53.6632,57.5388,133.043,101.062,101.962,0.00308118,0.121691,20.8729,57.6544,-0.080786,0.0,0.0
1292,322.75,52.9834,57.3813,135.264,101.02,101.706,0.00299875,0.118523,20.8736,57.5943,-0.0616536,0.0,0.0
1311,327.5,52.5295,56.6153,134.464,100.951,101.822,0.00295513,0.119178,20.8768,57.5543,-0.0782114,0.0,0.0
1330,332.25,52.9966,57.8673,132.625,100.851,101.607,0.00282726,0.116879,20.8785,57.4342,-0.0680546,0.0,0.0
1349,337,53.093,57.2378,133.256,100.715,101.617,0.00308567,0.121581,20.8776,57.3741,-0.0811661,0.0,0.0
1368,341.75,52.8962,56.5077,136.188,100.558,101.269,0.00331323,0.11726,20.8748,57.244,-0.0641529,0.0,0.0
1387,346.5,52.4753,55.8083,130.833,100.434,101.277,0.00279728,0.116188,20.8798,57.1639,-0.0761079,0.0,0.0
1406,351.25,51.64,57.1997,133.914,100.322,100.981,0.00288587,0.111256,20.8793,57.0538,-0.0596429,0.0,0.0
1425,356,52.0086,56.4599,130.061,100.293,101.255,0.0029711,0.1121,20.8838,56.9737,-0.0869621,0.0,0.0
1444,360.75,52.2762,56.9099,137.028,100.239,101.023,0.00287026,0.111221,20.8837,56.9437,-0.0709677,0.0,0.0
1463,365.5,52.1686,57.5774,128.678,100.193,100.906,0.00299979,0.107869,20.8864,56.8836,-0.0645963,0.0,0.0
1482,370.25,52.4634,56.8379,131.525,100.176,100.966,0.00298807,0.107476,20.8898,56.9237,-0.0715138,0.0,0.0
1501,375,52.5498,57.165,133.266,100.173,100.704,0.00298689,0.106426,20.889,56.8836,-0.0481548,0.0,0.0
1520,379.75,52.4349,56.8879,133.59,100.186,100.723,0.00295713,0.106115,20.8907,56.7735,-0.0487492,0.0,0.0
1539,384.5,52.4886,56.9845,135.186,100.193,101.272,0.00284117,0.106573,20.8897,56.7936,-0.0975395,0.0,0.0
1558,389.25,52.1052,56.691,132.825,100.184,100.894,0.00285046,0.106919,20.8905,56.6734,-0.0643601,0.0,0.0
1577,394,51.9443,56.7571,132.234,100.2,100.921,0.00281121,0.107879,20.8909,56.6134,-0.0653459,0.0,0.0
1596,398.75,51.8378,56.7649,132.936,100.219,100.91,0.0028913,0.109277,20.887,56.6334,-0.0625899,0.0,0.0
1615,403.5,52.1781,57.0357,132.289,100.241,100.896,0.00268887,0.108194,20.8863,56.5934,-0.0593495,0.0,0.0
1634,408.25,52.5054,56.3905,128.917,100.273,101.167,0.00298327,0.109126,20.8865,56.5233,-0.0808402,0.0,0.0
1653,413,52.1741,56.4266,134.781,100.282,100.889,0.00342216,0.108331,20.8855,56.4933,-0.0549691,0.0,0.0
1672,417.75,51.6762,56.1372,133.163,100.315,100.831,0.00299527,0.105827,20.8853,56.4332,-0.0467135,0.0,0.0
1691,422.5,52.2347,55.8139,131.361,100.371,101.184,0.00292814,0.106866,20.8892,56.3631,-0.0734729,0.0,0.0
1710,427.25,51.2505,55.6776,130.473,100.425,101.149,0.00283637,0.104474,20.8901,56.3331,-0.0653924,0.0,0.0
1729,432,50.1421,54.4144,131.853,100.504,101.273,0.00285613,0.105399,20.8931,56.2931,-0.0695009,0.0,0.0
1734,433.25,51.7097,56.2758,131.884,100.525,101.231,0.0027873,0.105041,20.8934,56.2831,-0.0636728,0.0,0.0