File: 01_Data/Cellulose_Insulation/Cone/Cellulose_Insulation_Cone_HF75Scan_230615_R3.csv
Names,Time,Stack TC,Smoke TC,Exh Press,Smoke Comp,Smoke Meas,CO Meter,CO2 Meter,O2 Meter,Sample Mass,Ext Coeff,Start Test,Flame Verif
Chan Gain,,500,500,1,1,1,1,1,1,1,1,1.0,1.0
Offset,,0,0,0.245636,0,0,0,0,0,0,0,0.0,0.0
Gain,,1,1,25.011,13.8799,15.0761,1,1,1,1.00094,1.03834,1.0,1.0
Units,sec,C,C,Pa,%,%,%,%,%,g,/m,,
Baseline,,46.3627,49.9116,137.711,99.8289,99.86,0.00012566,0.0464711,20.9618,-445.642,-0.00283078,,
21,5,46.3047,55.2261,118.455,100.933,101.159,0.000430118,0.0546518,20.9484,78.454,-0.0203552,0.0,1.0
42,10.25,51.9073,65.7951,125.437,100.927,100.926,0.000848952,0.177744,20.9473,77.5131,9.22916e-05,0.0,0.0
63,15.5,55.3857,70.3625,123.922,100.931,101.85,0.00275523,0.533401,20.6061,76.6923,-0.0825586,0.0,0.0
84,20.75,57.9724,72.2301,121.923,100.934,101.962,0.00372218,0.500172,20.3936,75.9516,-0.0923257,0.0,0.0
105,26,58.9431,72.4588,123.977,100.921,102.31,0.00305281,0.421733,20.463,75.351,-0.124491,0.0,0.0
126,31.25,59.872,71.9049,129.732,100.921,102.017,0.00244505,0.360614,20.5528,74.8406,-0.0983615,0.0,0.0
147,36.5,59.8995,70.6574,127.22,100.913,102.726,0.00187748,0.318791,20.6183,74.3801,-0.162208,0.0,0.0
168,41.75,60.3387,69.966,124.835,100.912,102.619,0.00216932,0.282688,20.6595,73.7896,-0.152777,0.0,0.0
189,47,60.2238,69.4162,130.832,100.899,102.155,0.00230982,0.267925,20.6996,73.3692,-0.112703,0.0,0.0
210,52.25,60.033,68.8998,131.174,100.917,101.814,0.00205433,0.249818,20.7175,72.9288,-0.0806107,0.0,0.0
231,57.5,59.961,67.9134,129.097,100.915,102.331,0.00201729,0.23808,20.7356,72.5484,-0.12687,0.0,0.0
252,62.75,59.8378,67.2242,131.218,100.919,102.566,0.00197028,0.223956,20.7479,72.148,-0.147468,0.0,0.0
273,68,59.525,67.4233,128.179,100.913,101.86,0.00199212,0.218603,20.759,71.6976,-0.0850291,0.0,0.0
294,73.25,59.2618,65.2377,128.59,100.923,102.106,0.00219587,0.215516,20.7649,71.2672,-0.106096,0.0,0.0
315,78.5,59.2115,66.7744,131.824,100.903,102.311,0.00240788,0.208028,20.7697,70.9669,-0.126213,0.0,0.0
336,83.75,59.0348,66.2689,130.309,100.909,102.261,0.00221252,0.20641,20.7783,70.6466,-0.121177,0.0,0.0
357,89,58.3859,66.5366,132.402,100.913,102.038,0.00226954,0.204078,20.7793,70.2963,-0.101016,0.0,0.0
378,94.25,59.3221,66.0323,134.707,100.883,102.099,0.00263912,0.198196,20.7847,69.976,-0.109192,0.0,0.0
399,99.5,58.3623,65.384,132.035,100.842,102.004,0.00260585,0.192252,20.7922,69.6557,-0.104284,0.0,0.0
420,104.75,58.526,66.04,132.762,100.791,102.707,0.00284884,0.187967,20.7974,69.3554,-0.171512,0.0,0.0
441,110,58.8652,65.2887,131.898,100.677,101.862,0.00270683,0.184685,20.8024,69.0251,-0.106554,0.0,0.0
462,115.25,59.1986,65.471,130.3,100.557,101.668,0.00249016,0.180506,20.8075,68.6547,-0.100146,0.0,0.0
483,120.5,58.6448,65.3799,130.655,100.424,102.07,0.0026485,0.18152,20.8081,68.3945,-0.148155,0.0,0.0
504,125.75,58.0038,64.8656,131.985,100.293,101.053,0.00245721,0.176731,20.8109,68.1743,-0.0687247,0.0,0.0
525,131,58.1518,64.6237,128.602,100.23,101.643,0.00294177,0.175352,20.8152,67.7539,-0.127588,0.0,0.0
546,136.25,58.0763,63.9417,132.222,100.154,101.394,0.00303895,0.173874,20.8169,67.4536,-0.112066,0.0,0.0
567,141.5,58.283,64.3304,130.673,100.038,101.237,0.00317716,0.170664,20.819,67.2534,-0.108523,0.0,0.0
588,146.75,58.0045,64.1149,132.646,99.9402,101.141,0.00320664,0.167369,20.823,66.8931,-0.108783,0.0,0.0
609,152,57.6122,64.0921,132.119,99.8784,101.04,0.0032468,0.168054,20.8242,66.7029,-0.105342,0.0,0.0
630,157.25,58.33,63.6005,128.53,99.7729,100.674,0.0031893,0.164576,20.8244,66.3426,-0.0818508,0.0,0.0
651,162.5,57.6571,63.6772,132.419,99.7128,100.854,0.00268034,0.163819,20.8264,66.1524,-0.103687,0.0,0.0
672,167.75,57.9027,63.5079,131.226,99.6802,100.465,0.00283703,0.16109,20.8276,65.9021,-0.0714049,0.0,0.0
693,173,57.6653,63.0854,131.241,99.6971,100.859,0.00336827,0.159462,20.8308,65.6719,-0.105576,0.0,0.0
714,178.25,57.699,63.7644,128.91,99.7416,100.672,0.00333696,0.158761,20.8329,65.4817,-0.0845458,0.0,0.0
735,183.5,57.5294,63.3778,134.141,99.7924,100.38,0.00338817,0.158024,20.8336,65.1815,-0.0534765,0.0,0.0
756,188.75,57.9354,63.5481,132.56,99.8415,100.474,0.00324787,0.156062,20.8358,65.0113,-0.0575469,0.0,0.0
777,194,57.5784,63.6344,134.413,99.8742,101.074,0.00335882,0.154539,20.8383,64.701,-0.108756,0.0,0.0
798,199.25,57.5525,62.8918,128.167,99.9068,101.036,0.00322883,0.156915,20.8359,64.4708,-0.102382,0.0,0.0
819,204.5,57.3939,63.247,130.247,99.9462,100.818,0.0031726,0.155236,20.8353,64.2606,-0.0791101,0.0,0.0
840,209.75,57.3609,63.1211,131.085,99.9165,100.684,0.00290506,0.153448,20.8384,64.0504,-0.0696667,0.0,0.0
861,215,57.5144,62.4203,133.562,99.8797,101.01,0.00315622,0.152945,20.8389,63.7901,-0.102489,0.0,0.0
882,220.25,57.9194,62.1584,130.989,99.861,100.939,0.00306276,0.152445,20.8389,63.63,-0.0977968,0.0,0.0
903,225.5,57.1488,62.7411,131.889,99.8182,100.673,0.00285291,0.149652,20.8422,63.4799,-0.077631,0.0,0.0
924,230.75,57.0076,62.4683,130.978,99.7861,100.678,0.00283537,0.15085,20.8425,63.2596,-0.0810264,0.0,0.0
945,236,56.517,63.0566,126.818,99.7522,100.836,0.00314132,0.148474,20.8425,63.0494,-0.0984274,0.0,0.0
966,241.25,57.1865,60.5889,133.961,99.7323,100.532,0.0032213,0.146942,20.8454,62.8793,-0.072734,0.0,0.0
987,246.5,57.4018,62.722,129.247,99.728,100.7,0.00347202,0.146254,20.8459,62.6591,-0.0883226,0.0,0.0
1008,251.75,57.1124,62.7051,129.061,99.7272,101.261,0.00324355,0.142476,20.8473,62.5189,-0.13903,0.0,0.0
1029,257,56.0115,61.8783,130.993,99.7484,100.653,0.00303343,0.142816,20.8512,62.3488,-0.0822622,0.0,0.0
1050,262.25,57.3851,62.4506,130.827,99.7759,100.693,0.00310345,0.140559,20.8511,62.1786,-0.0833278,0.0,0.0
1071,267.5,57.2243,62.203,130.429,99.8182,100.599,0.00296713,0.139701,20.8541,61.9985,-0.0709682,0.0,0.0
1092,272.75,56.3512,62.3342,130.165,99.8856,100.769,0.0031208,0.139756,20.8541,61.8884,-0.0801829,0.0,0.0
1113,278,56.3677,61.926,130.126,99.9559,101.003,0.003227,0.137949,20.8536,61.6882,-0.0949169,0.0,0.0
1134,283.25,56.9091,62.6293,131.909,100.043,100.839,0.00303756,0.138135,20.8549,61.518,-0.0721863,0.0,0.0
1155,288.5,57.0342,62.1492,131.753,100.127,100.883,0.00328307,0.135824,20.855,61.4179,-0.068501,0.0,0.0
1176,293.75,56.6649,62.2973,132.294,100.209,101.16,0.003391,0.133583,20.8577,61.2077,-0.0860813,0.0,0.0
1197,299,56.7822,61.5481,134.173,100.274,100.767,0.00329574,0.132618,20.86,61.0476,-0.0446696,0.0,0.0
1218,304.25,57.073,61.4263,134.067,100.356,101.106,0.00327921,0.131451,20.861,60.9875,-0.0678036,0.0,0.0
1239,309.5,56.7254,61.5891,133.654,100.424,101.273,0.00321992,0.129686,20.8646,60.8274,-0.0766499,0.0,0.0
1260,314.75,56.2402,61.0743,135.496,100.476,102.014,0.00328297,0.128195,20.8666,60.7673,-0.138344,0.0,0.0
1281,320,55.6586,60.5331,130.487,100.565,101.375,0.00300429,0.125648,20.8679,60.5771,-0.0730055,0.0,0.0
1302,325.25,56.7709,61.087,130.619,100.625,101.543,0.00306022,0.127198,20.8706,60.467,-0.0827525,0.0,0.0
1323,330.5,56.7551,60.7406,130.933,100.699,101.837,0.00331211,0.123841,20.8714,60.3669,-0.102378,0.0,0.0
1344,335.75,56.1784,61.4321,132.482,100.782,101.287,0.00325841,0.124703,20.8732,60.2368,-0.0455267,0.0,0.0
1365,341,55.2941,59.8578,134.958,100.82,101.752,0.00363843,0.125623,20.8713,60.1868,-0.083891,0.0,0.0
1386,346.25,55.8169,60.8,129.582,100.876,101.784,0.00380086,0.123389,20.8705,60.0566,-0.0816443,0.0,0.0
1407,351.5,56.381,60.9461,134.264,100.928,101.712,0.00376299,0.124397,20.8709,59.8965,-0.0705541,0.0,0.0
1428,356.75,54.9249,60.7202,132.385,100.953,102.056,0.00355836,0.122117,20.8715,59.8464,-0.098907,0.0,0.0
1449,362,55.7827,60.391,128.861,100.946,101.388,0.00343639,0.119932,20.8739,59.7063,-0.0397767,0.0,0.0
1470,367.25,54.0854,58.3321,133.609,100.936,102.088,0.00360564,0.124315,20.874,59.6562,-0.103389,0.0,0.0
1491,372.5,53.9443,58.8738,130.061,100.891,101.517,0.0039502,0.11965,20.8707,59.5962,-0.0563953,0.0,0.0
1512,377.75,54.1988,58.8779,129.333,100.826,101.568,0.00386362,0.119915,20.875,59.5762,-0.0668257,0.0,0.0
1533,383,53.9461,57.9523,136.605,100.769,101.611,0.00365294,0.118071,20.8756,59.406,-0.0757904,0.0,0.0
1554,388.25,54.1625,58.4548,133.022,100.657,101.51,0.00382587,0.118231,20.8757,59.386,-0.0767878,0.0,0.0
1575,393.5,53.8662,58.4963,132.718,100.538,101.357,0.00422551,0.115858,20.877,59.2359,-0.0738899,0.0,0.0
1596,398.75,53.372,58.3092,133.505,100.454,101.406,0.00423994,0.115171,20.8789,59.1958,-0.0859525,0.0,0.0
1617,404,53.2168,57.5515,131.718,100.374,101.547,0.00414993,0.114235,20.8776,59.1257,-0.105809,0.0,0.0
1638,409.25,53.5393,58.2781,133.205,100.329,101.222,0.00415567,0.113084,20.878,59.1257,-0.0807438,0.0,0.0
1659,414.5,53.7261,58.1718,134.884,100.31,101.145,0.00381664,0.112695,20.8795,59.1358,-0.0754762,0.0,0.0
1680,419.75,53.0044,57.9769,132.595,100.29,101.72,0.00369221,0.111031,20.8828,58.9956,-0.128926,0.0,0.0
1701,425,53.1401,55.9805,130.684,100.275,101.173,0.00333463,0.110351,20.8847,58.9556,-0.0811957,0.0,0.0
1722,430.25,53.4046,57.0322,134.939,100.289,101.297,0.00316535,0.110309,20.8845,58.9256,-0.0910639,0.0,0.0
1743,435.5,53.0108,57.2132,130.649,100.355,100.921,0.00302468,0.111333,20.8844,58.8955,-0.0512422,0.0,0.0
1764,440.75,51.9085,57.2664,131.375,100.396,100.94,0.00316453,0.112143,20.8817,58.8655,-0.0491771,0.0,0.0
1785,446,53.3962,57.2783,132.835,100.421,101.82,0.00304644,0.111582,20.8822,58.7954,-0.125983,0.0,0.0
1806,451.25,52.8936,57.5459,134.336,100.447,101.602,0.00298784,0.111319,20.8852,58.7354,-0.104071,0.0,0.0
1827,456.5,52.9263,57.3819,137.911,100.433,101.133,0.00306316,0.112395,20.884,58.7054,-0.0632513,0.0,0.0
1848,461.75,52.8314,56.9428,130.906,100.426,101.21,0.00294197,0.111018,20.883,58.6353,-0.0708659,0.0,0.0
1869,467,52.9323,57.2416,131.025,100.418,101.385,0.00281391,0.110942,20.8832,58.5052,-0.0873551,0.0,0.0
1890,472.25,52.1823,57.0604,133.426,100.376,100.883,0.00290889,0.111494,20.8822,58.4851,-0.0458727,0.0,0.0
1911,477.5,52.6696,57.2162,131.504,100.334,101.35,0.00265952,0.111255,20.8811,58.4351,-0.091824,0.0,0.0
1932,482.75,51.6115,57.2677,136.992,100.317,101.297,0.00258902,0.111762,20.881,58.4151,-0.0886054,0.0,0.0
1939,484.5,52.3183,57.0037,135.462,100.317,101.042,0.00248954,0.110801,20.881,58.4651,-0.0655362,0.0,0.0