File: 01_Data/Cellulose_Insulation/Cone/Cellulose_Insulation_Cone_HF25Scalar_230613_R2.csv
LABORATORY,FSRI
TEST IDENT,Cellulose_In_HF25_R2
OPERATOR,Marino
MATERIAL,Cellulose Insulation
ORIENTATION,Horizontal
HEAT FLUX,25
SURF AREA,0.01
C FACTOR,0.0398268
SPEC HOLDER DIFF,-566
SPECIMEN MASS,26.91
SCAN TIME,0.25
O2 DELAY TIME,11
CO DELAY TIME,11
CO2 DELAY TIME,8
FLOW FACTOR,1
SCAN COUNT,1089
TIME TO IGN,12
END OF TEST SCAN,609
END OF TEST TIME,152.25
TEST STATUS,1
PRE TEST CMT,5 cm depth tray filled without compression
POST TEST CMT,Sample charred and smoldered.