File: 01_Data/Cellulose_Insulation/Cone/Cellulose_Insulation_Cone_HF25Scan_230613_R1.csv
Names,Time,Stack TC,Smoke TC,Exh Press,Smoke Comp,Smoke Meas,CO Meter,CO2 Meter,O2 Meter,Sample Mass,Ext Coeff,Start Test,Flame Verif
Chan Gain,,500,500,1,1,1,1,1,1,1,1,1.0,1.0
Offset,,0,0,0.142142,0,0,0,0,0,0,0,0.0,0.0
Gain,,1,1,25.011,13.2995,16.1223,1,1,1,1.00097,1.04429,1.0,1.0
Units,sec,C,C,Pa,%,%,%,%,%,g,/m,,
Baseline,,24.4882,25.4655,158.665,98.9311,98.9891,0.000152643,0.0473032,20.9592,-444.919,-0.00536053,,
15,3.5,22.6792,23.4603,157.829,98.8285,97.8937,0.000239812,0.0558138,20.9452,52.4205,0.0870655,0.0,0.0
30,7.25,22.7859,23.7329,157.059,98.8196,94.7069,0.000262025,0.0557253,20.9487,52.2804,0.389403,0.0,0.0
45,11,23.971,24.911,150.97,98.8302,99.2752,0.000404401,0.0553387,20.9508,51.9201,-0.0411616,0.0,1.0
60,14.75,24.4384,27.0774,145.91,98.8468,99.1847,0.000508267,0.0559655,20.9515,51.5397,-0.0312617,0.0,0.0
75,18.5,26.4647,29.0127,146.976,98.8663,99.5124,0.000673382,0.0918744,20.9489,51.2694,-0.0596706,0.0,0.0
90,22.25,27.1986,30.3099,150.562,98.8813,99.4042,0.0012647,0.214124,20.8951,50.9591,-0.0483092,0.0,0.0
105,26,27.8414,30.7756,155.156,98.8914,99.2349,0.0015927,0.246841,20.7545,50.7489,-0.0317592,0.0,0.0
120,29.75,28.317,31.206,147.105,98.8996,99.3082,0.00188119,0.229747,20.7271,50.5087,-0.0377722,0.0,0.0
135,33.5,28.6687,31.9239,155.279,98.93,99.0081,0.00179046,0.20712,20.75,50.2785,-0.00722592,0.0,0.0
150,37.25,28.695,31.5574,155.971,98.9523,99.3756,0.00171545,0.188872,20.772,50.0683,-0.0391018,0.0,0.0
165,41,29.0346,31.8809,152.442,98.9852,99.4883,0.0020265,0.176244,20.7952,49.9081,-0.0464388,0.0,0.0
180,44.75,29.1945,32.2819,148.641,98.9958,99.2964,0.0021147,0.170162,20.8084,49.7179,-0.0277774,0.0,0.0
195,48.5,29.1845,32.1453,151.516,99.0299,99.3328,0.00217115,0.168232,20.815,49.5077,-0.0279811,0.0,0.0
210,52.25,29.159,32.4789,155.142,99.0761,99.5198,0.00251165,0.165799,20.8175,49.2975,-0.0409279,0.0,0.0
225,56,29.9442,32.5653,153.298,99.122,99.4588,0.0028249,0.165195,20.8193,49.1574,-0.0310705,0.0,0.0
240,59.75,29.6965,32.2955,153.634,99.1703,99.7299,0.00322587,0.163947,20.8194,48.9772,-0.0515438,0.0,0.0
255,63.5,29.3892,32.1427,155.419,99.2348,99.5955,0.00361235,0.160207,20.8203,48.8571,-0.0332381,0.0,0.0
270,67.25,29.4146,32.0505,154.738,99.3022,99.6566,0.00414909,0.154016,20.8262,48.697,-0.0326309,0.0,0.0
285,71,29.324,32.0432,154.192,99.3757,99.8829,0.00479456,0.148084,20.8339,48.5568,-0.0466369,0.0,0.0
300,74.75,28.9792,31.942,155.935,99.4852,99.9621,0.00531896,0.14087,20.8403,48.3967,-0.0438034,0.0,0.0
315,78.5,29.0943,31.9256,151.355,99.5847,99.9724,0.00571275,0.135366,20.8492,48.2665,-0.035598,0.0,0.0
330,82.25,29.5708,31.4895,155.265,99.6691,99.9547,0.00639458,0.133508,20.8555,48.1364,-0.0262134,0.0,0.0
345,86,29.1836,31.2359,159.217,99.7385,100.09,0.00699896,0.130312,20.8573,47.9763,-0.0322282,0.0,0.0
360,89.75,29.1395,31.5179,160.503,99.8047,100.31,0.00754434,0.124441,20.8626,47.8261,-0.0462604,0.0,0.0
375,93.5,28.8573,31.2936,155.455,99.8643,100.114,0.00858218,0.117269,20.8673,47.676,-0.0228415,0.0,0.0
390,97.25,28.3139,31.0324,153.625,99.9134,100.001,0.00920245,0.111189,20.8754,47.5759,-0.00802266,0.0,0.0
405,101,28.726,30.3968,154.086,99.9524,99.9828,0.00978653,0.107312,20.8809,47.3957,-0.0027834,0.0,0.0
420,104.75,28.982,30.6947,153.693,99.9552,100.185,0.0103825,0.104875,20.8852,47.3156,-0.0210754,0.0,0.0
435,108.5,28.5055,30.8233,154.505,99.9869,100.149,0.0106274,0.103585,20.8897,47.1455,-0.0148453,0.0,0.0
450,112.25,28.3534,30.7938,152.421,99.9958,100.271,0.0106333,0.102932,20.8909,47.0654,-0.0251813,0.0,0.0
465,116,28.5573,30.3719,149.851,99.9889,100.433,0.0111319,0.100318,20.8911,46.9753,-0.0406345,0.0,0.0
480,119.75,28.0413,30.5626,156.149,99.9812,100.22,0.0120544,0.0984867,20.8937,46.8452,-0.0218892,0.0,0.0
495,123.5,28.604,30.0015,155.437,99.9589,100.078,0.0128544,0.0977383,20.8954,46.705,-0.0109288,0.0,0.0
510,127.25,28.2613,30.01,151.704,99.9548,100.344,0.0127849,0.0991212,20.895,46.615,-0.0356326,0.0,0.0
525,131,28.603,29.9612,153.285,99.9638,100.339,0.0125298,0.0984592,20.8943,46.5249,-0.0343643,0.0,0.0
540,134.75,27.9576,30.124,153.37,99.9593,99.7702,0.0123155,0.0969362,20.8953,46.4248,0.0173443,0.0,0.0
555,138.5,27.9701,30.3766,152.547,99.9496,100.115,0.0128552,0.0924288,20.8971,46.3046,-0.015116,0.0,0.0
570,142.25,28.1391,29.64,160.118,99.9374,99.8017,0.0141828,0.0876255,20.901,46.1345,0.0124448,0.0,0.0
585,146,27.5953,29.5068,155.808,99.9459,99.6133,0.0153857,0.0832125,20.9068,46.0444,0.0305383,0.0,0.0
600,149.75,27.5668,29.5737,160.438,99.9487,99.4622,0.0157005,0.0811596,20.9106,45.9443,0.044699,0.0,0.0
615,153.5,27.6031,29.2848,152.066,99.9609,99.7166,0.0161069,0.0785247,20.9137,45.8442,0.0224176,0.0,0.0
630,157.25,27.8719,28.8771,155.551,99.9556,99.4012,0.0166386,0.0769398,20.9176,45.7842,0.050953,0.0,0.0
645,161,26.8448,28.5715,156.756,99.9573,99.198,0.0166308,0.0764858,20.9189,45.614,0.0698474,0.0,0.0
660,164.75,27.4449,28.8364,156.092,99.9638,99.3732,0.0166301,0.0761024,20.9191,45.5639,0.0542819,0.0,0.0
675,168.5,26.9996,28.543,153.528,99.9715,99.3451,0.0173302,0.0723231,20.92,45.4238,0.0575749,0.0,0.0
690,172.25,26.6118,28.5327,154.473,99.9788,99.072,0.018084,0.0696427,20.9224,45.3337,0.0834574,0.0,0.0
705,176,26.5542,28.3177,156.852,99.9792,99.4288,0.0184329,0.0683394,20.9247,45.2236,0.0505707,0.0,0.0
720,179.75,26.4507,27.9175,156.366,99.937,99.413,0.0180645,0.0676601,20.9245,45.1135,0.0481541,0.0,0.0
735,183.5,26.4598,28.0341,153.566,99.941,99.6969,0.0179175,0.067238,20.9255,44.9934,0.0224046,0.0,0.0
750,187.25,26.2047,27.9899,155.157,99.9167,99.1832,0.0180452,0.0670953,20.9265,44.9333,0.0674901,0.0,0.0
765,191,26.5428,28.2141,157.283,99.8647,99.6856,0.0179126,0.0671902,20.9267,44.8032,0.0164472,0.0,0.0
780,194.75,26.4111,27.704,154.292,99.8245,99.4105,0.0176299,0.0675565,20.9267,44.7031,0.03807,0.0,0.0
795,198.5,26.2191,27.8591,154.27,99.7507,99.2625,0.0175675,0.0680566,20.9283,44.623,0.0449457,0.0,0.0
810,202.25,26.0762,27.7921,157.264,99.6947,99.3751,0.0177368,0.0675296,20.9271,44.553,0.0294085,0.0,0.0
825,206,26.0415,27.6939,153.195,99.6167,99.3333,0.0177555,0.0672749,20.9285,44.4529,0.026101,0.0,0.0
840,209.75,26.1583,27.7014,153.951,99.5205,99.2669,0.0175289,0.0669944,20.929,44.3628,0.0233784,0.0,0.0
855,213.5,26.3666,27.7124,152.311,99.4179,99.1021,0.0176166,0.0668316,20.9287,44.2427,0.0291451,0.0,0.0
870,217.25,26.2114,27.6135,154.289,99.3306,98.9313,0.0176303,0.066763,20.9283,44.1226,0.0368965,0.0,0.0
885,221,25.9691,27.2928,156.192,99.2267,98.8723,0.0173828,0.0668925,20.9277,44.0425,0.0327779,0.0,0.0
900,224.75,26.3886,27.4952,157.907,99.1118,99.0228,0.0172528,0.0673743,20.9279,43.9724,0.00822893,0.0,0.0
915,228.5,26.2256,28.005,155.936,99.001,98.7606,0.0174538,0.0674402,20.9273,43.8523,0.0222749,0.0,0.0
930,232.25,26.4454,28.326,156.901,98.9036,98.6902,0.0175359,0.0672296,20.9281,43.7122,0.0197854,0.0,0.0
945,236,26.3723,27.7077,156.859,98.8233,98.4723,0.0174705,0.0672155,20.9283,43.7322,0.0325929,0.0,0.0
960,239.75,26.4484,27.82,158.178,98.7709,98.4885,0.0172273,0.0666836,20.9283,43.6221,0.0262284,0.0,0.0
975,243.5,24.8008,26.2362,156.862,98.7563,98.4742,0.0171409,0.0667261,20.9273,43.4819,0.0262001,0.0,0.0
990,247.25,24.3668,26.0575,152.732,98.7636,98.5151,0.0175433,0.0670382,20.9263,43.4419,0.0230799,0.0,0.0
1005,251,24.8299,26.2078,155.109,98.7884,98.4861,0.0180663,0.0671751,20.9261,43.2617,0.028075,0.0,0.0
1020,254.75,25.2925,26.1927,152.374,98.833,98.6583,0.0178112,0.0668826,20.9261,43.1216,0.0162118,0.0,0.0
1035,258.5,24.9882,25.8736,155.369,98.9044,98.6942,0.0176441,0.0669931,20.9261,43.0415,0.0194945,0.0,0.0
1050,262.25,24.537,25.7941,158.372,98.971,98.7606,0.0172417,0.06638,20.9261,42.9915,0.0194945,0.0,0.0
1065,266,24.6854,25.9814,158.507,99.0445,98.7532,0.0170409,0.066334,20.9267,42.9114,0.0269765,0.0,0.0
1080,269.75,24.4896,25.6904,151.871,99.1183,98.9904,0.0167572,0.0659595,20.9293,42.8213,0.0118341,0.0,0.0
1095,273.5,24.3754,26.0021,157.362,99.1536,99.134,0.0163762,0.0659507,20.9305,42.7412,0.00181146,0.0,0.0
1110,277.25,24.0893,25.4057,158.275,99.1833,98.9648,0.0165046,0.0663586,20.9301,42.6611,0.0202017,0.0,0.0
1125,281,24.416,26.2911,159.046,99.2023,99.1537,0.0163377,0.0670844,20.9288,42.531,0.00449141,0.0,0.0
1140,284.75,24.5774,25.7493,155.311,99.2032,99.1793,0.0162224,0.0672931,20.9285,42.4409,0.0022034,0.0,0.0
1155,288.5,23.8175,25.442,155.172,99.1727,99.1449,0.0160169,0.0670342,20.9285,42.3608,0.0025735,0.0,0.0
1170,292.25,24.5318,25.9598,159.663,99.1252,98.8925,0.0159587,0.0666843,20.9295,42.2708,0.0215363,0.0,0.0
1185,296,24.5095,25.9316,154.035,99.07,98.9953,0.0164414,0.0669505,20.9297,42.1707,0.00691415,0.0,0.0
1200,299.75,24.5499,25.5385,154.09,99.0294,98.9569,0.0168637,0.0668524,20.9313,42.0906,0.00671228,0.0,0.0
1215,303.5,24.3169,25.0555,156.383,98.9665,98.861,0.0166293,0.0665779,20.932,42.0005,0.00977697,0.0,0.0
1230,307.25,23.8813,25.3919,152.226,98.9073,98.8457,0.016617,0.0663466,20.9321,41.9304,0.00570286,0.0,0.0
1245,311,24.1764,25.5322,157.115,98.861,98.6445,0.0165134,0.0664879,20.9321,41.8604,0.0200851,0.0,0.0
1260,314.75,24.3221,25.6686,158.705,98.8326,98.4432,0.0165818,0.0667714,20.9291,41.7302,0.0361591,0.0,0.0
1275,318.5,24.0574,25.2831,156.421,98.8009,98.6868,0.0171889,0.0669567,20.9283,41.6602,0.0105885,0.0,0.0
1290,322.25,23.9551,25.584,157.799,98.794,98.6642,0.0170702,0.0665542,20.9281,41.5601,0.0120511,0.0,0.0
1305,326,24.0055,25.4585,158.039,98.7701,98.4954,0.0166498,0.0661505,20.9281,41.52,0.0255119,0.0,0.0
1320,329.75,24.6726,25.5505,157.169,98.7664,98.7365,0.0165689,0.0661818,20.9283,41.4199,0.00277873,0.0,0.0
1335,333.5,24.3236,25.708,162.476,98.7859,98.7212,0.0165255,0.0663683,20.9306,41.3098,0.00600079,0.0,0.0
1350,337.25,24.4327,25.7822,154.424,98.8399,98.6179,0.0165221,0.0662162,20.9293,41.2298,0.0205972,0.0,0.0
1365,341,23.8116,25.4893,159.277,98.8728,98.7055,0.0164545,0.0667029,20.9264,41.1597,0.0155119,0.0,0.0
1380,344.75,23.9907,25.4074,155.553,98.9519,98.9795,0.0164155,0.0696416,20.9248,41.0796,-0.0025562,0.0,0.0
1395,348.5,23.8956,25.1244,157.678,99.0327,98.9264,0.016551,0.0722781,20.9204,40.9895,0.00983696,0.0,0.0
1410,352.25,24.4164,25.384,155.185,99.1066,98.9023,0.0165395,0.0711425,20.9187,40.8994,0.0188995,0.0,0.0
1425,356,24.1351,25.8138,155.376,99.2377,99.2,0.0164828,0.0692608,20.9195,40.8494,0.00347956,0.0,0.0
1440,359.75,24.3445,25.6608,159.396,99.3412,99.3402,0.0161107,0.0679269,20.9233,40.7393,8.9544e-05,0.0,0.0
1442,360.25,24.0006,25.6128,157.949,99.3521,99.2177,0.016027,0.0677256,20.9245,40.7493,0.0124033,0.0,0.0