File: 01_Data/Cellulose_Insulation/Cone/Cellulose_Insulation_Cone_HF75Scalar_230615_R2.csv
LABORATORY,FSRI
TEST IDENT,Cellulose_In_HF75_R2
OPERATOR,Marino
MATERIAL,Cellulose Insulation
ORIENTATION,Horizontal
HEAT FLUX,75
SURF AREA,0.01
C FACTOR,0.040763
SPEC HOLDER DIFF,-566
SPECIMEN MASS,26.79
SCAN TIME,0.25
O2 DELAY TIME,11
CO DELAY TIME,11
CO2 DELAY TIME,8
FLOW FACTOR,1
SCAN COUNT,1734
TIME TO IGN,2
END OF TEST SCAN,1254
END OF TEST TIME,313.5
TEST STATUS,1
PRE TEST CMT,5 cm depth tray filled without compression
POST TEST CMT,"Test started manually using ""start test"" button. Ignition occured less than 1 second after the shutter opened. Sample's surface area and height reduced as it was consumed. Sample charred and smoldered."