File: 01_Data/Cellulose_Insulation/Cone/Cellulose_Insulation_Cone_HF50Scan_230615_R1.csv
Names,Time,Stack TC,Smoke TC,Exh Press,Smoke Comp,Smoke Meas,CO Meter,CO2 Meter,O2 Meter,Sample Mass,Ext Coeff,Start Test,Flame Verif
Chan Gain,,500,500,1,1,1,1,1,1,1,1,1.0,1.0
Offset,,0,0,0.245636,0,0,0,0,0,0,0,0.0,0.0
Gain,,1,1,25.011,13.9157,15.2004,1,1,1,1.00094,1.03834,1.0,1.0
Units,sec,C,C,Pa,%,%,%,%,%,g,/m,,
Baseline,,35.2106,37.9312,142.895,100.186,100.149,0.000424615,0.0475598,20.9555,-445.561,0.0033282,,
20,4.75,33.998,39.1875,128.686,101.15,101.807,0.000182028,0.0499422,20.9541,74.4802,-0.0589817,0.0,1.0
40,9.75,37.2632,46.3544,127.433,101.155,101.635,3.67772e-05,0.0649962,20.9548,73.6594,-0.0430712,0.0,0.0
60,14.75,40.1909,50.8267,127.481,101.185,101.74,0.000699455,0.277712,20.8606,73.0289,-0.0497879,0.0,0.0
80,19.75,42.6504,53.3281,129.983,101.19,101.88,0.00194006,0.366517,20.6179,72.4583,-0.0619001,0.0,0.0
100,24.75,43.4575,55.2393,129.746,101.166,101.947,0.00197979,0.351519,20.5922,71.8978,-0.0700496,0.0,0.0
120,29.75,45.1299,55.6632,131.274,101.106,101.656,0.00175696,0.322782,20.6209,71.4073,-0.0494189,0.0,0.0
140,34.75,46.1293,55.7013,130.949,100.985,101.486,0.00172773,0.29394,20.6633,70.9369,-0.0451012,0.0,0.0
160,39.75,46.4374,55.5178,131.654,100.805,101.345,0.00165121,0.268829,20.6962,70.5165,-0.0486536,0.0,0.0
180,44.75,46.6432,54.575,136.097,100.565,100.958,0.0017045,0.25016,20.7202,70.1361,-0.0356025,0.0,0.0
200,49.75,46.5458,53.8301,134.11,100.345,100.675,0.00207726,0.231988,20.7383,69.7858,-0.0299028,0.0,0.0
220,54.75,47.0167,53.2001,137.82,100.146,100.472,0.0025734,0.215424,20.7619,69.3254,-0.0296414,0.0,0.0
240,59.75,46.6263,53.3539,134.904,99.982,100.419,0.00258827,0.203478,20.7777,69.0351,-0.0397254,0.0,0.0
260,64.75,46.1996,52.9029,134.803,99.9446,100.551,0.0030642,0.195715,20.7862,68.7849,-0.0550723,0.0,0.0
280,69.75,46.9362,52.0655,133.762,100.06,100.577,0.00349311,0.189482,20.7945,68.4245,-0.0469454,0.0,0.0
300,74.75,46.4808,52.3569,135.76,100.32,100.988,0.0037946,0.184184,20.8013,68.1042,-0.0604238,0.0,0.0
320,79.75,46.5722,52.2533,138.881,100.682,101.191,0.00402241,0.182028,20.8045,67.7339,-0.0459387,0.0,0.0
340,84.75,46.2652,51.8287,137.24,101.066,101.403,0.00447857,0.17843,20.8079,67.4836,-0.0303745,0.0,0.0
360,89.75,46.4306,51.4375,138.906,101.41,101.578,0.00490088,0.172848,20.8133,67.1433,-0.0150419,0.0,0.0
380,94.75,46.1535,51.432,136.1,101.651,101.95,0.00497743,0.168774,20.8178,66.9131,-0.0267796,0.0,0.0
400,99.75,46.1379,51.522,139.636,101.77,101.917,0.00535647,0.165803,20.8212,66.6629,-0.0131889,0.0,0.0
420,104.75,45.662,50.7746,139.679,101.677,101.998,0.00582144,0.16579,20.8208,66.3726,-0.0286474,0.0,0.0
440,109.75,46.0828,50.7749,137.938,101.521,102.074,0.00577963,0.162401,20.8227,66.0923,-0.0494516,0.0,0.0
460,114.75,45.6905,50.0466,135.316,101.33,101.973,0.00617427,0.159094,20.8266,65.762,-0.0576267,0.0,0.0
480,119.75,45.6357,50.4842,136.245,101.167,101.455,0.00645342,0.15653,20.8296,65.5218,-0.0258562,0.0,0.0
500,124.75,45.8126,50.5073,132.633,101.01,101.419,0.00652788,0.153722,20.8339,65.2515,-0.036806,0.0,0.0
520,129.75,45.8656,49.9901,136.065,100.898,101.34,0.00654275,0.151922,20.8371,64.9813,-0.0397985,0.0,0.0
540,134.75,45.3755,50.1985,138.616,100.839,101.202,0.00686226,0.151636,20.837,64.721,-0.0327721,0.0,0.0
560,139.75,45.6293,49.6832,140.58,100.842,101.072,0.0067083,0.150506,20.8384,64.4708,-0.0206882,0.0,0.0
580,144.75,45.4219,49.9677,141.963,100.943,101.338,0.00698412,0.151836,20.8379,64.2206,-0.0355654,0.0,0.0
600,149.75,45.5024,50.362,135.583,101.012,101.268,0.00663399,0.151225,20.837,63.9403,-0.0230626,0.0,0.0
620,154.75,45.3223,50.245,134.599,101.067,101.279,0.00658486,0.150824,20.8363,63.7501,-0.0191664,0.0,0.0
640,159.75,45.3231,49.3941,136.844,101.061,101.373,0.00641323,0.150041,20.8384,63.4899,-0.0280456,0.0,0.0
660,164.75,45.5186,48.7313,139.459,101.069,101.27,0.00636854,0.149815,20.8385,63.2596,-0.0181023,0.0,0.0
680,169.75,45.2055,49.712,139.532,101.075,101.523,0.00658065,0.148657,20.839,63.0194,-0.0402734,0.0,0.0
700,174.75,46.0909,49.6637,138.37,101.086,101.317,0.00638143,0.148594,20.8389,62.7592,-0.0207432,0.0,0.0
720,179.75,45.0508,49.9686,137.359,101.076,101.31,0.00684957,0.147919,20.8405,62.599,-0.0209978,0.0,0.0
740,184.75,45.5208,49.8266,133.627,101.047,101.398,0.00724049,0.146322,20.8413,62.2787,-0.0316389,0.0,0.0
760,189.75,44.9051,49.7925,139.582,100.999,101.154,0.00739447,0.145643,20.8428,62.1486,-0.0139413,0.0,0.0
780,194.75,45.3987,49.8047,139.163,100.957,101.169,0.00716363,0.145532,20.8437,61.9184,-0.0190696,0.0,0.0
800,199.75,45.1792,49.7394,137.257,100.894,101.17,0.00697658,0.143548,20.8451,61.6782,-0.0249089,0.0,0.0
820,204.75,45.4024,49.4094,135.448,100.843,101.113,0.00647217,0.144437,20.8466,61.478,-0.0244114,0.0,0.0
840,209.75,45.8013,49.3242,138.828,100.865,101.035,0.00641915,0.144457,20.8448,61.2778,-0.0153519,0.0,0.0
860,214.75,45.7166,49.545,134.514,100.926,101.271,0.00674537,0.14397,20.8468,61.0776,-0.0310118,0.0,0.0
880,219.75,45.2925,49.6897,137.54,100.988,101.37,0.00671022,0.142775,20.8474,60.8674,-0.0343812,0.0,0.0
900,224.75,45.8605,49.6928,136.428,101.033,101.286,0.0065565,0.141307,20.8488,60.6572,-0.0227365,0.0,0.0
920,229.75,45.4825,49.654,135.942,101.093,101.303,0.00623462,0.140905,20.8497,60.457,-0.0188411,0.0,0.0
940,234.75,45.7529,49.8194,132.136,101.179,101.738,0.00621953,0.14122,20.8498,60.2768,-0.0501913,0.0,0.0
960,239.75,45.4516,49.7606,135.697,101.242,101.51,0.00594397,0.139258,20.8498,60.1067,-0.0240799,0.0,0.0
980,244.75,44.9176,49.4188,134.144,101.307,101.843,0.00539604,0.139363,20.8518,59.9165,-0.0479965,0.0,0.0
1000,249.75,45.749,49.5593,136.165,101.381,101.693,0.00584321,0.138296,20.8528,59.7463,-0.0280249,0.0,0.0
1020,254.75,45.3435,49.1923,138.127,101.471,101.92,0.00585824,0.138417,20.853,59.5962,-0.0401954,0.0,0.0
1040,259.75,45.6089,50.0029,138.24,101.558,101.87,0.00623409,0.138912,20.8525,59.376,-0.0280249,0.0,0.0
1060,264.75,45.2067,49.6156,139.907,101.651,101.964,0.0059835,0.137039,20.8529,59.2359,-0.0280233,0.0,0.0
1080,269.75,45.3894,50.0357,136.948,101.715,102.01,0.00561941,0.134868,20.8536,58.9956,-0.0264192,0.0,0.0
1100,274.75,45.1023,49.2183,137.144,101.771,102.273,0.00539852,0.133176,20.855,58.8155,-0.0447749,0.0,0.0
1120,279.75,45.6072,49.1868,135.501,101.764,102.25,0.0059057,0.130974,20.857,58.6953,-0.0433969,0.0,0.0
1140,284.75,45.0721,49.538,140.665,101.701,101.985,0.00624494,0.131209,20.8608,58.5552,-0.0254773,0.0,0.0
1160,289.75,45.1164,49.454,133.66,101.598,101.881,0.00614846,0.131006,20.8604,58.3851,-0.0253227,0.0,0.0
1180,294.75,45.2831,48.8052,136.243,101.479,101.751,0.00601535,0.128218,20.8608,58.2149,-0.0243281,0.0,0.0
1200,299.75,44.7669,48.9758,142.155,101.282,101.398,0.00610192,0.125254,20.8641,58.0948,-0.0104149,0.0,0.0
1220,304.75,44.7081,49.2686,139.087,101.076,101.241,0.006017,0.125507,20.8657,57.9747,-0.0148195,0.0,0.0
1240,309.75,44.9558,48.2746,139.023,100.838,101.118,0.00612003,0.125042,20.866,57.9046,-0.0252889,0.0,0.0
1260,314.75,44.8294,47.9731,136.485,100.602,101.024,0.00629115,0.124079,20.8665,57.6143,-0.0380789,0.0,0.0
1280,319.75,45,48.6388,139.459,100.388,100.773,0.00640702,0.122423,20.8696,57.6243,-0.0349038,0.0,0.0
1300,324.75,44.6807,48.2653,135.544,100.206,100.574,0.00664986,0.120754,20.8721,57.5242,-0.0334439,0.0,0.0
1320,329.75,44.833,48.3263,135.458,100.063,100.375,0.006708,0.121567,20.872,57.4141,-0.0283838,0.0,0.0
1340,334.75,44.3373,48.1676,136.466,100.004,100.307,0.00653144,0.123872,20.8688,57.304,-0.0275686,0.0,0.0
1360,339.75,43.9913,48.0001,139.648,100.04,100.195,0.0068622,0.1213,20.8672,57.2039,-0.0141208,0.0,0.0
1380,344.75,44.1307,47.899,138.78,100.17,100.361,0.00689792,0.119206,20.8707,57.0938,-0.0173386,0.0,0.0
1400,349.75,44.2192,47.8976,137.541,100.373,100.53,0.00706814,0.116508,20.8719,57.1038,-0.0142524,0.0,0.0
1420,354.75,42.8311,45.7746,139.911,100.588,100.816,0.007615,0.113641,20.8768,56.9037,-0.0205919,0.0,0.0
1440,359.75,42.6941,45.6687,140.588,100.81,100.92,0.00797633,0.108571,20.8811,56.8436,-0.00996539,0.0,0.0
1460,364.75,42.1977,45.3557,142.852,100.963,101.257,0.00841352,0.105084,20.884,56.7735,-0.0264262,0.0,0.0
1480,369.75,41.9979,44.9444,136.355,101.083,101.571,0.00861932,0.102681,20.8858,56.7335,-0.0438349,0.0,0.0
1500,374.75,41.9895,45.2883,139.248,101.157,101.4,0.00871318,0.102711,20.8866,56.6134,-0.0218582,0.0,0.0
1520,379.75,41.8404,45.4663,140.534,101.183,101.446,0.00908349,0.10212,20.8849,56.6134,-0.0236537,0.0,0.0
1540,384.75,42.0694,45.1933,138.305,101.206,101.45,0.00975764,0.101152,20.885,56.6134,-0.0219197,0.0,0.0
1560,389.75,41.6311,44.9114,135.069,101.213,101.533,0.00941478,0.0981977,20.8887,56.5934,-0.028759,0.0,0.0
1580,394.75,41.5855,44.5107,138.42,101.205,101.534,0.00877906,0.0968588,20.8914,56.4532,-0.0296109,0.0,0.0
1600,399.75,40.6735,44.4943,140.556,101.193,101.418,0.00858294,0.0970405,20.893,56.4933,-0.0202333,0.0,0.0
1620,404.75,40.8072,43.7326,142.02,101.185,101.374,0.00876953,0.0975094,20.8934,56.3832,-0.0169628,0.0,0.0
1640,409.75,41.4105,43.7609,136.513,101.14,101.31,0.00883165,0.0962094,20.8949,56.3832,-0.0152589,0.0,0.0
1660,414.75,41.3027,44.6105,136.129,101.117,101.401,0.00902955,0.0964606,20.8951,56.3131,-0.025578,0.0,0.0
1680,419.75,41.4412,44.0334,142.384,101.104,101.379,0.00890893,0.0970376,20.8952,56.213,-0.0248017,0.0,0.0
1700,424.75,40.36,44.0065,141.34,101.064,101.222,0.00889709,0.0965959,20.8925,56.183,-0.0142632,0.0,0.0
1720,429.75,40.9642,43.8175,138.508,100.963,101.55,0.00888074,0.0948577,20.8939,56.1229,-0.0528016,0.0,0.0
1740,434.75,41.1018,43.8756,136.822,100.896,101.162,0.00880988,0.0960115,20.8962,56.163,-0.0239661,0.0,0.0
1760,439.75,40.3987,44.4586,136.709,100.807,101.079,0.00917893,0.0971125,20.8935,56.0529,-0.024579,0.0,0.0
1780,444.75,41.1354,43.9525,138.209,100.723,100.803,0.00899829,0.0971324,20.8928,55.9928,-0.00727443,0.0,0.0
1800,449.75,40.578,44.1552,139.618,100.619,100.871,0.00861858,0.0972306,20.8915,55.9828,-0.0228481,0.0,0.0
1820,454.75,39.355,43.8476,136.94,100.508,100.693,0.00816261,0.0946402,20.8944,55.8927,-0.0167082,0.0,0.0
1840,459.75,40.7464,43.6495,133.408,100.383,100.518,0.00868483,0.094865,20.8964,55.8727,-0.0121967,0.0,0.0
1860,464.75,40.7726,43.5548,136.23,100.301,100.654,0.00857314,0.0949389,20.8963,55.8427,-0.0319859,0.0,0.0
1880,469.75,40.9715,43.8501,136.974,100.186,100.412,0.00833598,0.0948453,20.8971,55.7826,-0.0205854,0.0,0.0
1895,473.5,40.5156,43.9258,139.414,100.115,100.284,0.00828421,0.0947176,20.8961,55.7426,-0.0153339,0.0,0.0