File: 01_Data/Cellulose_Insulation/Cone/Cellulose_Insulation_Cone_HF50Scan_230615_R2.csv
Names,Time,Stack TC,Smoke TC,Exh Press,Smoke Comp,Smoke Meas,CO Meter,CO2 Meter,O2 Meter,Sample Mass,Ext Coeff,Start Test,Flame Verif
Chan Gain,,500,500,1,1,1,1,1,1,1,1,1.0,1.0
Offset,,0,0,0.245636,0,0,0,0,0,0,0,0.0,0.0
Gain,,1,1,25.011,13.6893,14.9403,1,1,1,1.00094,1.03834,1.0,1.0
Units,sec,C,C,Pa,%,%,%,%,%,g,/m,,
Baseline,,37.8571,40.2977,141.992,99.7199,99.6798,-2.17435e-06,0.0481121,20.9583,-445.529,0.00366935,,
22,5.25,37.3857,43.4927,124.011,98.3241,98.8391,-4.80239e-05,0.0500571,20.9564,77.9335,-0.0475856,0.0,1.0
44,10.75,41.2213,50.5072,131.36,98.3341,98.2323,0.000423376,0.101116,20.9548,77.0927,0.0094393,0.0,0.0
66,16.25,44.0602,54.6555,131.565,98.3383,99.0101,0.00140206,0.373792,20.7092,76.3019,-0.0620121,0.0,0.0
88,21.75,46.3068,56.7109,129.2,98.3312,98.8879,0.00227803,0.385751,20.55,75.6413,-0.0514224,0.0,0.0
110,27.25,47.3197,56.9505,133.338,98.3391,98.727,0.00236713,0.341963,20.59,75.0908,-0.035851,0.0,0.0
132,32.75,47.6479,56.0797,134.996,98.3233,98.8369,0.00207163,0.294289,20.6495,74.6404,-0.0474529,0.0,0.0
154,38.25,47.5527,56.186,133.824,98.3341,98.8122,0.00201576,0.259197,20.6986,74.1599,-0.0441775,0.0,0.0
176,43.75,47.3731,55.1395,136.739,98.3513,98.9476,0.00201968,0.238006,20.7289,73.7295,-0.0550647,0.0,0.0
198,49.25,48.5385,54.8619,131.872,98.4139,98.7165,0.00187175,0.221112,20.7508,73.4392,-0.0279596,0.0,0.0
220,54.75,47.8311,54.2072,139.521,98.4966,98.9021,0.00232105,0.206507,20.7693,73.0188,-0.0374132,0.0,0.0
242,60.25,47.5052,53.0081,137.518,98.6838,99.0124,0.00269428,0.19824,20.7803,72.6485,-0.0302776,0.0,0.0
264,65.75,47.6954,53.1548,134.792,98.9249,99.2445,0.00304739,0.194103,20.7907,72.2882,-0.0293805,0.0,0.0
286,71.25,47.8891,53.2952,137.186,99.2194,99.4875,0.00346389,0.189241,20.7936,71.9478,-0.0245785,0.0,0.0
308,76.75,47.7682,52.5972,133.882,99.5807,100.122,0.00404107,0.184174,20.7998,71.5875,-0.0493452,0.0,0.0
330,82.25,47.4763,53.0085,135.058,99.8076,100.079,0.00466733,0.177421,20.808,71.2872,-0.0247206,0.0,0.0
352,87.75,46.751,51.74,134.337,99.9839,100.528,0.00502512,0.176056,20.8114,70.9869,-0.0494282,0.0,0.0
374,93.25,47.4419,52.3747,134.657,100.079,100.399,0.00539399,0.1727,20.8136,70.6566,-0.029057,0.0,0.0
396,98.75,47.1735,52.7994,139.074,100.05,100.219,0.0054637,0.169468,20.816,70.3463,-0.0153655,0.0,0.0
418,104.25,46.9809,51.2216,137.525,99.991,100.191,0.00569041,0.166445,20.8196,70.0761,-0.0182013,0.0,0.0
440,109.75,47.641,51.7725,138.679,99.8034,100.107,0.00580303,0.164135,20.8237,69.7458,-0.0276323,0.0,0.0
462,115.25,46.8233,52.0198,130.851,99.6296,99.927,0.00628192,0.162806,20.8253,69.4755,-0.0271477,0.0,0.0
484,120.75,47.015,51.8529,136.948,99.4186,100.11,0.00612044,0.162559,20.8252,69.1952,-0.0631048,0.0,0.0
506,126.25,46.4168,51.7474,133.448,99.2787,99.7041,0.0063677,0.161738,20.8268,68.915,-0.0389413,0.0,0.0
528,131.75,47.334,51.4205,136.907,99.1951,99.6202,0.00657099,0.159186,20.8274,68.5446,-0.0389424,0.0,0.0
550,137.25,46.6607,51.6564,137.282,99.4395,99.5344,0.00658683,0.157683,20.8289,68.3444,-0.00868937,0.0,0.0
572,142.75,47.1299,50.9854,134.652,99.5828,100.082,0.00673439,0.155819,20.8305,68.0341,-0.0455033,0.0,0.0
594,148.25,46.4968,51.4469,135.62,99.5728,99.8477,0.00699103,0.154491,20.8316,67.844,-0.0251093,0.0,0.0
616,153.75,45.8994,51.041,135.169,99.4391,99.793,0.00700757,0.152169,20.8333,67.5337,-0.0323531,0.0,0.0
638,159.25,46.7113,51.2298,137.206,99.1488,99.3885,0.00677668,0.148546,20.8386,67.2834,-0.0219997,0.0,0.0
660,164.75,46.1702,51.427,132.808,98.8948,99.2253,0.00732997,0.150206,20.8398,66.9832,-0.030393,0.0,0.0
682,170.25,46.7721,50.5846,134.5,98.8843,99.0922,0.00743746,0.149003,20.8402,66.773,-0.0191256,0.0,0.0
704,175.75,46.4436,50.6094,139.282,99.0807,99.3872,0.00777414,0.147976,20.8425,66.5327,-0.0281328,0.0,0.0
726,181.25,45.8397,50.5743,134.652,99.2645,100.02,0.00744047,0.146137,20.8436,66.3225,-0.0691043,0.0,0.0
748,186.75,46.4809,51.0137,139.775,99.4095,99.5878,0.00698993,0.146293,20.8463,66.0222,-0.0163253,0.0,0.0
770,192.25,45.9666,51.2985,135.344,99.5239,99.8427,0.00741982,0.148159,20.8418,65.742,-0.0291234,0.0,0.0
792,197.75,46.8334,50.3481,134.103,99.5064,100.039,0.00705097,0.146434,20.8434,65.6019,-0.0485974,0.0,0.0
814,203.25,46.2864,50.8882,132.945,99.4182,99.6781,0.00711897,0.14471,20.8456,65.3316,-0.0237745,0.0,0.0
836,208.75,46.1914,50.8369,136.145,99.2277,99.7022,0.00724572,0.144641,20.8449,65.1114,-0.0434514,0.0,0.0
858,214.25,46.744,50.8566,136.377,98.9804,99.3762,0.00716601,0.145562,20.8436,64.8211,-0.0363519,0.0,0.0
880,219.75,46.2331,50.8593,133.603,98.7694,99.0954,0.007503,0.146961,20.8435,64.6309,-0.0300074,0.0,0.0
902,225.25,46.5655,50.6463,139.064,98.5246,99.0685,0.0073431,0.145318,20.8428,64.3707,-0.0501383,0.0,0.0
924,230.75,46.1496,50.8592,138.64,98.3646,98.4425,0.00673747,0.1418,20.8468,64.1605,-0.00720489,0.0,0.0
946,236.25,46.3391,50.7311,135.975,98.2861,98.6267,0.00671162,0.140161,20.8505,63.9803,-0.031507,0.0,0.0
968,241.75,46.1558,50.7208,135.969,98.4398,98.7096,0.00687103,0.138807,20.8515,63.8002,-0.0249323,0.0,0.0
990,247.25,46.1477,50.3011,136.296,98.703,98.9486,0.00674025,0.139965,20.8511,63.5499,-0.0226304,0.0,0.0
1012,252.75,46.0326,50.5493,138.985,99.0285,99.4866,0.00639084,0.138381,20.8511,63.3798,-0.0420387,0.0,0.0
1034,258.25,46.1905,50.1878,138.035,99.3702,99.6963,0.00615682,0.137181,20.8532,63.1796,-0.0298429,0.0,0.0
1056,263.75,46.2236,49.8325,134.858,99.6802,100.24,0.00705452,0.136471,20.8535,63.0194,-0.0509916,0.0,0.0
1078,269.25,46.233,50.5201,135.965,99.9396,100.256,0.00732062,0.134733,20.8555,62.8292,-0.0288092,0.0,0.0
1100,274.75,45.9877,50.0037,136.526,100.034,100.394,0.00703703,0.133979,20.8559,62.589,-0.0327497,0.0,0.0
1122,280.25,46.107,49.7162,133.936,100.092,100.288,0.00711282,0.130764,20.859,62.4088,-0.0178592,0.0,0.0
1144,285.75,45.0565,49.4669,137.642,100.118,100.647,0.00656989,0.125762,20.8629,62.2987,-0.0480746,0.0,0.0
1166,291.25,45.3589,49.67,137.226,100.098,100.391,0.00668688,0.127489,20.8649,62.1686,-0.0266048,0.0,0.0
1188,296.75,45.5728,49.5767,133.865,100.1,100.437,0.00737254,0.127977,20.863,61.9484,-0.030667,0.0,0.0
1210,302.25,45.641,48.5326,136.006,100.089,100.294,0.00749922,0.128126,20.8616,61.7883,-0.0185838,0.0,0.0
1232,307.75,45.5004,49.0239,140.411,100.1,100.259,0.00752543,0.12414,20.863,61.6982,-0.0145275,0.0,0.0
1254,313.25,45.5363,48.3565,136.58,100.108,100.173,0.00779636,0.124029,20.8653,61.548,-0.00593523,0.0,0.0
1276,318.75,45.2447,48.7299,134.142,100.118,100.365,0.00790671,0.122292,20.8665,61.4079,-0.0224182,0.0,0.0
1298,324.25,44.7505,48.6245,137.503,100.125,100.193,0.0083173,0.121815,20.8672,61.2778,-0.00619762,0.0,0.0
1320,329.75,44.8287,48.3539,134.808,100.117,100.29,0.00830952,0.118025,20.8708,61.1376,-0.015744,0.0,0.0
1342,335.25,45.0432,48.3982,137.198,100.091,100.383,0.00878343,0.117814,20.8708,61.0676,-0.0265063,0.0,0.0
1364,340.75,44.5897,47.945,133.821,100.007,100.399,0.00842285,0.114973,20.8743,60.9375,-0.0356782,0.0,0.0
1386,346.25,44.5612,47.4601,137.949,99.9016,100.113,0.00766089,0.112332,20.8781,60.8173,-0.0192997,0.0,0.0
1408,351.75,44.4046,47.7036,140.198,99.757,99.9908,0.00754343,0.110052,20.8791,60.6872,-0.0213227,0.0,0.0
1430,357.25,44.8094,48.1221,140.301,99.567,99.6357,0.00789005,0.109262,20.8815,60.5771,-0.00628346,0.0,0.0
1452,362.75,44.2405,48.0586,136.562,99.3409,99.6147,0.00764927,0.107111,20.8823,60.467,-0.0250646,0.0,0.0
1474,368.25,44.6064,47.7511,137.398,99.107,99.1879,0.0074545,0.107828,20.8861,60.3469,-0.00743472,0.0,0.0
1496,373.75,44.7825,47.7642,136.673,98.9127,99.2937,0.00759331,0.109076,20.8824,60.2668,-0.0350139,0.0,0.0
1518,379.25,44.4601,47.936,138.769,98.7105,98.8405,0.00827006,0.109284,20.8813,60.1968,-0.0119847,0.0,0.0
1540,384.75,44.0465,46.8292,141.943,98.5668,98.7375,0.00849936,0.107955,20.8812,60.0666,-0.0157538,0.0,0.0
1562,390.25,42.1166,46.1002,140.499,98.4561,98.4721,0.00853113,0.109158,20.882,59.9665,-0.00147842,0.0,0.0
1584,395.75,41.8384,46.0736,138.424,98.3897,98.4885,0.00841194,0.107412,20.8799,59.8965,-0.00914313,0.0,0.0
1606,401.25,42.7598,45.6921,140.744,98.3517,98.5802,0.00852269,0.105474,20.8845,59.7664,-0.0211344,0.0,0.0
1628,406.75,41.7607,45.8967,136.942,98.3295,98.4388,0.00855236,0.104457,20.8856,59.6863,-0.010117,0.0,0.0
1650,412.25,42.9795,45.8623,140.066,98.3788,98.5683,0.0086785,0.102542,20.8863,59.6062,-0.0175257,0.0,0.0
1672,417.75,42.0261,45.4821,143.993,98.4741,98.5241,0.00866851,0.0997148,20.8909,59.5762,-0.00462283,0.0,0.0
1694,423.25,41.7967,44.7746,138.375,98.6266,98.7096,0.00868057,0.0978353,20.8926,59.5562,-0.00766944,0.0,0.0
1716,428.75,41.7117,45.2612,140.028,98.7389,98.7315,0.00830349,0.0960181,20.894,59.4761,0.000684021,0.0,0.0
1738,434.25,42.0687,44.9595,138.271,98.8847,99.0101,0.00860104,0.0944481,20.895,59.416,-0.01154,0.0,0.0
1760,439.75,41.7817,45.2595,137.135,99.0464,99.1884,0.00971931,0.0934412,20.8951,59.376,-0.0130459,0.0,0.0
1782,445.25,41.5405,45.1008,129.618,99.1722,99.4186,0.00886459,0.0926789,20.8962,59.3259,-0.0226081,0.0,0.0
1804,450.75,41.1903,44.2981,135.659,99.3159,99.3735,0.00872314,0.0931972,20.8968,59.2759,-0.00528281,0.0,0.0
1826,456.25,41.8706,44.6257,137.032,99.4124,99.5404,0.00894452,0.0916055,20.8977,59.2559,-0.0117189,0.0,0.0
1848,461.75,41.0805,44.5051,138.378,99.4934,99.673,0.00910724,0.0934135,20.899,59.1257,-0.0164287,0.0,0.0
1870,467.25,41.5248,44.9015,137.169,99.5427,99.6617,0.00893372,0.0937906,20.8954,59.0957,-0.0108752,0.0,0.0
1892,472.75,41.5721,44.4461,143.088,99.5682,99.6065,0.00836431,0.0944232,20.8969,59.0957,-0.00350071,0.0,0.0
1914,478.25,41.5299,44.904,138.052,99.5569,99.7018,0.00823585,0.0937732,20.8951,59.0457,-0.0132416,0.0,0.0
1936,483.75,42.0387,44.9758,140.123,99.4776,99.5591,0.00848946,0.0927825,20.8942,59.0056,-0.00746025,0.0,0.0
1958,489.25,41.2715,44.0238,134.311,99.371,99.7,0.00844081,0.0928473,20.8962,58.8855,-0.0300994,0.0,0.0
1980,494.75,40.8935,44.4799,142.868,99.1989,99.2841,0.00831678,0.0951104,20.8936,58.8955,-0.00782213,0.0,0.0
2002,500.25,41.4071,45.0276,138.854,99.0234,99.2896,0.0084033,0.0959025,20.8923,58.8054,-0.0244495,0.0,0.0
2017,504,41.311,44.3931,140.525,98.9608,99.1551,0.00908095,0.0949875,20.8919,58.7854,-0.0178673,0.0,0.0