File: 01_Data/Cellulose_Insulation/Cone/Cellulose_Insulation_Cone_HF25Scan_230613_R2.csv
Names,Time,Stack TC,Smoke TC,Exh Press,Smoke Comp,Smoke Meas,CO Meter,CO2 Meter,O2 Meter,Sample Mass,Ext Coeff,Start Test,Flame Verif
Chan Gain,,500,500,1,1,1,1,1,1,1,1,1.0,1.0
Offset,,0,0,0.142142,0,0,0,0,0,0,0,0.0,0.0
Gain,,1,1,25.011,13.4675,16.3006,1,1,1,1.00097,1.04429,1.0,1.0
Units,sec,C,C,Pa,%,%,%,%,%,g,/m,,
Baseline,,25.7491,26.8852,158.058,100.922,100.942,0.000154876,0.0455816,20.9629,-444.992,-0.00185063,,
12,2.75,23.5856,24.2173,156.877,100.628,100.065,-0.000100277,0.0525939,20.9614,57.6055,0.0514199,0.0,0.0
24,5.75,23.6066,24.4482,157.875,100.544,98.8306,-2.18164e-05,0.0584121,20.9575,57.5355,0.157432,0.0,0.0
36,8.75,23.6725,24.4075,157.3,100.466,96.2523,9.60794e-05,0.0596371,20.9488,57.3953,0.392503,0.0,0.0
48,11.75,23.7692,24.9848,155.74,100.391,94.0371,7.02979e-06,0.0583007,20.946,57.1451,0.598965,0.0,1.0
60,14.75,26.0452,27.7381,140.85,100.353,101.101,1.14216e-05,0.0559497,20.9476,56.7047,-0.0680526,0.0,1.0
72,17.75,26.3279,29.2566,147.153,100.338,100.667,5.22804e-05,0.0533111,20.9507,56.4244,-0.0299781,0.0,0.0
84,20.75,28.0088,31.3863,149.606,100.34,100.756,0.000155088,0.0845336,20.9531,56.1141,-0.0379273,0.0,0.0
96,23.75,29.2552,32.2547,149.696,100.333,100.726,0.000677413,0.207062,20.9291,55.7638,-0.0358058,0.0,0.0
108,26.75,29.8865,33.4359,146.581,100.345,100.586,0.00118257,0.269072,20.7913,55.5636,-0.0219138,0.0,0.0
120,29.75,30.3406,33.7648,146.353,100.377,100.672,0.00150259,0.269098,20.7096,55.3233,-0.026859,0.0,0.0
132,32.75,30.9059,34.4052,147.434,100.407,100.5,0.00189229,0.252482,20.7017,55.0331,-0.0084839,0.0,0.0
144,35.75,31.0924,35.0139,151.984,100.434,100.681,0.00202822,0.236366,20.7193,54.7428,-0.0224622,0.0,0.0
156,38.75,31.1746,34.4997,148.273,100.486,100.683,0.00211417,0.224359,20.7389,54.6427,-0.0179286,0.0,0.0
168,41.75,31.464,34.7975,152.855,100.517,101.017,0.00229113,0.212534,20.7511,54.4525,-0.0454384,0.0,0.0
180,44.75,31.8374,34.393,155.487,100.545,100.942,0.00242241,0.200952,20.7653,54.3024,-0.0361604,0.0,0.0
192,47.75,32.0553,35.1418,150.066,100.581,101.003,0.00277307,0.192504,20.7768,54.1122,-0.0383259,0.0,0.0
204,50.75,31.9336,35.0351,149.855,100.631,101.041,0.00301083,0.183786,20.7862,53.952,-0.0372716,0.0,0.0
216,53.75,31.639,35.4911,152.763,100.698,100.97,0.0032037,0.176139,20.7985,53.7819,-0.0246864,0.0,0.0
228,56.75,31.9937,35.115,150.35,100.764,101.153,0.00365609,0.169933,20.8076,53.5917,-0.035307,0.0,0.0
240,59.75,31.8521,35.66,152.493,100.837,101.299,0.00425288,0.164075,20.8146,53.3815,-0.0418488,0.0,0.0
252,62.75,32.0909,34.7918,150.748,100.909,101.507,0.00472759,0.158896,20.8215,53.2013,-0.0541842,0.0,0.0
264,65.75,32.4615,34.7522,152.085,101.005,101.141,0.00508847,0.154976,20.8272,53.0712,-0.0123573,0.0,0.0
276,68.75,32.1293,35.071,151.355,101.12,101.322,0.00542638,0.153004,20.8319,52.9611,-0.0182744,0.0,0.0
288,71.75,32.2622,34.8168,149.1,101.195,101.449,0.00577978,0.150973,20.8334,52.8209,-0.0229165,0.0,0.0
300,74.75,31.9583,34.926,152.497,101.293,101.686,0.00641527,0.14842,20.8362,52.6408,-0.0355043,0.0,0.0
312,77.75,31.7741,35.2632,153.374,101.377,101.645,0.0069668,0.145735,20.8392,52.5507,-0.0242133,0.0,0.0
324,80.75,32.3839,34.2623,151.664,101.439,101.958,0.00745736,0.143254,20.8418,52.3605,-0.0467549,0.0,0.0
336,83.75,31.644,34.542,154.807,101.514,101.721,0.0078008,0.141484,20.8452,52.2304,-0.0186738,0.0,0.0
348,86.75,31.6242,34.4681,150.604,101.587,102.172,0.00802634,0.139614,20.8471,52.0902,-0.0526014,0.0,0.0
360,89.75,31.824,34.8614,154.838,101.637,101.958,0.00810406,0.137761,20.8503,51.9801,-0.0288087,0.0,0.0
372,92.75,32.1912,34.3546,153.306,101.684,101.889,0.00820535,0.135996,20.8515,51.81,-0.0184916,0.0,0.0
384,95.75,31.4706,34.6146,152.864,101.718,101.979,0.00860127,0.13369,20.8531,51.6098,-0.0234366,0.0,0.0
396,98.75,31.7078,33.6506,152.253,101.717,101.814,0.00923611,0.131769,20.856,51.4997,-0.00874513,0.0,0.0
408,101.75,31.6055,33.5861,152.946,101.734,101.9,0.00964354,0.128845,20.8574,51.2794,-0.01493,0.0,0.0
420,104.75,31.0816,33.7839,152.881,101.722,102.01,0.010197,0.12432,20.8607,51.2394,-0.0258728,0.0,0.0
432,107.75,31.2612,33.6571,159.28,101.693,101.757,0.0110222,0.119462,20.8656,51.1393,-0.00581732,0.0,0.0
444,110.75,30.7179,33.1722,155.316,101.661,101.782,0.0117883,0.114025,20.8715,51.0492,-0.0108708,0.0,0.0
456,113.75,30.9206,33.3475,153.544,101.6,101.168,0.0125713,0.111371,20.8763,50.9391,0.0390617,0.0,0.0
468,116.75,30.1802,33.1156,155.682,101.549,101.362,0.0129735,0.110223,20.8784,50.779,0.0168418,0.0,0.0
480,119.75,30.8993,32.7366,154.633,101.491,101.345,0.0132403,0.106712,20.8798,50.7089,0.0131416,0.0,0.0
492,122.75,30.4976,32.8715,154.92,101.427,100.977,0.0139173,0.101596,20.884,50.5588,0.0407241,0.0,0.0
504,125.75,30.3525,32.5561,156.94,101.344,101.358,0.0147187,0.0987267,20.8883,50.4787,-0.00127227,0.0,0.0
516,128.75,30.6231,32.028,155.364,101.276,101.172,0.0156073,0.0977147,20.8902,50.3586,0.0094628,0.0,0.0
528,131.75,30.5919,31.9078,154.996,101.222,101.79,0.0160726,0.0971638,20.8921,50.1984,-0.0512989,0.0,0.0
540,134.75,29.902,32.3829,154.999,101.148,101.374,0.0165397,0.0963676,20.8926,50.1183,-0.0204187,0.0,0.0
552,137.75,30.387,32.1682,155.503,101.099,100.703,0.0168806,0.0943227,20.8925,49.9882,0.0359546,0.0,0.0
564,140.75,30.2722,31.9765,155.819,101.031,100.858,0.0170141,0.0947158,20.894,49.9081,0.0156634,0.0,0.0
576,143.75,29.7884,31.6807,153.423,100.993,100.752,0.0168443,0.0932964,20.8957,49.828,0.0219078,0.0,0.0
588,146.75,29.6684,31.2694,154.755,100.934,100.343,0.0171045,0.0893332,20.8982,49.7179,0.0538292,0.0,0.0
600,149.75,29.8442,31.3755,153.254,100.896,100.686,0.0177899,0.0860275,20.9015,49.6178,0.0191229,0.0,0.0
612,152.75,27.3307,29.1763,159.003,100.862,100.104,0.0183304,0.0836696,20.9039,49.5278,0.0690866,0.0,0.0
624,155.75,27.8146,29.7678,152.647,100.845,100.03,0.018802,0.0806738,20.9059,49.3476,0.0742582,0.0,0.0
636,158.75,27.052,29.185,154.205,100.83,100.098,0.0188612,0.0781182,20.91,49.3075,0.0667583,0.0,0.0
648,161.75,27.0161,28.6503,159.636,100.82,100.559,0.0189055,0.0753021,20.9131,49.2175,0.0236823,0.0,0.0
660,164.75,26.7288,28.3995,154.623,100.82,100.448,0.019725,0.0739706,20.9157,49.1274,0.0337941,0.0,0.0
672,167.75,26.4928,28.2073,153.08,100.803,100.229,0.0205381,0.0750591,20.9163,49.0173,0.0523288,0.0,0.0
684,170.75,25.9364,28.4687,155.803,100.818,100.37,0.0209277,0.0781339,20.9157,48.9272,0.0408535,0.0,0.0
696,173.75,26.3954,28.0832,150.367,100.816,100.606,0.0208849,0.0800986,20.9102,48.8371,0.0191708,0.0,0.0
708,176.75,26.4987,28.9625,157.288,100.837,100.348,0.0209263,0.0787375,20.908,48.737,0.044523,0.0,0.0
720,179.75,26.5519,28.1657,153.37,100.843,100.158,0.0210057,0.0764197,20.9095,48.6369,0.0624091,0.0,0.0
732,182.75,26.2958,28.2291,158.296,100.841,100.439,0.020934,0.0743404,20.9127,48.5168,0.0365974,0.0,0.0
744,185.75,26.6993,28.3205,154.087,100.856,100.387,0.0206224,0.0719597,20.9162,48.4367,0.0426613,0.0,0.0
756,188.75,26.7901,27.8953,155.798,100.861,100.713,0.0202887,0.0708405,20.9181,48.3466,0.0134622,0.0,0.0
768,191.75,26.4127,27.5198,155.389,100.868,100.516,0.0203013,0.0698018,20.9187,48.2465,0.0319944,0.0,0.0
780,194.75,26.54,27.9284,153.277,100.884,100.511,0.0203635,0.06911,20.92,48.1664,0.0339029,0.0,0.0
792,197.75,26.2378,27.6478,155.502,100.894,100.559,0.0202138,0.0685638,20.9209,48.0764,0.030448,0.0,0.0
804,200.75,26.4249,27.5546,153.699,100.904,100.618,0.019976,0.0684134,20.9216,47.9763,0.02599,0.0,0.0
816,203.75,26.0199,28.2018,150.617,100.933,100.475,0.0199519,0.0683014,20.923,47.8962,0.0416536,0.0,0.0
828,206.75,26.2718,27.329,157.101,100.91,100.417,0.019869,0.0681906,20.9235,47.7961,0.0449479,0.0,0.0
840,209.75,25.9701,27.6559,155.137,100.919,100.721,0.019756,0.0681965,20.9236,47.706,0.0180004,0.0,0.0
852,212.75,26.2513,27.4902,154.423,100.919,100.618,0.019963,0.0686453,20.9236,47.6059,0.0273695,0.0,0.0
864,215.75,25.6294,27.611,155.979,100.948,100.684,0.01995,0.0686412,20.9245,47.5258,0.023997,0.0,0.0
876,218.75,26.3171,27.7693,152.379,100.956,100.713,0.0199891,0.068759,20.9248,47.4257,0.022081,0.0,0.0
888,221.75,25.7428,27.4454,154.724,100.975,100.734,0.0202021,0.0686873,20.9244,47.3256,0.0218882,0.0,0.0
900,224.75,26.1118,27.3341,156.07,101.013,100.677,0.0200097,0.0684497,20.9242,47.2355,0.0304839,0.0,0.0
912,227.75,25.922,27.3004,157.232,101.03,100.811,0.0198283,0.0682331,20.9241,47.1555,0.0199271,0.0,0.0
924,230.75,26.1302,27.4902,152.4,101.053,100.799,0.0198972,0.0680871,20.9246,47.0854,0.0230908,0.0,0.0
936,233.75,25.8698,26.9424,154.821,101.079,100.919,0.0201405,0.068369,20.9248,46.9853,0.0145035,0.0,0.0
948,236.75,25.9993,27.5667,154.837,101.104,100.919,0.0202225,0.0683834,20.9249,46.8752,0.01682,0.0,0.0
960,239.75,26.18,27.4037,155.39,101.136,100.874,0.0202336,0.0683702,20.925,46.7951,0.0237149,0.0,0.0
972,242.75,26.1133,27.6927,153.711,101.184,101.057,0.0201135,0.0682281,20.925,46.705,0.0114982,0.0,0.0
984,245.75,25.7605,27.1315,159.956,101.23,101.19,0.0200353,0.0680988,20.9243,46.6049,0.00367823,0.0,0.0
996,248.75,25.9549,26.9321,151.528,101.303,100.991,0.0201576,0.0681478,20.9235,46.5249,0.0282437,0.0,0.0
1008,251.75,25.3137,27.2502,155.551,101.358,101.1,0.0202706,0.068042,20.9246,46.4548,0.0233457,0.0,0.0
1020,254.75,26.2606,27.6416,154.831,101.423,101.347,0.01998,0.0679028,20.9248,46.3547,0.00684759,0.0,0.0
1032,257.75,25.7867,27.427,154.163,101.48,101.305,0.0198506,0.0675509,20.9249,46.2846,0.0157387,0.0,0.0
1044,260.75,25.8364,27.1271,158.244,101.527,101.462,0.0198699,0.067545,20.9248,46.1845,0.00584582,0.0,0.0
1056,263.75,26.1781,27.264,154.989,101.566,101.507,0.0198438,0.067773,20.9239,46.1145,0.00531762,0.0,0.0
1068,266.75,26.0792,27.5225,157.914,101.613,101.495,0.0198347,0.0676929,20.9236,46.0444,0.0106649,0.0,0.0
1080,269.75,25.4802,27.4828,152.354,101.633,101.549,0.0198141,0.06746,20.9235,45.9643,0.00755793,0.0,0.0
1089,272,25.4602,27.1648,152.404,101.659,101.761,0.0197671,0.0675357,20.9234,45.8943,-0.00912989,0.0,0.0