File: 01_Data/Cellulose_Insulation/Cone/Cellulose_Insulation_HRRPUA_50.csv
Time after Ignition,Cellulose_Insulation_R1,Cellulose_Insulation_R2,Cellulose_Insulation_R3,Mean,Std. Dev.
0.0,1.0,0.0,1.8,0.9,0.9
1.25,1.0,0.1,1.7,0.9,0.8
2.5,0.7,0.4,2.0,1.0,0.8
3.75,0.2,0.8,2.3,1.1,1.1
5.0,-0.0,1.0,2.7,1.3,1.4
6.25,0.2,1.2,2.7,1.4,1.3
7.5,0.3,1.3,2.4,1.4,1.0
8.75,0.8,1.3,2.1,1.4,0.7
10.0,3.0,1.9,2.0,2.3,0.6
11.25,17.5,5.0,5.6,9.4,7.0
12.5,44.9,26.3,22.7,31.3,11.9
13.75,86.6,64.6,67.7,73.0,11.9
15.0,123.5,118.6,112.1,118.1,5.7
16.25,144.7,154.5,136.1,145.1,9.2
17.5,159.9,172.1,161.7,164.6,6.6
18.75,168.5,183.2,176.3,176.0,7.3
20.0,176.8,190.5,179.4,182.2,7.3
21.25,177.3,190.9,182.6,183.6,6.9
22.5,171.6,191.3,179.3,180.8,9.9
23.75,170.4,184.8,176.7,177.3,7.2
25.0,167.6,178.3,171.8,172.6,5.4
26.25,164.0,172.0,165.1,167.0,4.3
27.5,158.7,166.9,159.5,161.7,4.6
28.75,156.7,161.4,152.9,157.0,4.3
30.0,148.4,155.0,149.2,150.9,3.6
31.25,143.9,146.6,141.5,144.0,2.6
32.5,138.3,142.6,141.4,140.8,2.2
33.75,136.9,137.2,135.6,136.6,0.9
35.0,132.6,135.6,129.5,132.6,3.1
36.25,127.7,127.2,126.8,127.2,0.5
37.5,123.1,122.0,123.3,122.8,0.7
38.75,122.6,118.9,120.2,120.6,1.9
40.0,118.7,115.5,117.6,117.3,1.6
41.25,116.4,112.9,114.4,114.6,1.7
42.5,113.6,110.8,112.9,112.4,1.4
43.75,111.7,107.3,111.1,110.1,2.4
45.0,108.1,106.4,109.4,108.0,1.5
46.25,107.1,102.1,106.1,105.1,2.7
47.5,104.1,99.9,104.3,102.8,2.5
48.75,101.2,97.9,101.2,100.1,1.9
50.0,99.7,97.0,98.4,98.4,1.4
51.25,96.5,93.2,97.0,95.6,2.1
52.5,94.0,93.5,96.5,94.7,1.6
53.75,91.3,90.4,95.0,92.2,2.4
55.0,89.8,89.7,93.2,90.9,2.0
56.25,88.4,87.5,89.9,88.6,1.2
57.5,85.5,87.1,89.1,87.3,1.8
58.75,84.4,85.7,87.8,86.0,1.7
60.0,83.1,84.1,85.6,84.3,1.2
61.25,83.2,82.4,85.3,83.7,1.5
62.5,81.5,80.8,83.2,81.8,1.3
63.75,80.2,82.1,83.6,82.0,1.7
65.0,78.9,81.7,82.7,81.1,2.0
66.25,77.5,79.9,82.0,79.8,2.2
67.5,77.1,80.1,79.4,78.8,1.5
68.75,76.6,79.5,78.5,78.2,1.5
70.0,76.2,79.8,78.3,78.1,1.8
71.25,76.1,78.9,78.0,77.7,1.4
72.5,74.4,77.2,77.3,76.3,1.6
73.75,74.3,76.5,76.8,75.8,1.4
75.0,73.2,76.2,76.0,75.1,1.7
76.25,74.5,76.6,75.0,75.4,1.1
77.5,73.7,75.5,75.2,74.8,0.9
78.75,73.5,74.0,74.8,74.1,0.6
80.0,72.0,72.3,72.4,72.2,0.2
81.25,72.6,71.6,72.6,72.3,0.6
82.5,71.7,71.6,71.8,71.7,0.1
83.75,71.1,71.0,70.9,71.0,0.1
85.0,70.2,70.0,70.9,70.4,0.5
86.25,70.7,71.0,71.1,70.9,0.2
87.5,69.5,70.6,70.0,70.0,0.6
88.75,67.7,69.6,70.8,69.3,1.6
90.0,67.7,69.3,69.8,69.0,1.1
91.25,66.6,70.7,69.8,69.0,2.2
92.5,66.7,69.3,69.3,68.4,1.5
93.75,66.2,69.7,68.2,68.0,1.8
95.0,66.3,68.9,68.4,67.9,1.4
96.25,66.1,69.0,67.5,67.5,1.5
97.5,65.8,69.5,67.9,67.8,1.8
98.75,65.8,68.3,67.7,67.3,1.3
100.0,64.2,66.2,68.1,66.2,1.9
101.25,65.9,68.4,66.3,66.9,1.3
102.5,66.1,66.8,66.7,66.5,0.4
103.75,66.3,66.1,65.8,66.1,0.2
105.0,65.1,67.4,64.7,65.7,1.5
106.25,64.5,66.1,65.2,65.3,0.8
107.5,64.7,65.2,64.4,64.8,0.4
108.75,63.9,65.5,64.0,64.4,0.9
110.0,64.3,63.8,63.6,63.9,0.4
111.25,62.6,64.5,63.2,63.4,0.9
112.5,62.3,64.9,62.0,63.0,1.6
113.75,62.1,64.1,62.8,63.0,1.0
115.0,61.2,63.9,62.0,62.4,1.4
116.25,62.5,64.2,61.3,62.7,1.5
117.5,61.0,63.6,60.1,61.6,1.8
118.75,60.8,65.6,59.0,61.8,3.4
120.0,60.6,63.6,59.0,61.1,2.3
121.25,59.5,64.5,58.7,60.9,3.2
122.5,58.2,64.3,58.4,60.3,3.5
123.75,58.4,64.6,58.3,60.4,3.6
125.0,58.5,63.0,58.9,60.1,2.5
126.25,58.3,63.6,58.5,60.1,3.0
127.5,57.4,63.7,58.3,59.8,3.4
128.75,58.2,63.9,57.9,60.0,3.4
130.0,57.4,64.8,57.0,59.7,4.4
131.25,58.2,62.9,56.8,59.3,3.2
132.5,57.9,61.9,58.6,59.5,2.1
133.75,57.9,62.6,56.9,59.1,3.0
135.0,57.6,63.2,56.7,59.1,3.5
136.25,57.2,62.5,58.1,59.2,2.8
137.5,57.6,61.4,56.3,58.5,2.6
138.75,56.3,62.3,56.5,58.3,3.4
140.0,56.9,61.9,56.5,58.4,3.0
141.25,57.0,61.0,56.2,58.1,2.5
142.5,58.2,60.5,54.9,57.8,2.8
143.75,57.0,61.7,54.2,57.6,3.8
145.0,57.6,61.6,53.8,57.6,3.9
146.25,56.9,61.6,53.8,57.4,3.9
147.5,57.3,62.0,54.1,57.8,4.0
148.75,57.5,60.4,52.7,56.9,3.9
150.0,57.7,60.6,52.8,57.1,3.9
151.25,58.0,60.5,52.3,57.0,4.2
152.5,57.5,60.3,51.5,56.4,4.5
153.75,57.7,60.6,52.2,56.8,4.3
155.0,58.4,59.4,51.2,56.3,4.5
156.25,57.5,59.9,51.4,56.3,4.4
157.5,56.9,57.2,50.9,55.0,3.6
158.75,57.6,57.1,49.9,54.8,4.3
160.0,56.2,56.5,50.4,54.4,3.4
161.25,57.7,56.4,50.3,54.8,3.9
162.5,57.4,56.5,50.2,54.7,4.0
163.75,57.4,57.6,49.0,54.7,4.9
165.0,56.8,58.2,49.0,54.6,4.9
166.25,56.3,58.3,49.6,54.8,4.6
167.5,57.2,58.3,48.6,54.7,5.3
168.75,56.0,57.2,48.9,54.0,4.5
170.0,56.2,56.6,49.5,54.1,4.0
171.25,57.1,56.7,49.3,54.4,4.4
172.5,56.9,55.7,49.1,53.9,4.2
173.75,57.0,56.1,48.0,53.7,5.0
175.0,56.1,56.6,49.0,53.9,4.2
176.25,56.3,56.1,48.7,53.7,4.3
177.5,56.1,55.8,48.8,53.6,4.1
178.75,56.3,56.8,48.9,54.0,4.4
180.0,55.2,55.3,47.0,52.5,4.7
181.25,55.7,55.1,48.4,53.1,4.1
182.5,54.8,55.2,48.8,52.9,3.6
183.75,55.1,54.4,48.3,52.6,3.8
185.0,54.3,54.0,48.1,52.1,3.5
186.25,54.8,54.3,48.1,52.4,3.8
187.5,55.4,54.2,48.2,52.6,3.9
188.75,54.8,54.9,48.5,52.7,3.7
190.0,55.1,55.6,47.8,52.8,4.4
191.25,55.3,55.9,48.3,53.2,4.2
192.5,54.8,56.9,48.3,53.3,4.5
193.75,53.8,56.6,48.8,53.1,3.9
195.0,54.0,56.2,48.8,53.0,3.8
196.25,54.2,55.8,48.1,52.7,4.1
197.5,53.8,55.6,48.5,52.6,3.7
198.75,53.2,55.2,47.8,52.1,3.8
200.0,53.2,55.3,47.5,52.0,4.1
201.25,52.7,55.2,48.2,52.0,3.5
202.5,52.7,53.9,48.5,51.7,2.8
203.75,53.1,54.0,47.6,51.6,3.5
205.0,53.1,53.6,47.8,51.5,3.2
206.25,52.8,54.7,46.8,51.4,4.1
207.5,54.1,54.9,47.2,52.1,4.3
208.75,54.3,55.9,47.8,52.7,4.3
210.0,53.6,55.3,48.8,52.6,3.4
211.25,53.3,54.5,48.9,52.2,3.0
212.5,52.4,56.1,49.6,52.7,3.3
213.75,52.6,55.4,50.0,52.7,2.7
215.0,52.1,56.0,50.1,52.7,3.0
216.25,52.7,55.3,49.3,52.4,3.0
217.5,52.7,55.3,48.6,52.2,3.4
218.75,52.2,55.6,49.3,52.3,3.1
220.0,52.2,57.0,49.2,52.8,3.9
221.25,51.3,55.8,49.3,52.1,3.3
222.5,51.8,56.0,49.1,52.3,3.5
223.75,51.9,56.4,48.5,52.3,3.9
225.0,51.7,56.5,48.3,52.2,4.1
226.25,50.4,55.5,48.3,51.4,3.7
227.5,51.3,55.5,48.1,51.6,3.7
228.75,51.2,54.7,47.4,51.1,3.6
230.0,51.0,54.7,47.8,51.1,3.4
231.25,51.4,54.2,47.3,51.0,3.5
232.5,50.5,52.7,48.1,50.4,2.3
233.75,50.9,52.7,47.7,50.4,2.5
235.0,51.2,52.1,47.9,50.4,2.2
236.25,51.6,51.6,47.6,50.3,2.3
237.5,51.2,52.6,47.4,50.4,2.7
238.75,51.6,51.4,47.6,50.2,2.3
240.0,50.8,51.7,46.8,49.8,2.6
241.25,50.3,51.7,46.6,49.6,2.7
242.5,50.0,51.8,46.7,49.5,2.6
243.75,51.1,52.4,46.6,50.0,3.0
245.0,49.5,52.2,47.1,49.6,2.6
246.25,49.7,51.6,46.7,49.3,2.5
247.5,49.8,51.5,47.3,49.5,2.1
248.75,50.0,51.9,47.0,49.6,2.5
250.0,50.0,51.8,46.3,49.4,2.8
251.25,50.5,51.7,47.0,49.7,2.5
252.5,50.1,52.3,47.2,49.8,2.5
253.75,50.3,51.4,47.1,49.6,2.3
255.0,49.7,52.0,46.2,49.3,2.9
256.25,50.4,51.0,46.9,49.4,2.2
257.5,50.3,51.3,47.9,49.8,1.8
258.75,50.0,50.1,47.5,49.2,1.5
260.0,49.8,51.3,47.9,49.7,1.7
261.25,50.2,51.1,48.0,49.8,1.6
262.5,50.4,50.5,47.7,49.5,1.6
263.75,50.4,50.9,47.2,49.5,2.0
265.0,49.1,49.7,46.9,48.6,1.5
266.25,49.1,49.9,46.7,48.6,1.7
267.5,49.6,50.2,47.1,48.9,1.6
268.75,49.1,50.9,47.8,49.3,1.6
270.0,49.1,50.2,48.7,49.4,0.8
271.25,49.3,49.5,47.5,48.7,1.1
272.5,48.9,49.9,48.1,49.0,0.9
273.75,48.6,50.7,47.7,49.0,1.6
275.0,49.1,50.0,48.4,49.1,0.8
276.25,48.3,48.6,48.8,48.5,0.3
277.5,47.6,48.9,48.0,48.2,0.6
278.75,48.1,48.6,48.4,48.4,0.3
280.0,47.6,47.8,48.6,48.0,0.5
281.25,46.3,47.3,48.3,47.3,1.0
282.5,46.7,46.5,49.8,47.7,1.8
283.75,45.4,46.6,49.0,47.0,1.8
285.0,46.7,45.8,48.5,47.0,1.4
286.25,46.4,46.0,48.3,46.9,1.2
287.5,45.7,44.7,48.6,46.3,2.0
288.75,46.4,45.3,48.8,46.8,1.8
290.0,46.4,45.5,48.7,46.8,1.6
291.25,45.9,46.2,47.8,46.6,1.0
292.5,46.0,46.4,48.7,47.0,1.5
293.75,45.0,47.4,48.6,47.0,1.8
295.0,44.2,47.0,47.3,46.2,1.7
296.25,44.2,46.4,48.0,46.2,1.9
297.5,45.3,46.6,47.3,46.4,1.0
298.75,44.2,47.1,46.9,46.1,1.6
300.0,43.5,46.6,46.4,45.5,1.7
301.25,42.9,47.1,46.5,45.5,2.3
302.5,44.1,47.2,47.0,46.1,1.7
303.75,43.9,46.3,46.2,45.5,1.4
305.0,43.6,46.3,45.6,45.2,1.4
306.25,44.1,46.8,45.5,45.5,1.4
307.5,43.9,46.6,45.0,45.2,1.4
308.75,42.9,45.5,44.1,44.2,1.3
310.0,42.7,44.8,43.5,43.7,1.1
311.25,43.8,45.1,42.6,43.8,1.2
312.5,43.3,45.6,41.6,43.5,2.0
313.75,43.6,45.4,42.0,43.7,1.7
315.0,42.6,45.2,41.8,43.2,1.8
316.25,42.9,45.6,42.0,43.5,1.8
317.5,42.2,44.2,42.1,42.8,1.2
318.75,42.1,44.4,41.8,42.8,1.4
320.0,42.0,44.4,41.1,42.5,1.7
321.25,40.7,43.7,40.8,41.7,1.7
322.5,40.4,44.7,41.5,42.2,2.2
323.75,40.4,44.5,41.0,42.0,2.2
325.0,40.3,44.1,40.4,41.6,2.2
326.25,40.5,43.3,40.6,41.4,1.6
327.5,40.4,42.9,41.0,41.4,1.3
328.75,40.8,42.7,42.1,41.9,1.0
330.0,42.1,42.1,41.7,42.0,0.3
331.25,42.2,42.1,42.9,42.4,0.4
332.5,42.2,42.6,42.5,42.4,0.2
333.75,43.9,42.5,41.9,42.8,1.0
335.0,43.3,42.5,41.8,42.6,0.7
336.25,43.7,42.4,40.8,42.3,1.5
337.5,43.5,41.7,40.4,41.9,1.5
338.75,43.0,41.1,40.4,41.5,1.3
340.0,42.0,40.8,40.3,41.0,0.9
341.25,41.8,40.4,39.2,40.4,1.3
342.5,41.6,39.6,38.9,40.1,1.4
343.75,41.3,39.6,38.5,39.8,1.4
345.0,42.0,39.2,38.2,39.8,2.0
346.25,41.2,39.1,38.7,39.7,1.3
347.5,40.9,38.3,38.0,39.0,1.6
348.75,40.6,38.0,38.3,39.0,1.4
350.0,40.4,39.0,37.7,39.0,1.3
351.25,39.3,38.7,37.5,38.5,0.9
351.5,38.8,38.6,37.2,38.2,0.9