File: 01_Data/Cellulose_Insulation/Cone/Cellulose_Insulation_HRRPUA_25.csv
Time after Ignition,Cellulose_Insulation_R1,Cellulose_Insulation_R2,Cellulose_Insulation_R3,Mean,Std. Dev.
0.0,4.5,9.4,4.7,6.2,2.8
1.0,4.2,8.4,4.6,5.8,2.3
2.0,4.2,8.0,4.8,5.7,2.1
3.0,4.1,7.5,4.7,5.5,1.8
4.0,4.0,7.3,4.8,5.4,1.7
5.0,3.9,6.9,4.8,5.2,1.5
6.0,3.8,6.1,4.8,4.9,1.1
7.0,4.0,5.4,4.8,4.8,0.7
8.0,4.5,5.0,5.0,4.9,0.3
9.0,5.6,5.1,5.3,5.3,0.2
10.0,7.6,5.5,5.6,6.2,1.2
11.0,10.7,5.9,12.2,9.6,3.3
12.0,24.4,20.1,26.6,23.7,3.3
13.0,43.5,47.3,50.4,47.1,3.4
14.0,68.8,69.8,72.9,70.5,2.1
15.0,88.9,93.1,93.9,92.0,2.7
16.0,101.8,110.2,106.3,106.1,4.2
17.0,111.2,123.1,113.2,115.8,6.3
18.0,117.2,132.0,118.2,122.5,8.3
19.0,118.9,132.5,120.1,123.8,7.5
20.0,117.2,134.0,119.9,123.7,9.0
21.0,117.3,131.8,117.8,122.3,8.3
22.0,114.3,129.9,116.2,120.1,8.5
23.0,108.6,128.8,114.9,117.4,10.3
24.0,106.0,124.3,109.9,113.4,9.6
25.0,104.3,121.7,107.1,111.0,9.4
26.0,101.2,115.3,103.4,106.6,7.6
27.0,98.9,115.0,101.8,105.2,8.5
28.0,94.8,109.6,99.8,101.4,7.5
29.0,90.8,109.5,97.6,99.3,9.4
30.0,86.7,106.2,97.4,96.8,9.7
31.0,85.6,105.6,95.9,95.7,10.0
32.0,83.1,102.1,94.1,93.1,9.5
33.0,81.0,99.9,92.3,91.1,9.5
34.0,80.1,97.1,92.5,89.9,8.8
35.0,76.5,96.3,90.1,87.6,10.1
36.0,76.3,94.1,87.6,86.0,9.0
37.0,76.1,91.6,86.5,84.7,7.9
38.0,74.1,91.3,84.3,83.3,8.6
39.0,74.0,90.8,83.1,82.6,8.4
40.0,74.8,88.5,82.2,81.8,6.8
41.0,74.0,84.1,80.3,79.4,5.1
42.0,73.6,83.0,79.7,78.8,4.8
43.0,73.3,82.3,78.6,78.0,4.5
44.0,72.2,80.1,79.2,77.2,4.4
45.0,72.6,79.9,77.9,76.8,3.8
46.0,71.6,77.0,77.9,75.5,3.4
47.0,72.2,76.3,76.1,74.9,2.3
48.0,70.9,75.5,75.4,74.0,2.6
49.0,71.3,74.4,74.3,73.4,1.7
50.0,72.1,73.0,72.8,72.6,0.5
51.0,72.9,72.1,71.5,72.2,0.7
52.0,72.1,71.3,69.3,70.9,1.5
53.0,72.1,70.3,67.3,69.9,2.5
54.0,71.3,69.1,65.2,68.5,3.1
55.0,70.7,68.6,64.2,67.9,3.3
56.0,69.7,67.3,63.2,66.7,3.3
57.0,69.9,67.6,62.2,66.6,4.0
58.0,68.4,66.6,60.6,65.2,4.1
59.0,67.6,66.5,59.9,64.7,4.2
60.0,66.5,65.5,58.0,63.3,4.6
61.0,65.4,65.7,57.5,62.9,4.7
62.0,63.6,65.2,56.1,61.6,4.9
63.0,62.7,64.5,55.3,60.8,4.9
64.0,61.8,64.6,54.7,60.3,5.1
65.0,61.9,63.6,54.3,59.9,5.0
66.0,60.1,62.7,53.1,58.6,5.0
67.0,59.1,62.1,52.9,58.0,4.7
68.0,58.3,62.5,51.6,57.5,5.5
69.0,56.0,61.3,51.6,56.3,4.9
70.0,55.8,61.5,51.0,56.1,5.3
71.0,55.3,60.4,50.6,55.4,4.9
72.0,53.9,60.0,50.7,54.9,4.7
73.0,53.7,59.3,50.2,54.4,4.6
74.0,53.4,59.8,50.1,54.4,4.9
75.0,52.8,59.7,48.9,53.8,5.4
76.0,53.2,58.8,48.3,53.4,5.2
77.0,52.6,57.9,48.6,53.1,4.7
78.0,51.6,57.2,48.0,52.3,4.7
79.0,50.9,57.0,47.5,51.8,4.8
80.0,51.0,57.7,47.8,52.2,5.1
81.0,49.4,56.9,46.7,51.0,5.3
82.0,48.9,57.4,46.8,51.0,5.6
83.0,48.5,56.9,46.7,50.7,5.4
84.0,47.5,56.8,44.6,49.6,6.4
85.0,45.8,56.0,44.8,48.9,6.2
86.0,45.2,55.2,44.9,48.4,5.9
87.0,43.9,55.1,45.1,48.0,6.1
88.0,43.2,54.4,44.1,47.2,6.2
89.0,41.9,54.6,44.5,47.0,6.7
90.0,40.6,54.0,43.5,46.0,7.1
91.0,40.8,54.4,43.4,46.2,7.2
92.0,40.0,53.2,43.3,45.5,6.9
93.0,39.3,52.0,42.9,44.7,6.5
94.0,38.7,52.0,42.4,44.3,6.9
95.0,38.2,50.8,42.4,43.8,6.4
96.0,37.7,49.5,42.1,43.1,6.0
97.0,37.4,48.9,42.6,42.9,5.8
98.0,36.0,47.9,41.2,41.7,6.0
99.0,35.9,47.3,42.8,42.0,5.8
100.0,35.5,45.8,41.4,40.9,5.1
101.0,35.0,45.4,41.0,40.5,5.2
102.0,35.2,44.3,41.3,40.3,4.6
103.0,35.5,44.5,39.8,39.9,4.5
104.0,36.0,43.5,39.5,39.7,3.8
105.0,36.0,43.8,39.5,39.8,3.9
106.0,35.7,42.6,39.8,39.4,3.5
107.0,34.9,43.1,40.0,39.3,4.2
108.0,34.8,42.8,39.3,39.0,4.0
109.0,33.9,42.2,39.3,38.4,4.2
110.0,34.2,41.7,39.1,38.3,3.8
111.0,34.1,40.4,38.5,37.7,3.3
112.0,33.4,39.7,38.3,37.2,3.3
113.0,33.2,39.1,37.6,36.6,3.1
114.0,33.4,38.0,37.2,36.2,2.4
115.0,33.0,37.2,36.5,35.6,2.2
116.0,32.9,37.6,36.7,35.8,2.5
117.0,33.6,37.6,37.1,36.1,2.2
118.0,33.3,37.8,35.5,35.5,2.2
119.0,34.0,36.9,35.7,35.6,1.4
120.0,33.8,36.3,34.6,34.9,1.3
121.0,33.7,36.6,34.2,34.8,1.6
122.0,33.4,36.0,33.4,34.3,1.5
123.0,32.8,36.5,31.9,33.7,2.4
124.0,33.2,36.1,31.7,33.7,2.2
125.0,33.0,36.0,30.2,33.1,2.9
126.0,33.9,36.5,29.5,33.3,3.5
127.0,33.0,36.1,29.0,32.7,3.6
128.0,32.7,36.0,28.9,32.6,3.5
129.0,32.1,35.6,28.7,32.1,3.4
130.0,31.6,35.4,29.1,32.0,3.2
131.0,31.1,35.4,29.1,31.9,3.2
132.0,30.5,34.2,29.7,31.5,2.4
133.0,30.3,34.6,30.2,31.7,2.5
134.0,29.4,33.9,30.5,31.3,2.4
135.0,28.6,33.0,30.9,30.8,2.2
136.0,27.0,33.4,31.0,30.5,3.3
137.0,27.1,32.1,31.3,30.2,2.7
138.0,26.4,31.8,31.2,29.8,3.0
139.0,25.8,31.1,,28.4,3.7
140.0,25.8,30.6,,28.2,3.4
141.0,24.7,,,24.7,
142.0,24.3,,,24.3,
143.0,23.9,,,23.9,
144.0,23.7,,,23.7,
145.0,23.2,,,23.2,
146.0,22.3,,,22.3,
147.0,22.0,,,22.0,
148.0,21.3,,,21.3,
149.0,21.5,,,21.5,
150.0,21.2,,,21.2,
151.0,21.1,,,21.1,
152.0,21.0,,,21.0,
153.0,21.1,,,21.1,
154.0,20.8,,,20.8,
155.0,20.9,,,20.9,
156.0,21.0,,,21.0,
157.0,21.3,,,21.3,
158.0,20.8,,,20.8,
159.0,20.3,,,20.3,
160.0,19.9,,,19.9,
161.0,19.3,,,19.3,
162.0,19.2,,,19.2,
163.0,18.9,,,18.9,
164.0,18.8,,,18.8,
165.0,18.4,,,18.4,
166.0,18.1,,,18.1,
167.0,17.9,,,17.9,
168.0,18.1,,,18.1,
169.0,18.3,,,18.3,
170.0,18.2,,,18.2,
171.0,18.2,,,18.2,
172.0,18.4,,,18.4,
173.0,17.8,,,17.8,
174.0,17.7,,,17.7,
175.0,17.4,,,17.4,
176.0,17.4,,,17.4,
177.0,17.1,,,17.1,
178.0,16.9,,,16.9,
179.0,17.0,,,17.0,
180.0,17.2,,,17.2,
181.0,17.0,,,17.0,
182.0,17.0,,,17.0,
183.0,17.0,,,17.0,
184.0,16.9,,,16.9,
185.0,16.9,,,16.9,
186.0,16.7,,,16.7,
187.0,16.3,,,16.3,
188.0,16.0,,,16.0,
189.0,16.1,,,16.1,
190.0,16.3,,,16.3,
191.0,16.7,,,16.7,
192.0,16.7,,,16.7,
193.0,16.9,,,16.9,
194.0,16.5,,,16.5,
195.0,16.2,,,16.2,
196.0,16.4,,,16.4,
197.0,16.1,,,16.1,
198.0,15.9,,,15.9,
199.0,15.8,,,15.8,
200.0,15.7,,,15.7,
201.0,15.8,,,15.8,
202.0,15.6,,,15.6,
203.0,15.7,,,15.7,
204.0,16.2,,,16.2,
205.0,16.3,,,16.3,
206.0,16.1,,,16.1,
207.0,16.2,,,16.2,
208.0,16.2,,,16.2,
209.0,16.4,,,16.4,
210.0,16.2,,,16.2,
211.0,16.3,,,16.3,
212.0,16.6,,,16.6,
213.0,16.8,,,16.8,
214.0,16.4,,,16.4,
215.0,16.5,,,16.5,
216.0,16.2,,,16.2,
217.0,16.8,,,16.8,
218.0,17.0,,,17.0,
219.0,16.7,,,16.7,
220.0,16.5,,,16.5,
221.0,16.2,,,16.2,
222.0,16.2,,,16.2,
223.0,16.2,,,16.2,
224.0,16.2,,,16.2,
225.0,15.9,,,15.9,
226.0,16.3,,,16.3,
227.0,16.3,,,16.3,
228.0,16.1,,,16.1,
229.0,16.1,,,16.1,
230.0,16.3,,,16.3,
230.75,16.3,,,16.3,