File: 01_Data/Cellulose_Insulation/Cone/Cellulose_Insulation_Cone_HF25Scan_230613_R3.csv
Names,Time,Stack TC,Smoke TC,Exh Press,Smoke Comp,Smoke Meas,CO Meter,CO2 Meter,O2 Meter,Sample Mass,Ext Coeff,Start Test,Flame Verif
Chan Gain,,500,500,1,1,1,1,1,1,1,1,1.0,1.0
Offset,,0,0,0.142142,0,0,0,0,0,0,0,0.0,0.0
Gain,,1,1,25.011,13.3129,15.7223,1,1,1,1.00097,1.04429,1.0,1.0
Units,sec,C,C,Pa,%,%,%,%,%,g,/m,,
Baseline,,27.2667,28.7692,157.095,100.159,100.28,4.95676e-05,0.0450485,20.9656,-445.076,-0.0110743,,
12,2.75,23.1645,24.6872,156.034,99.9113,99.6372,9.71078e-05,0.049728,20.9571,55.6937,0.0251645,0.0,0.0
24,5.75,24.8489,25.1821,155.56,100.155,98.6742,7.22045e-05,0.050197,20.9576,55.5836,0.136451,0.0,0.0
36,8.75,24.4145,25.5814,157.769,100.362,96.7814,2.62363e-05,0.0513178,20.9566,55.3133,0.332811,0.0,0.0
48,11.75,26.4015,30.9868,143.855,100.578,101.25,0.000101691,0.051836,20.9563,54.973,-0.0610303,0.0,1.0
60,14.75,26.9007,32.996,149.245,100.736,101.007,0.000149415,0.0517664,20.9562,54.6927,-0.0246119,0.0,0.0
72,17.75,28.3925,34.9095,145.433,100.825,101.608,0.000155948,0.0869243,20.9555,54.4125,-0.0709228,0.0,0.0
84,20.75,29.2186,36.3835,149.041,100.868,101.332,0.00059612,0.189706,20.9353,54.1422,-0.0419876,0.0,0.0
96,23.75,29.5695,36.3453,147.221,100.84,101.312,0.00118616,0.243323,20.8,53.912,-0.0427863,0.0,0.0
108,26.75,30.1326,37.0919,152.916,100.76,101.812,0.0013106,0.244607,20.7365,53.6718,-0.0951227,0.0,0.0
120,29.75,30.5565,36.5585,150.709,100.628,101.161,0.00129295,0.230042,20.7317,53.5616,-0.0484393,0.0,0.0
132,32.75,30.854,37.2267,147.18,100.464,101.127,0.00152972,0.215032,20.7458,53.3815,-0.0602773,0.0,0.0
144,35.75,30.968,37.0169,150.652,100.297,100.74,0.00169058,0.206277,20.7638,53.1713,-0.040368,0.0,0.0
156,38.75,30.9293,36.6568,156.467,100.1,100.333,0.00179267,0.196971,20.7731,53.0111,-0.0213096,0.0,0.0
168,41.75,31.3665,37.1187,154.151,99.9645,100.372,0.001936,0.188929,20.7832,52.841,-0.0372892,0.0,0.0
180,44.75,31.7234,36.7192,151.113,100.117,100.492,0.00232543,0.181056,20.7918,52.6808,-0.034236,0.0,0.0
192,47.75,31.3277,36.5301,149.672,100.298,100.737,0.00292449,0.174584,20.8018,52.5407,-0.0399572,0.0,0.0
204,50.75,31.6135,36.3002,152.232,100.374,100.476,0.00315141,0.170655,20.8098,52.4105,-0.00932939,0.0,0.0
216,53.75,31.6776,35.9866,153,100.336,100.736,0.00358742,0.167048,20.814,52.2504,-0.036463,0.0,0.0
228,56.75,31.8416,35.7525,151.581,100.218,100.725,0.00360843,0.160607,20.8177,52.1203,-0.0462972,0.0,0.0
240,59.75,31.7178,35.4451,153.496,99.997,100.43,0.00351445,0.152378,20.8258,52.0001,-0.0395646,0.0,0.0
252,62.75,31.7495,35.4589,151.948,99.761,100.062,0.00385698,0.14638,20.836,51.82,-0.0275857,0.0,0.0
264,65.75,31.4255,35.4886,159.097,99.6159,100.317,0.00423873,0.141347,20.8438,51.6898,-0.0642078,0.0,0.0
276,68.75,31.8636,35.0638,157.206,99.6907,100.319,0.0048211,0.137427,20.8508,51.5897,-0.0575555,0.0,0.0
288,71.75,31.3791,34.7917,149.951,99.7967,100.143,0.00528996,0.134198,20.8567,51.3996,-0.0317669,0.0,0.0
300,74.75,31.1133,34.79,154.008,99.9487,100.262,0.00550834,0.129954,20.8607,51.3295,-0.0287085,0.0,0.0
312,77.75,31.0685,34.5152,154.262,100.081,100.558,0.0059751,0.127092,20.8653,51.1894,-0.043585,0.0,0.0
324,80.75,31.5568,34.3271,154.031,100.193,100.663,0.00652653,0.124958,20.8672,51.0092,-0.0428444,0.0,0.0
336,83.75,30.7536,33.9284,153.954,100.26,100.434,0.00671928,0.121754,20.8695,50.8991,-0.0159101,0.0,0.0
348,86.75,30.7326,32.9995,153.08,100.321,101.004,0.00690075,0.120538,20.8718,50.849,-0.0621874,0.0,0.0
360,89.75,31.293,34.2597,152.87,100.32,100.513,0.00698147,0.119131,20.8739,50.7189,-0.0175555,0.0,0.0
372,92.75,30.7001,34.0106,152.276,100.308,101.24,0.00719794,0.117224,20.8765,50.5988,-0.0846777,0.0,0.0
384,95.75,30.4534,33.6848,157.588,100.266,100.684,0.00739877,0.115625,20.8785,50.4587,-0.0381253,0.0,0.0
396,98.75,31.1956,33.5188,152.043,100.227,100.754,0.00739989,0.11468,20.8806,50.2885,-0.0480605,0.0,0.0
408,101.75,30.8087,32.5065,155.16,100.148,100.272,0.00722414,0.113462,20.882,50.2485,-0.0112775,0.0,0.0
420,104.75,30.5255,32.3007,150.705,100.059,99.9745,0.00740475,0.111711,20.8837,50.0983,0.00771723,0.0,0.0
432,107.75,30.553,32.8383,158.843,99.997,99.928,0.00801516,0.108384,20.8845,49.9582,0.00632708,0.0,0.0
444,110.75,30.4005,32.6302,156.496,99.93,99.8109,0.00913907,0.104616,20.8868,49.8781,0.0109223,0.0,0.0
456,113.75,29.5711,32.3869,155.425,99.8666,99.7989,0.0102225,0.103017,20.8888,49.768,0.00621141,0.0,0.0
468,116.75,29.8936,32.2331,152.893,99.8166,100.091,0.0109259,0.101924,20.8888,49.6779,-0.0251107,0.0,0.0
480,119.75,29.9536,32.302,153.788,99.7748,99.5532,0.0109627,0.0996022,20.8907,49.5678,0.0203629,0.0,0.0
492,122.75,29.7887,31.568,155.064,99.7362,99.0053,0.010888,0.0976813,20.8935,49.4877,0.0673762,0.0,0.0
504,125.75,29.427,31.5513,155.148,99.7122,99.6799,0.0115517,0.0947911,20.8952,49.3476,0.00296759,0.0,0.0
516,128.75,28.9976,31.185,153.584,99.6952,99.3311,0.0126228,0.0892735,20.8978,49.2375,0.0335123,0.0,0.0
528,131.75,29.4382,30.9537,156.274,99.648,99.5412,0.0140345,0.0838812,20.9032,49.1674,0.0098206,0.0,0.0
540,134.75,29.0877,31.0573,156.401,99.6265,99.441,0.0153555,0.0821385,20.9076,49.0773,0.017074,0.0,0.0
552,137.75,28.9471,30.9469,153.398,99.6135,99.3877,0.0161288,0.0829115,20.91,48.9572,0.0207857,0.0,0.0
564,140.75,28.6624,30.9168,151.454,99.609,99.6314,0.0165394,0.0852641,20.9087,48.8571,-0.00206248,0.0,0.0
576,143.75,29.2581,31.3058,152.721,99.6151,99.1358,0.0166321,0.0868425,20.9063,48.747,0.0441818,0.0,0.0
588,146.75,28.8393,30.9089,154.328,99.6127,98.799,0.016653,0.0869463,20.9053,48.6869,0.0751333,0.0,0.0
600,149.75,27.2096,28.9726,152.967,99.6277,99.2889,0.0165508,0.0871374,20.905,48.5768,0.0312087,0.0,0.0
612,152.75,27.0903,28.9078,154.78,99.6314,98.7707,0.0163498,0.0872938,20.9065,48.4667,0.0794776,0.0,0.0
624,155.75,26.7108,28.5667,158.778,99.6444,98.9923,0.0163418,0.0859332,20.907,48.3867,0.0601377,0.0,0.0
636,158.75,26.303,28.7692,154.479,99.6647,99.1497,0.0170293,0.0843049,20.9074,48.2766,0.0474534,0.0,0.0
648,161.75,27.2243,28.423,155.244,99.6822,99.2231,0.0177463,0.0832154,20.9108,48.1965,0.0422787,0.0,0.0
660,164.75,26.8518,28.2883,153.27,99.7094,99.1449,0.0180672,0.0820764,20.9121,48.0964,0.052003,0.0,0.0
672,167.75,26.9607,28.7149,154.526,99.7207,99.1325,0.018379,0.0804123,20.9125,47.9963,0.0542005,0.0,0.0
684,170.75,26.5547,28.6681,151.054,99.7533,99.1075,0.0185106,0.0772927,20.914,47.9062,0.0594921,0.0,0.0
696,173.75,26.7906,28.2121,152.787,99.7756,99.1315,0.0185541,0.0739355,20.9184,47.8061,0.0593262,0.0,0.0
708,176.75,26.5013,28.0352,156.907,99.8211,99.3263,0.0184107,0.0714008,20.9226,47.726,0.0455205,0.0,0.0
720,179.75,26.6564,28.0978,157.788,99.8434,99.4184,0.0182978,0.07003,20.9256,47.6259,0.039078,0.0,0.0
732,182.75,25.8196,28.6574,154.301,99.882,99.1464,0.018268,0.0686598,20.9277,47.5158,0.0677199,0.0,0.0
744,185.75,26.5192,27.8669,154.896,99.9089,99.049,0.0183063,0.0679895,20.927,47.4458,0.0791821,0.0,0.0
756,188.75,26.3341,28.3601,152.374,99.9235,99.4016,0.0182986,0.067119,20.9271,47.3256,0.0479661,0.0,0.0
768,191.75,26.208,28.5216,153.838,99.9511,99.1526,0.018096,0.066715,20.9293,47.2456,0.0734761,0.0,0.0
780,194.75,26.2476,28.0435,156.387,99.9787,99.5369,0.0176711,0.0663608,20.9309,47.1655,0.0405698,0.0,0.0
792,197.75,26.171,27.6674,157.968,100.011,99.5067,0.0177578,0.0670494,20.9299,47.0554,0.046292,0.0,0.0
804,200.75,26.1312,28.1467,152.859,100.027,99.6396,0.0184306,0.0671861,20.9293,46.9653,0.0355163,0.0,0.0
816,203.75,26.0241,28.0065,155.838,100.056,99.5417,0.0185937,0.0673282,20.9288,46.8552,0.0471611,0.0,0.0
828,206.75,26.4599,28.0134,158.915,100.068,100.168,0.0183511,0.0671549,20.9286,46.7751,-0.00912771,0.0,0.0
840,209.75,26.6466,28.333,156.199,100.089,99.5513,0.0183333,0.067209,20.929,46.705,0.0493641,0.0,0.0
852,212.75,26.162,27.9247,154.194,100.123,99.7509,0.0184306,0.0671525,20.9291,46.5949,0.034064,0.0,0.0
864,215.75,26.5093,28.2564,155.673,100.137,99.7236,0.0184295,0.0668207,20.9291,46.5048,0.0379145,0.0,0.0
876,218.75,25.5926,28.3748,154.766,100.16,99.7634,0.0183168,0.0668205,20.9291,46.4348,0.0363756,0.0,0.0
888,221.75,26.2487,28.2337,155.686,100.175,99.845,0.0183884,0.0666056,20.9296,46.3347,0.030264,0.0,0.0
900,224.75,25.9227,28.1867,152.49,100.203,99.7029,0.0183114,0.0665526,20.9307,46.2446,0.0457911,0.0,0.0
912,227.75,26.401,27.9742,154.469,100.208,99.5806,0.0181483,0.0670355,20.9296,46.1545,0.0575597,0.0,0.0
924,230.75,25.7461,28.3948,158.892,100.225,100.001,0.0179946,0.0672137,20.9305,46.0844,0.0204632,0.0,0.0
936,233.75,26.0733,28.0026,154.102,100.242,99.6425,0.0179749,0.0675,20.93,46.0044,0.0549875,0.0,0.0
948,236.75,26.0482,27.8776,156.559,100.25,99.8968,0.0179136,0.0675255,20.9294,45.8943,0.0323067,0.0,0.0
960,239.75,26.6445,28.3398,156.111,100.259,100.263,0.0179804,0.0683125,20.9292,45.8142,-0.000392584,0.0,0.0
972,242.75,25.8056,27.8049,159.662,100.279,100.189,0.01828,0.0692761,20.9272,45.7341,0.00814274,0.0,0.0
984,245.75,26.0481,27.7837,152.685,100.297,99.7979,0.0184951,0.0693561,20.9252,45.654,0.0456803,0.0,0.0
996,248.75,26.3317,27.8808,152.213,100.311,99.8402,0.0185753,0.0689231,20.9246,45.594,0.0430667,0.0,0.0
1008,251.75,25.7814,27.7127,151.245,100.328,99.8013,0.0186919,0.068073,20.9259,45.4638,0.048229,0.0,0.0
1020,254.75,25.8926,28.3018,156.627,100.32,99.9966,0.0185522,0.0676138,20.9281,45.4038,0.0295805,0.0,0.0
1032,257.75,26.0601,27.9258,153.369,100.345,100.303,0.0183516,0.0671621,20.9293,45.3137,0.00384305,0.0,0.0
1044,260.75,25.8782,28.3026,155.349,100.344,99.7816,0.0180721,0.0668589,20.9296,45.2336,0.0515177,0.0,0.0
1056,263.75,26.0515,27.8371,156.437,100.347,100.061,0.0178902,0.0664309,20.9297,45.1435,0.0261337,0.0,0.0
1068,266.75,25.8663,27.8717,157.365,100.337,99.9841,0.0178709,0.0661816,20.9298,45.0735,0.0322806,0.0,0.0
1069,267,25.8312,27.8924,151.977,100.352,99.8776,0.0178531,0.0661577,20.9298,45.0635,0.0434177,0.0,0.0