File: 01_Data/Cellulose_Insulation/Cone/Cellulose_Insulation_Cone_HF75Scan_230615_R1.csv
Names,Time,Stack TC,Smoke TC,Exh Press,Smoke Comp,Smoke Meas,CO Meter,CO2 Meter,O2 Meter,Sample Mass,Ext Coeff,Start Test,Flame Verif
Chan Gain,,500,500,1,1,1,1,1,1,1,1,1.0,1.0
Offset,,0,0,0.245636,0,0,0,0,0,0,0,0.0,0.0
Gain,,1,1,25.011,13.7634,14.9464,1,1,1,1.00094,1.03834,1.0,1.0
Units,sec,C,C,Pa,%,%,%,%,%,g,/m,,
Baseline,,42.0657,45.02,139.45,100.097,100.079,8.43407e-05,0.0474695,20.9637,-445.443,0.00167523,,
17,4,41.9782,49.5084,113.849,100.026,99.7029,0.000189227,0.0570537,20.9506,78.0236,0.0295063,0.0,1.0
34,8.25,46.5492,59.1152,117.134,100.002,99.8132,0.000359271,0.0818241,20.9486,77.0927,0.0171708,0.0,0.0
51,12.5,50.1472,66.239,118.605,100.01,99.4159,0.00166331,0.438238,20.8379,76.2819,0.0542999,0.0,0.0
68,16.75,53.3261,68.56,128.281,100.013,101.039,0.00327409,0.556764,20.467,75.6313,-0.0929587,0.0,0.0
85,21,55.3132,69.7709,127.022,100.001,101.336,0.00353662,0.520097,20.3661,74.9707,-0.120834,0.0,0.0
102,25.25,56.7131,70.629,123.403,99.9986,101.375,0.00308913,0.453225,20.4202,74.3801,-0.12451,0.0,0.0
119,29.5,57.6447,70.8472,123.578,100.015,101.183,0.00272913,0.404591,20.4981,73.8897,-0.105828,0.0,0.0
136,33.75,57.5674,70.6473,124.829,100.019,100.81,0.00233335,0.365343,20.5569,73.4192,-0.0717961,0.0,0.0
153,38,59.2218,70.8612,126.339,99.9995,101.165,0.00205435,0.336503,20.6024,72.8987,-0.105521,0.0,0.0
170,42.25,59.0508,70.152,129.233,99.9928,101.014,0.0018006,0.313845,20.636,72.5184,-0.0925714,0.0,0.0
187,46.5,59.3318,69.1032,129.14,100.028,101.082,0.00164077,0.29781,20.6604,72.0379,-0.0954847,0.0,0.0
204,50.75,59.8141,69.4831,128.682,100.023,101.005,0.00167475,0.286268,20.6789,71.6375,-0.0889919,0.0,0.0
221,55,59.4669,68.0071,126.416,100.035,101.026,0.00165398,0.275472,20.6952,71.1571,-0.0898154,0.0,0.0
238,59.25,59.8358,69.1774,128.57,100.047,100.976,0.00172844,0.264113,20.7081,70.7867,-0.0842225,0.0,0.0
255,63.5,60.1757,68.9778,129.444,100.048,101.265,0.00180631,0.255454,20.7219,70.5065,-0.110115,0.0,0.0
272,67.75,59.8548,67.5055,129.967,100.045,101.116,0.00189778,0.244559,20.7307,70.1461,-0.0969957,0.0,0.0
289,72,59.4681,67.3407,129.606,100.08,101.081,0.00197058,0.23418,20.7435,69.7558,-0.0906987,0.0,0.0
306,76.25,59.8505,67.5292,129.748,100.08,101.031,0.00187821,0.229328,20.7549,69.4155,-0.0861356,0.0,0.0
323,80.5,58.515,66.5447,127.614,100.104,100.868,0.00192311,0.223179,20.7605,69.1552,-0.0692258,0.0,0.0
340,84.75,59.0799,67.0779,127.481,100.122,101.083,0.00201959,0.216195,20.7675,68.8549,-0.0869999,0.0,0.0
357,89,59.3801,66.9517,127.6,100.121,101.222,0.00215347,0.211033,20.7747,68.5947,-0.0996447,0.0,0.0
374,93.25,58.8372,66.1534,132.202,100.131,100.79,0.00209834,0.210459,20.7789,68.2243,-0.0597762,0.0,0.0
391,97.5,59.3625,66.2131,129.756,100.145,101.089,0.00218629,0.20642,20.7823,67.864,-0.0854774,0.0,0.0
408,101.75,58.7594,65.5858,125.359,100.155,101.712,0.0024502,0.205584,20.7848,67.6138,-0.140525,0.0,0.0
425,106,58.6157,65.974,130.372,100.15,101.028,0.00222439,0.201242,20.7874,67.2434,-0.0794688,0.0,0.0
442,110.25,59.1356,65.5633,126.774,100.155,100.802,0.00205483,0.196204,20.7922,67.0032,-0.058632,0.0,0.0
459,114.5,59.154,65.4699,128.684,100.156,101.391,0.00217079,0.192606,20.7967,66.7229,-0.111606,0.0,0.0
476,118.75,58.2204,65.0796,133.446,100.141,101.152,0.00229226,0.192594,20.7996,66.5327,-0.0915289,0.0,0.0
493,123,58.2469,65.6383,133.102,100.139,101.118,0.00235126,0.192592,20.7987,66.2425,-0.0886778,0.0,0.0
510,127.25,58.2236,64.5555,133.934,100.135,100.926,0.00217777,0.190268,20.8005,66.0022,-0.0716281,0.0,0.0
527,131.5,58.735,64.7576,129.928,100.113,100.788,0.002197,0.186533,20.8035,65.772,-0.0611338,0.0,0.0
544,135.75,58.1319,64.1238,131.822,100.084,101.1,0.00214427,0.184755,20.8078,65.4717,-0.0920016,0.0,0.0
561,140,58.2407,64.318,135.719,100.055,100.941,0.00229426,0.181832,20.8096,65.2115,-0.0802481,0.0,0.0
578,144.25,58.2184,63.9643,127.049,100.024,101.101,0.00215611,0.179954,20.8128,64.9613,-0.0975516,0.0,0.0
595,148.5,57.6569,63.618,130.513,99.9445,100.694,0.00191227,0.175533,20.8153,64.7511,-0.0680125,0.0,0.0
612,152.75,57.1944,64.3865,130.688,99.892,100.877,0.001831,0.176556,20.8204,64.3807,-0.0893702,0.0,0.0
629,157,58.3003,64.241,132.845,99.8529,100.497,0.00218538,0.176673,20.8181,64.2306,-0.058603,0.0,0.0
646,161.25,58.0161,63.0861,132.647,99.7932,100.936,0.00235713,0.17667,20.8158,64.0704,-0.103686,0.0,0.0
663,165.5,57.446,63.573,129.38,99.7596,101.183,0.00220364,0.173588,20.8151,63.8902,-0.129076,0.0,0.0
680,169.75,58.0107,64.0075,125.887,99.7668,100.97,0.00232483,0.172997,20.8183,63.62,-0.109147,0.0,0.0
697,174,56.4991,64.0501,132.733,99.768,100.599,0.00245337,0.170178,20.8208,63.3998,-0.0755183,0.0,0.0
714,178.25,57.7089,63.8173,132.548,99.7773,101.094,0.00241562,0.17045,20.8227,63.2496,-0.119373,0.0,0.0
731,182.5,57.9179,62.8791,132.488,99.8117,101.001,0.0025212,0.166577,20.8228,63.0194,-0.107883,0.0,0.0
748,186.75,57.3031,63.1606,130.732,99.8558,100.716,0.00257647,0.166112,20.8281,62.9093,-0.0781151,0.0,0.0
765,191,57.1562,63.9619,131.995,99.8844,100.85,0.00245743,0.160869,20.8302,62.6991,-0.0876708,0.0,0.0
782,195.25,57.3349,62.8652,133.132,99.9235,100.922,0.00231063,0.16183,20.8354,62.569,-0.0905331,0.0,0.0
799,199.5,57.1109,62.6523,133.385,99.981,100.969,0.00220979,0.161504,20.8334,62.3888,-0.0895703,0.0,0.0
816,203.75,57.3329,62.5021,135.897,100.018,101.048,0.00217789,0.157016,20.8356,62.1486,-0.0932811,0.0,0.0
833,208,56.9644,62.3974,134.061,100.029,101.559,0.00221455,0.155383,20.8393,61.9384,-0.138218,0.0,0.0
850,212.25,56.9646,62.282,132.015,100.086,101.056,0.00227236,0.154855,20.8401,61.8083,-0.0878232,0.0,0.0
867,216.5,56.7063,61.8908,132.421,100.107,100.863,0.00228819,0.150822,20.8415,61.6381,-0.0685475,0.0,0.0
884,220.75,56.3283,61.3991,131.97,100.095,100.973,0.00217071,0.150014,20.8458,61.478,-0.079535,0.0,0.0
901,225,56.6742,61.5566,128.803,100.093,101.132,0.00222088,0.146447,20.847,61.3879,-0.0940748,0.0,0.0
918,229.25,57.0182,61.0587,129.323,100.043,100.801,0.00237156,0.14451,20.8508,61.2878,-0.0687542,0.0,0.0
935,233.5,56.4585,61.5901,130.272,99.9718,100.893,0.00246028,0.143631,20.8515,61.1276,-0.0835382,0.0,0.0
952,237.75,56.2352,61.5513,136.077,99.9088,101.24,0.00256578,0.142899,20.8516,61.0175,-0.120603,0.0,0.0
969,242,56.0952,61.2157,135.573,99.7928,100.318,0.00271832,0.140673,20.8524,60.9174,-0.0478224,0.0,0.0
986,246.25,56.0482,61.3485,132.2,99.6576,100.247,0.00317553,0.136397,20.8552,60.7273,-0.053713,0.0,0.0
1003,250.5,55.6514,60.8011,135.465,99.5194,100.033,0.00308165,0.136123,20.8579,60.5771,-0.0468521,0.0,0.0
1020,254.75,55.0719,60.2597,129.596,99.3472,100.322,0.00286071,0.135006,20.8591,60.5071,-0.0889612,0.0,0.0
1037,259,55.6662,60.6447,130.607,99.1859,99.831,0.00283901,0.130925,20.8612,60.457,-0.05905,0.0,0.0
1054,263.25,55.978,60.3285,132.224,99.0607,99.8707,0.00253035,0.13078,20.8667,60.3569,-0.0741718,0.0,0.0
1071,267.5,55.3188,60.0182,135.904,98.9641,99.3995,0.00272518,0.131067,20.8661,60.2368,-0.0399855,0.0,0.0
1088,271.75,55.1115,60.1644,139.092,98.8998,99.6641,0.00300047,0.129611,20.8658,60.1067,-0.0701115,0.0,0.0
1105,276,55.3161,59.0394,129.361,98.8847,99.888,0.00320832,0.12684,20.866,60.0867,-0.0919484,0.0,0.0
1122,280.25,55.0758,60.0436,129.783,98.9234,99.7621,0.0033545,0.127527,20.8673,60.0066,-0.0769039,0.0,0.0
1139,284.5,53.5894,57.9223,137.123,99.0246,99.6472,0.00350928,0.125669,20.8679,59.8965,-0.057088,0.0,0.0
1156,288.75,53.6601,57.6821,130.912,99.151,100.283,0.00317701,0.123293,20.8695,59.9165,-0.103442,0.0,0.0
1173,293,52.9762,57.5677,132.487,99.3258,100.161,0.00322785,0.122764,20.8697,59.8164,-0.0762957,0.0,0.0
1190,297.25,52.8647,57.6657,135.82,99.5471,100.881,0.00344122,0.120157,20.8708,59.7463,-0.121197,0.0,0.0
1207,301.5,51.9703,57.2398,133.337,99.8042,101.304,0.00355574,0.118194,20.8725,59.7263,-0.135886,0.0,0.0
1224,305.75,53.0521,57.4731,134.843,100.06,100.902,0.00355356,0.117975,20.8766,59.6562,-0.0764079,0.0,0.0
1241,310,52.8694,57.0766,134.02,100.268,100.9,0.00376864,0.116544,20.8783,59.5762,-0.0571781,0.0,0.0
1258,314.25,52.9195,57.1965,132.502,100.438,101.398,0.00355831,0.114719,20.8818,59.5662,-0.0866316,0.0,0.0
1275,318.5,52.7726,57.2302,132.592,100.502,101.238,0.00353368,0.113479,20.8841,59.5361,-0.0664893,0.0,0.0
1292,322.75,52.8543,56.3851,132.349,100.565,101.232,0.0033885,0.112194,20.885,59.446,-0.0602096,0.0,0.0
1309,327,51.984,57.1726,131.488,100.56,101.122,0.00343345,0.112446,20.8828,59.416,-0.0508087,0.0,0.0
1326,331.25,52.6197,56.7574,132.034,100.529,101.228,0.0032759,0.113095,20.8811,59.416,-0.0630715,0.0,0.0
1343,335.5,51.8875,56.3747,133.309,100.481,101.348,0.00347954,0.110699,20.881,59.1858,-0.0782771,0.0,0.0
1360,339.75,52.0353,56.4986,134.178,100.435,101.042,0.00342454,0.110249,20.885,59.2459,-0.0548806,0.0,0.0
1377,344,51.5466,56.3854,132.171,100.349,101.293,0.00338403,0.111908,20.8847,59.2158,-0.0852412,0.0,0.0
1394,348.25,52.0667,55.7992,135.115,100.262,101.11,0.00344189,0.108118,20.8825,59.2058,-0.0767096,0.0,0.0
1411,352.5,52.1098,56.8967,136.825,100.185,101.329,0.00323851,0.111587,20.8855,59.1558,-0.10344,0.0,0.0
1428,356.75,52.0656,54.7742,133.592,100.107,100.644,0.00322859,0.111719,20.8846,59.1257,-0.0486755,0.0,0.0
1445,361,51.4412,56.1013,130.187,100.051,101.232,0.00333379,0.111865,20.8844,59.0457,-0.106893,0.0,0.0
1462,365.25,51.7818,56.4336,133.208,100.012,100.628,0.00288537,0.109377,20.8844,58.9956,-0.0559889,0.0,0.0
1479,369.5,52.0704,56.3313,131.939,99.9831,100.893,0.00273544,0.107172,20.8889,58.9456,-0.082546,0.0,0.0
1496,373.75,51.2183,56.5025,130.135,99.9638,100.854,0.00274031,0.110744,20.8897,58.9055,-0.080764,0.0,0.0
1513,378,51.7686,56.5984,132.143,99.9701,100.615,0.00295317,0.110065,20.8872,58.8955,-0.058538,0.0,0.0
1530,382.25,52.3236,56.13,135.835,99.9335,100.584,0.00292629,0.11079,20.8868,58.8155,-0.0590598,0.0,0.0
1547,386.5,52.1049,56.7193,134.593,99.9445,100.492,0.00300009,0.108322,20.8867,58.7254,-0.0497993,0.0,0.0
1564,390.75,51.6435,56.3423,131.093,99.9575,100.523,0.00269194,0.10847,20.8885,58.7654,-0.0513416,0.0,0.0
1581,395,51.3346,55.8152,132.887,99.9592,100.627,0.00246572,0.109419,20.8892,58.7254,-0.0606894,0.0,0.0
1598,399.25,51.8228,55.9957,132.405,99.9902,100.771,0.00257882,0.109228,20.889,58.6453,-0.0708533,0.0,0.0
1601,400,51.3801,55.8319,135.644,99.9991,100.677,0.00256839,0.108992,20.8887,58.6153,-0.061553,0.0,0.0