File: 01_Data/Engineered_Flooring/Cone/Engineered_Flooring_HRRPUA_25.csv
Time after Ignition,Engineered_Flooring_R1,Engineered_Flooring_R2,Engineered_Flooring_R3,Mean,Std. Dev.
0.0,1.3,18.4,16.6,12.1,9.4
2.0,22.9,76.5,60.7,53.3,27.5
4.0,48.3,137.1,120.4,101.9,47.2
6.0,97.6,171.7,170.9,146.7,42.6
8.0,157.7,186.4,192.7,178.9,18.6
10.0,190.4,184.8,189.5,188.2,3.0
12.0,207.3,181.2,188.6,192.4,13.5
14.0,207.0,168.4,181.7,185.7,19.6
16.0,194.4,165.3,183.8,181.2,14.7
18.0,181.5,163.9,176.4,173.9,9.1
20.0,173.4,161.4,175.2,170.0,7.5
22.0,165.7,160.2,175.6,167.2,7.8
24.0,157.0,159.3,169.8,162.0,6.8
26.0,157.0,160.3,164.1,160.5,3.5
28.0,154.6,161.1,160.3,158.7,3.6
30.0,152.2,162.6,161.8,158.9,5.8
32.0,150.1,161.8,159.5,157.1,6.2
34.0,153.0,160.9,162.4,158.8,5.0
36.0,148.2,156.7,161.7,155.6,6.9
38.0,145.0,154.4,156.1,151.8,5.9
40.0,147.3,154.4,157.8,153.2,5.4
42.0,141.0,154.8,153.9,149.9,7.7
44.0,139.5,154.2,153.0,148.9,8.2
46.0,135.3,150.3,153.6,146.4,9.8
48.0,134.2,150.3,153.1,145.8,10.2
50.0,133.1,151.2,152.3,145.6,10.8
52.0,129.8,157.3,145.4,144.2,13.8
54.0,134.3,150.3,144.0,142.8,8.1
56.0,131.2,147.2,142.8,140.4,8.3
58.0,130.5,146.0,142.6,139.7,8.1
60.0,130.6,147.8,141.6,140.0,8.7
62.0,128.6,143.3,142.6,138.2,8.3
64.0,127.5,142.8,141.0,137.1,8.4
66.0,124.8,142.7,141.4,136.3,10.0
68.0,122.6,139.6,142.1,134.8,10.6
70.0,123.5,139.7,140.2,134.5,9.5
72.0,125.2,134.0,139.2,132.8,7.1
74.0,124.4,132.6,141.1,132.7,8.3
76.0,125.7,131.7,140.3,132.5,7.4
78.0,122.7,134.7,139.7,132.4,8.7
80.0,125.7,135.3,139.9,133.7,7.2
82.0,125.4,133.8,139.7,133.0,7.2
84.0,126.0,133.1,136.1,131.7,5.2
86.0,127.7,129.8,134.5,130.7,3.5
88.0,132.0,130.2,132.9,131.7,1.4
90.0,127.7,128.5,131.0,129.1,1.7
92.0,127.6,128.4,129.6,128.5,1.0
94.0,127.7,126.3,130.2,128.1,2.0
96.0,128.3,126.6,127.3,127.4,0.9
98.0,125.3,127.5,127.3,126.7,1.2
100.0,125.9,126.3,125.0,125.7,0.7
102.0,124.7,125.8,123.0,124.5,1.4
104.0,124.3,120.9,124.1,123.1,1.9
106.0,122.4,123.2,118.4,121.3,2.5
108.0,124.7,121.8,116.9,121.1,4.0
110.0,121.8,117.2,114.4,117.8,3.7
112.0,123.0,116.6,113.7,117.7,4.8
114.0,124.7,115.2,110.3,116.7,7.3
116.0,122.5,115.1,109.2,115.6,6.7
118.0,125.9,113.5,105.3,114.9,10.4
120.0,122.4,109.9,104.2,112.1,9.3
122.0,120.6,109.5,102.0,110.7,9.4
124.0,119.0,106.9,100.0,108.6,9.6
126.0,117.3,105.9,100.1,107.8,8.8
128.0,116.1,105.0,97.7,106.3,9.3
130.0,114.6,100.1,94.8,103.2,10.3
132.0,115.9,101.6,93.4,103.6,11.4
134.0,113.2,98.3,92.7,101.4,10.6
136.0,112.7,98.2,90.6,100.5,11.2
138.0,110.9,96.0,89.9,98.9,10.8
140.0,110.0,94.7,87.6,97.5,11.4
142.0,110.2,92.7,87.3,96.7,12.0
144.0,106.2,91.2,87.2,94.8,10.0
146.0,103.8,90.7,85.7,93.4,9.4
148.0,101.3,88.9,82.9,91.0,9.4
150.0,101.4,87.8,84.6,91.3,8.9
152.0,99.5,86.4,82.7,89.5,8.8
154.0,96.0,84.8,82.4,87.7,7.3
156.0,94.8,82.8,82.7,86.8,6.9
158.0,92.3,81.5,82.7,85.5,5.9
160.0,89.6,81.8,81.8,84.4,4.5
162.0,88.9,78.5,81.4,82.9,5.3
164.0,86.9,77.5,80.8,81.7,4.8
166.0,86.3,76.2,79.3,80.6,5.2
168.0,85.9,74.4,78.0,79.4,5.9
170.0,82.8,73.3,78.1,78.0,4.7
172.0,82.2,71.3,78.9,77.5,5.6
174.0,80.3,72.7,77.2,76.8,3.8
176.0,79.7,71.3,76.1,75.7,4.2
178.0,78.6,71.4,76.4,75.5,3.7
180.0,79.4,68.6,75.5,74.5,5.5
182.0,77.9,69.1,73.8,73.6,4.4
184.0,75.5,69.3,74.8,73.2,3.4
186.0,74.9,69.2,73.7,72.6,3.0
188.0,74.4,69.1,73.9,72.4,2.9
190.0,73.2,69.0,74.8,72.3,3.0
192.0,73.4,67.3,72.5,71.1,3.3
194.0,71.4,67.7,72.4,70.5,2.5
196.0,71.2,68.3,72.2,70.5,2.0
198.0,71.4,67.2,72.3,70.3,2.7
200.0,68.3,68.0,71.1,69.1,1.7
202.0,68.7,66.6,72.0,69.1,2.7
204.0,68.4,65.2,70.9,68.2,2.8
206.0,68.9,65.8,71.4,68.7,2.8
208.0,67.6,66.8,71.7,68.7,2.7
210.0,68.0,66.7,74.2,69.6,4.0
212.0,68.0,66.0,72.5,68.8,3.3
214.0,67.6,66.8,71.1,68.5,2.3
216.0,68.3,66.3,71.5,68.7,2.6
218.0,67.7,67.7,70.6,68.7,1.7
220.0,67.4,67.1,72.1,68.9,2.8
222.0,66.8,67.9,70.2,68.3,1.7
224.0,67.6,68.2,72.5,69.5,2.7
226.0,66.9,67.1,71.8,68.6,2.8
228.0,67.9,66.9,72.6,69.1,3.0
230.0,67.5,68.9,72.3,69.5,2.5
232.0,67.4,68.0,73.1,69.5,3.2
234.0,67.4,69.3,72.1,69.6,2.4
236.0,68.0,71.0,71.3,70.1,1.9
238.0,68.9,70.1,71.9,70.3,1.5
240.0,68.8,72.3,72.1,71.1,1.9
242.0,71.3,73.7,72.8,72.6,1.2
244.0,70.7,74.2,74.3,73.1,2.1
246.0,71.1,74.5,74.8,73.5,2.1
248.0,71.8,74.5,74.5,73.6,1.5
250.0,71.5,77.0,75.0,74.5,2.8
252.0,74.9,77.1,75.0,75.7,1.2
254.0,74.7,79.0,76.1,76.6,2.2
256.0,73.7,80.2,77.9,77.3,3.3
258.0,74.7,81.4,78.2,78.1,3.4
260.0,76.1,82.5,79.1,79.3,3.2
262.0,77.6,83.3,81.1,80.6,2.9
264.0,78.9,83.9,82.8,81.8,2.6
266.0,79.5,86.7,85.4,83.9,3.8
268.0,79.1,88.8,88.1,85.3,5.4
270.0,80.6,90.0,89.4,86.7,5.3
272.0,85.1,90.7,91.1,89.0,3.3
274.0,86.9,94.0,91.8,90.9,3.6
276.0,90.4,97.1,94.0,93.9,3.4
278.0,92.5,99.9,95.7,96.0,3.7
280.0,92.5,101.8,97.6,97.3,4.7
282.0,95.9,103.5,98.2,99.2,3.9
284.0,96.0,105.7,100.8,100.8,4.9
286.0,99.1,108.3,103.0,103.5,4.6
288.0,103.0,109.8,106.9,106.6,3.4
290.0,107.6,112.8,108.5,109.7,2.8
292.0,105.8,112.2,107.4,108.5,3.3
294.0,108.3,115.3,112.7,112.1,3.5
296.0,110.5,118.3,112.7,113.8,4.0
298.0,114.3,120.8,116.1,117.1,3.4
300.0,117.0,123.9,116.2,119.0,4.3
302.0,118.3,128.0,120.4,122.2,5.1
304.0,119.4,128.1,120.7,122.7,4.7
306.0,119.5,130.4,124.3,124.7,5.4
308.0,121.9,129.4,126.4,125.9,3.8
310.0,122.7,130.6,128.8,127.4,4.1
312.0,124.8,131.4,130.4,128.9,3.6
314.0,124.7,132.8,129.0,128.8,4.0
316.0,126.2,136.0,132.3,131.5,4.9
318.0,127.5,137.6,130.4,131.9,5.2
320.0,129.5,138.5,131.2,133.0,4.8
322.0,130.2,139.2,133.0,134.2,4.6
324.0,133.2,142.5,133.9,136.5,5.1
326.0,134.6,141.0,135.2,136.9,3.5
328.0,133.1,143.4,137.9,138.1,5.2
330.0,134.3,145.2,137.2,138.9,5.6
332.0,136.6,143.7,142.5,140.9,3.8
334.0,139.0,145.8,144.2,143.0,3.6
336.0,145.0,143.9,146.5,145.1,1.3
338.0,145.2,147.4,147.2,146.6,1.2
340.0,143.3,148.2,148.0,146.5,2.8
342.0,146.3,149.4,150.9,148.9,2.3
344.0,147.0,150.4,149.3,148.9,1.7
346.0,145.9,152.6,147.6,148.7,3.5
348.0,148.2,150.1,151.0,149.7,1.4
350.0,151.0,153.2,151.0,151.7,1.3
352.0,150.3,155.5,149.6,151.8,3.2
354.0,151.4,154.9,149.6,152.0,2.7
356.0,153.9,156.7,151.9,154.1,2.4
358.0,156.9,156.2,152.9,155.3,2.2
360.0,153.6,158.9,149.3,153.9,4.8
362.0,157.1,162.4,150.4,156.7,6.0
364.0,155.9,163.7,150.0,156.5,6.9
366.0,157.6,165.6,151.0,158.0,7.3
368.0,158.3,171.6,152.9,160.9,9.6
370.0,160.5,172.1,153.8,162.2,9.3
372.0,162.3,173.1,154.9,163.4,9.1
374.0,164.2,175.6,156.1,165.3,9.8
376.0,161.7,180.3,158.1,166.7,11.9
378.0,162.8,182.7,157.3,167.6,13.4
380.0,164.2,186.6,160.6,170.4,14.1
382.0,166.3,190.3,161.4,172.7,15.4
384.0,170.3,195.4,165.0,176.9,16.3
386.0,169.2,210.2,166.3,181.9,24.6
388.0,173.2,208.1,170.0,183.8,21.1
390.0,178.7,215.0,175.6,189.8,21.9
392.0,178.2,218.6,180.4,192.4,22.7
394.0,185.9,229.6,183.4,199.6,26.0
396.0,191.9,233.9,186.1,204.0,26.1
398.0,199.2,240.5,192.9,210.9,25.9
400.0,201.7,247.4,200.7,216.6,26.7
402.0,215.3,255.4,206.8,225.8,25.9
404.0,220.5,258.2,212.3,230.4,24.5
406.0,229.5,260.0,218.3,235.9,21.6
408.0,243.7,267.3,228.2,246.4,19.7
410.0,250.4,267.4,237.0,251.6,15.2
412.0,257.4,272.7,242.7,257.6,15.0
414.0,264.3,275.1,252.3,263.9,11.4
416.0,272.3,273.3,260.3,268.6,7.2
418.0,273.4,268.5,262.0,267.9,5.7
420.0,276.0,271.3,261.6,269.6,7.3
422.0,282.1,271.7,269.5,274.4,6.8
424.0,284.1,264.3,268.0,272.2,10.5
426.0,283.5,267.9,271.1,274.2,8.2
428.0,294.1,265.9,271.2,277.0,15.0
430.0,285.8,264.5,265.2,271.8,12.1
432.0,288.9,274.2,266.3,276.5,11.5
434.0,282.4,277.2,269.5,276.3,6.5
436.0,278.2,279.2,262.8,273.4,9.2
438.0,281.8,282.1,267.8,277.3,8.2
440.0,273.3,278.7,273.5,275.2,3.0
442.0,278.3,287.0,273.1,279.5,7.0
444.0,277.0,286.1,279.4,280.8,4.7
446.0,276.0,279.7,283.2,279.6,3.6
448.0,279.0,269.4,289.5,279.3,10.0
450.0,277.1,267.0,284.1,276.0,8.6
452.0,273.1,258.9,289.1,273.7,15.1
454.0,272.2,244.8,295.0,270.6,25.2
456.0,268.1,232.5,287.6,262.7,27.9
458.0,260.4,225.8,285.6,257.3,30.0
460.0,259.0,218.9,289.4,255.8,35.4
462.0,254.4,206.1,286.5,249.0,40.5
464.0,251.8,203.8,285.4,247.0,41.0
466.0,246.5,192.7,283.2,240.8,45.5
468.0,241.1,190.9,276.2,236.1,42.9
470.0,237.7,181.1,275.7,231.5,47.6
472.0,228.3,173.2,257.5,219.7,42.8
474.0,219.3,166.7,251.6,212.6,42.8
476.0,212.6,160.1,247.8,206.8,44.1
478.0,204.6,152.1,239.4,198.7,44.0
480.0,198.1,144.3,223.8,188.7,40.6
482.0,189.6,136.4,218.2,181.4,41.5
484.0,182.7,127.6,207.6,172.6,40.9
486.0,175.4,121.3,195.3,164.0,38.3
488.0,167.6,113.5,185.1,155.4,37.3
490.0,162.9,109.6,176.7,149.7,35.5
492.0,153.1,103.5,168.5,141.7,34.0
494.0,143.0,100.2,159.8,134.3,30.7
496.0,132.4,95.2,150.4,126.0,28.2
498.0,127.2,91.8,144.1,121.1,26.7
500.0,119.8,89.9,138.3,116.0,24.4
502.0,111.4,86.6,129.2,109.0,21.4
504.0,103.1,84.2,124.7,104.0,20.3
506.0,99.4,81.9,115.3,98.9,16.7
508.0,94.3,81.1,109.7,95.0,14.3
510.0,91.7,79.0,105.3,92.0,13.2
512.0,86.2,76.7,101.4,88.1,12.4
514.0,82.9,74.5,94.5,84.0,10.0
516.0,77.1,72.8,90.2,80.0,9.1
518.0,73.9,70.6,82.2,75.6,6.0
520.0,70.6,70.5,79.4,73.5,5.1
522.0,66.3,67.7,75.9,70.0,5.2
524.0,62.8,66.5,71.6,67.0,4.4
526.0,59.2,64.3,67.5,63.7,4.2
528.0,55.8,61.7,62.5,60.0,3.7
530.0,53.1,60.1,60.2,57.8,4.0
532.0,51.2,58.7,54.8,54.9,3.7
534.0,49.1,57.9,51.3,52.8,4.6
536.0,48.5,54.3,48.0,50.3,3.5
538.0,47.3,53.0,45.5,48.6,3.9
540.0,45.0,51.8,42.3,46.3,4.9
542.0,43.4,51.3,39.6,44.8,6.0
544.0,41.2,48.8,38.3,42.8,5.5
546.0,39.2,46.6,37.3,41.0,4.9
548.0,37.6,43.6,35.6,38.9,4.1
550.0,36.6,42.3,33.6,37.5,4.4
552.0,34.7,39.8,31.9,35.5,4.0
554.0,34.2,38.2,30.3,34.2,4.0
556.0,32.8,37.9,30.4,33.7,3.8
558.0,32.3,38.1,29.1,33.2,4.5
560.0,31.4,37.9,28.3,32.5,4.9
562.0,29.7,37.3,27.3,31.4,5.2
564.0,28.2,36.6,26.6,30.5,5.4
566.0,27.7,34.6,26.7,29.7,4.3
568.0,26.2,32.8,26.4,28.5,3.7
570.0,25.7,30.6,25.9,27.4,2.7
572.0,25.0,28.4,25.1,26.2,1.9
574.0,24.3,26.6,24.2,25.0,1.4
576.0,23.5,26.3,23.9,24.6,1.5
578.0,21.5,26.8,23.6,24.0,2.7
580.0,20.0,28.0,23.4,23.8,4.0
582.0,20.3,28.0,23.2,23.8,3.9
584.0,21.4,27.2,22.7,23.8,3.0
586.0,23.0,26.1,22.5,23.9,2.0
588.0,23.5,24.5,22.4,23.5,1.0