File: 01_Data/Engineered_Flooring/Cone/Engineered_Flooring_HRRPUA_50.csv
Time after Ignition,Engineered_Flooring_R1,Engineered_Flooring_R2,Engineered_Flooring_R3,Mean,Std. Dev.
0.0,18.2,31.2,20.4,23.2,7.0
4.25,175.6,204.2,160.2,180.0,22.3
8.5,285.1,281.4,252.2,272.9,18.0
12.75,291.1,284.0,270.4,281.8,10.6
17.0,278.8,279.4,275.5,277.9,2.1
21.25,275.1,283.0,283.7,280.6,4.8
25.5,290.0,301.6,297.2,296.3,5.9
29.75,300.9,305.3,304.1,303.4,2.3
34.0,297.2,299.3,299.9,298.8,1.4
38.25,286.9,289.6,284.1,286.8,2.7
42.5,265.4,268.8,266.9,267.0,1.7
46.75,248.7,253.6,252.0,251.4,2.5
51.0,229.9,235.0,234.2,233.1,2.7
55.25,219.5,220.6,221.1,220.4,0.8
59.5,210.5,207.3,206.1,208.0,2.3
63.75,196.8,194.1,197.2,196.1,1.7
68.0,186.8,193.2,189.3,189.7,3.2
72.25,177.6,183.4,181.4,180.8,3.0
76.5,172.4,179.9,172.6,175.0,4.3
80.75,166.2,174.2,167.4,169.3,4.3
85.0,162.2,167.8,162.8,164.3,3.1
89.25,159.3,161.7,157.3,159.5,2.2
93.5,154.3,160.5,156.2,157.0,3.2
97.75,152.5,156.6,150.6,153.2,3.0
102.0,150.4,157.3,150.7,152.8,3.9
106.25,151.3,156.3,151.4,153.0,2.8
110.5,149.3,156.3,149.0,151.5,4.1
114.75,147.3,154.1,146.1,149.2,4.3
119.0,145.8,154.1,149.5,149.8,4.2
123.25,148.5,153.4,148.0,150.0,3.0
127.5,146.2,151.7,145.8,147.9,3.3
131.75,150.0,152.1,146.5,149.5,2.8
136.0,148.2,151.4,147.7,149.1,2.0
140.25,146.8,153.4,144.4,148.2,4.7
144.5,146.2,154.4,147.1,149.2,4.5
148.75,146.8,153.8,146.3,148.9,4.2
153.0,146.3,151.6,145.8,147.9,3.2
157.25,145.4,152.3,143.3,147.0,4.7
161.5,146.4,155.3,147.4,149.7,4.9
165.75,149.8,153.6,145.5,149.6,4.1
170.0,148.3,153.5,145.0,148.9,4.3
174.25,147.3,151.5,144.7,147.8,3.4
178.5,147.3,152.6,147.4,149.1,3.0
182.75,146.0,150.3,146.9,147.7,2.3
187.0,148.8,153.8,148.2,150.3,3.1
191.25,147.8,154.9,147.7,150.1,4.1
195.5,144.3,156.9,150.7,150.7,6.3
199.75,153.6,157.1,152.4,154.4,2.4
204.0,152.2,154.6,151.9,152.9,1.5
208.25,155.1,155.2,156.7,155.7,0.9
212.5,158.2,158.5,152.2,156.3,3.6
216.75,156.7,163.5,156.2,158.8,4.1
221.0,157.8,164.6,163.5,161.9,3.7
225.25,162.1,168.8,163.4,164.8,3.5
229.5,164.1,171.9,163.3,166.4,4.7
233.75,171.1,176.2,166.9,171.4,4.7
238.0,174.2,183.7,173.5,177.1,5.7
242.25,180.1,188.4,179.2,182.6,5.0
246.5,181.7,197.8,182.7,187.4,9.0
250.75,190.6,202.8,186.7,193.4,8.4
255.0,194.0,204.1,195.5,197.8,5.4
259.25,195.5,209.1,196.7,200.4,7.5
263.5,204.7,216.8,196.9,206.1,10.1
267.75,207.3,223.9,208.3,213.2,9.3
272.0,217.7,230.1,217.4,221.7,7.2
276.25,225.6,245.0,225.0,231.9,11.3
280.5,239.0,249.2,231.3,239.8,8.9
284.75,243.5,254.1,233.2,243.6,10.4
289.0,243.3,263.2,247.7,251.4,10.5
293.25,254.7,264.8,256.9,258.8,5.3
297.5,253.7,279.2,271.6,268.2,13.1
301.75,259.8,282.8,276.3,272.9,11.9
306.0,272.3,287.8,282.5,280.9,7.9
310.25,280.4,289.3,293.0,287.6,6.5
314.5,288.9,307.9,298.8,298.5,9.5
318.75,295.0,312.4,309.2,305.6,9.3
323.0,316.7,325.2,311.8,317.9,6.8
327.25,328.7,334.2,323.7,328.9,5.3
331.5,349.7,340.8,335.8,342.1,7.0
335.75,359.4,355.6,350.3,355.1,4.5
340.0,368.0,355.6,351.0,358.2,8.8
344.25,356.3,344.5,349.4,350.1,6.0
348.5,335.8,328.2,329.9,331.3,4.0
352.75,294.0,312.8,313.3,306.7,11.0
357.0,269.2,297.0,292.2,286.1,14.8
361.25,241.3,275.4,272.6,263.1,18.9
365.5,221.3,252.2,250.1,241.2,17.3
369.75,199.3,215.3,215.8,210.1,9.4
374.0,168.9,175.1,182.3,175.4,6.7
378.25,147.5,144.2,150.2,147.3,3.0
382.5,120.9,119.2,113.1,117.7,4.1
386.75,96.9,93.4,88.9,93.0,4.0
391.0,82.3,80.5,73.3,78.7,4.8
395.25,69.5,71.2,63.0,67.9,4.3
399.5,58.6,65.5,55.8,60.0,5.0
403.75,52.0,62.1,51.2,55.1,6.0
408.0,48.9,57.8,48.0,51.6,5.4
412.25,45.5,56.0,45.8,49.1,6.0
416.5,44.1,54.4,45.2,47.9,5.6
420.75,41.8,52.8,43.4,46.0,6.0
425.0,42.0,50.7,42.8,45.2,4.8
429.25,40.7,51.4,41.4,44.5,6.0
433.5,39.6,49.4,40.9,43.3,5.3
437.75,39.0,48.4,40.8,42.8,5.0
442.0,37.9,48.2,40.6,42.2,5.4
446.25,37.3,47.1,40.7,41.7,5.0
450.5,36.1,46.6,39.9,40.9,5.3
454.75,36.6,45.8,40.0,40.8,4.6
459.0,36.5,45.5,39.2,40.4,4.6
463.25,36.0,44.2,38.6,39.6,4.2
467.5,34.5,44.0,39.0,39.2,4.8
471.75,36.4,42.3,38.9,39.2,3.0
476.0,37.0,42.7,38.0,39.3,3.0
480.25,35.8,42.3,38.0,38.7,3.3
484.5,36.3,41.7,38.3,38.8,2.7
488.75,35.7,42.5,38.6,38.9,3.4
493.0,35.4,40.7,38.1,38.1,2.7
497.25,35.5,40.8,37.3,37.8,2.7
501.5,36.2,40.8,35.8,37.6,2.8
505.75,35.0,40.7,35.9,37.2,3.1
510.0,35.3,39.3,36.3,37.0,2.1
514.25,35.1,39.2,38.9,37.7,2.3
518.5,34.0,39.8,39.1,37.6,3.1
522.75,33.8,40.0,37.9,37.2,3.1
527.0,32.8,39.5,37.1,36.5,3.3
531.25,33.0,38.9,35.2,35.7,3.0
535.5,33.7,39.1,35.2,36.0,2.8
539.75,34.9,38.9,35.4,36.4,2.2
544.0,34.9,38.0,34.6,35.8,1.9
548.25,35.2,38.1,34.6,36.0,1.9
552.5,36.2,39.2,34.1,36.5,2.5
556.75,35.6,38.2,34.3,36.0,2.0
561.0,34.6,38.1,34.9,35.9,2.0
565.25,34.8,37.1,36.0,36.0,1.2
569.5,34.1,35.7,36.0,35.2,1.0
573.75,33.7,36.2,35.1,35.0,1.2
578.0,34.1,36.5,34.6,35.1,1.3
582.25,32.7,36.5,34.5,34.6,1.9
586.5,33.0,36.0,35.2,34.7,1.5
590.75,32.6,35.9,35.5,34.6,1.8
595.0,33.1,35.5,34.7,34.4,1.2
599.25,32.9,34.8,33.7,33.8,0.9
603.5,32.5,37.9,34.0,34.8,2.8
607.75,32.9,38.9,34.1,35.3,3.1
612.0,32.3,38.5,34.6,35.1,3.1
616.25,31.4,38.3,35.2,34.9,3.4
620.5,32.6,36.7,35.1,34.8,2.1
624.75,32.8,36.6,34.5,34.6,1.9
629.0,32.3,35.7,33.6,33.8,1.7
633.25,31.4,36.3,33.0,33.6,2.5
637.5,31.2,35.7,32.9,33.3,2.2
641.75,31.9,35.6,33.3,33.6,1.9
646.0,32.8,37.0,33.2,34.3,2.3
650.25,32.4,36.5,32.6,33.8,2.3
654.5,31.6,35.9,32.7,33.4,2.3
658.75,30.5,36.3,33.1,33.3,2.9
663.0,29.4,36.9,32.8,33.0,3.8
667.25,29.1,37.9,32.8,33.2,4.4
671.5,29.6,39.0,32.1,33.6,4.9
675.75,30.0,39.3,31.7,33.7,4.9
680.0,30.1,39.4,32.1,33.9,4.9
684.25,30.0,38.8,33.1,34.0,4.5
688.5,29.6,38.5,33.6,33.9,4.5
692.75,29.3,38.3,33.7,33.7,4.5
697.0,30.3,38.2,33.6,34.0,4.0
701.25,32.2,38.5,33.5,34.7,3.3
705.5,32.1,39.4,32.9,34.8,4.0
709.75,31.3,39.5,33.0,34.6,4.3
714.0,31.5,38.7,32.5,34.2,3.9
718.25,31.9,38.7,33.2,34.6,3.6
722.5,31.8,38.3,33.4,34.5,3.4
726.75,32.1,38.0,32.4,34.2,3.3
731.0,32.1,38.0,31.1,33.7,3.7
735.25,31.6,37.7,31.3,33.5,3.6
739.5,30.1,37.7,31.5,33.1,4.0
743.75,31.6,37.6,31.8,33.7,3.4
748.0,32.2,37.3,32.7,34.1,2.8
752.25,31.1,37.6,32.5,33.7,3.4
756.5,30.9,38.2,33.4,34.2,3.7
760.75,29.8,38.8,33.0,33.9,4.6
765.0,30.3,38.0,32.5,33.6,4.0
769.25,29.8,39.0,31.3,33.4,4.9
773.5,29.9,38.9,31.3,33.4,4.8
777.75,30.2,38.6,31.9,33.6,4.4
782.0,30.0,40.2,32.0,34.1,5.4
786.25,29.6,39.7,32.3,33.9,5.2
790.5,30.9,39.0,31.1,33.6,4.6
794.75,29.7,38.8,30.7,33.1,5.0
799.0,29.1,38.7,31.2,33.0,5.0
803.25,29.4,38.1,31.1,32.9,4.6
807.5,30.3,39.2,31.6,33.7,4.8
811.75,30.1,40.5,31.9,34.2,5.6
816.0,30.6,39.3,32.1,34.0,4.7
820.25,30.5,38.9,31.1,33.5,4.7
824.5,29.4,38.0,30.8,32.7,4.6
828.75,30.7,37.1,30.4,32.7,3.8
833.0,30.3,37.5,31.5,33.1,3.8
837.25,30.2,37.1,31.7,33.0,3.6
841.5,30.5,37.1,31.9,33.2,3.5
845.75,30.1,36.9,31.6,32.9,3.5
850.0,29.4,36.7,31.4,32.5,3.8
854.25,29.5,37.3,30.5,32.5,4.3
858.5,31.7,37.4,31.1,33.4,3.5
862.75,31.3,36.5,31.6,33.1,2.9
867.0,30.4,36.7,32.5,33.2,3.2
871.25,29.7,36.2,32.3,32.7,3.3
875.5,28.5,36.5,32.7,32.6,4.0
879.75,29.3,36.9,33.4,33.2,3.8
884.0,30.3,37.1,32.7,33.4,3.5
888.25,31.8,36.5,31.6,33.3,2.8
892.5,31.3,36.0,31.6,33.0,2.6
896.75,31.1,35.7,30.6,32.5,2.8
901.0,30.0,36.4,31.3,32.6,3.4
905.25,30.2,36.2,32.0,32.8,3.0
909.5,29.6,36.6,32.2,32.8,3.5
913.75,30.3,37.9,32.3,33.5,3.9
918.0,29.9,37.8,32.0,33.2,4.1
922.25,29.3,37.1,32.7,33.1,3.9
926.5,28.7,37.5,33.0,33.1,4.4
930.75,29.6,37.0,32.2,32.9,3.7
935.0,30.1,35.7,31.5,32.4,2.9
939.25,29.7,33.8,31.8,31.8,2.0
943.5,29.4,34.0,31.6,31.6,2.3
947.75,29.1,34.3,32.8,32.1,2.7
952.0,29.1,34.0,31.8,31.6,2.5
956.25,29.8,34.3,32.1,32.1,2.3
960.5,29.0,34.5,32.1,31.9,2.8
964.75,28.6,35.4,33.6,32.5,3.5
969.0,28.4,35.2,33.3,32.3,3.5
973.25,28.8,34.8,34.0,32.6,3.3
977.5,28.6,35.3,35.6,33.1,3.9
981.75,28.4,36.4,35.3,33.4,4.3
986.0,28.8,36.3,34.2,33.1,3.9
990.25,29.5,36.5,33.5,33.1,3.5
994.5,28.5,36.4,31.7,32.2,4.0
998.75,28.6,36.7,31.9,32.4,4.1
1003.0,28.0,36.1,31.9,32.0,4.1
1007.25,28.3,37.5,31.1,32.3,4.7
1011.5,27.9,36.8,31.2,32.0,4.5
1015.75,27.8,37.6,31.8,32.4,5.0
1020.0,27.9,37.1,31.3,32.1,4.6
1024.25,28.9,36.1,31.1,32.0,3.7
1028.5,29.8,37.6,31.4,33.0,4.1
1032.75,29.1,37.2,,33.2,5.8
1037.0,29.4,36.3,,32.9,4.9
1041.25,29.2,36.4,,32.8,5.1
1045.5,29.2,36.5,,32.8,5.2
1049.75,28.9,36.6,,32.7,5.4
1054.0,28.4,36.7,,32.6,5.9
1058.25,28.0,35.6,,31.8,5.4
1062.5,28.5,34.6,,31.5,4.3
1066.75,29.6,36.1,,32.8,4.6
1071.0,29.2,37.3,,33.2,5.7
1075.25,28.2,38.0,,33.1,6.9
1079.5,28.3,36.6,,32.4,5.9
1083.75,28.7,35.8,,32.3,5.0
1088.0,29.6,35.7,,32.7,4.4
1092.25,29.5,35.9,,32.7,4.5
1096.5,29.0,35.7,,32.4,4.7
1100.75,29.1,36.2,,32.7,5.0
1105.0,29.0,36.6,,32.8,5.3
1109.25,29.0,36.0,,32.5,5.0
1113.5,28.3,36.1,,32.2,5.5
1117.75,28.1,35.0,,31.6,4.9
1122.0,27.8,35.2,,31.5,5.2
1126.25,28.0,36.2,,32.1,5.8
1130.5,28.4,37.8,,33.1,6.6
1134.75,28.5,38.2,,33.3,6.9
1139.0,28.8,39.4,,34.1,7.6
1143.25,28.3,39.0,,33.7,7.6
1147.5,28.2,37.3,,32.8,6.5
1151.75,29.8,36.3,,33.0,4.6
1156.0,30.1,35.4,,32.8,3.8
1160.25,30.2,35.2,,32.7,3.5
1164.5,28.4,35.0,,31.7,4.7
1168.75,28.5,35.6,,32.1,5.0
1173.0,29.1,35.2,,32.2,4.4
1177.25,29.4,35.4,,32.4,4.3
1181.5,29.2,35.2,,32.2,4.2
1185.75,29.4,34.5,,32.0,3.6
1190.0,30.5,33.9,,32.2,2.4
1194.25,30.5,34.3,,32.4,2.7
1198.5,31.8,34.6,,33.2,2.0
1202.75,31.0,34.1,,32.5,2.2
1207.0,29.8,34.9,,32.4,3.6
1211.25,29.8,34.3,,32.1,3.1
1215.5,29.8,33.5,,31.7,2.6
1219.75,30.0,33.4,,31.7,2.4
1224.0,29.0,31.2,,30.1,1.5
1228.25,28.9,31.6,,30.2,1.9
1232.5,27.1,34.3,,30.7,5.1
1236.75,26.9,37.8,,32.3,7.7
1241.0,27.1,39.1,,33.1,8.5
1245.25,27.7,38.9,,33.3,7.9
1249.5,30.0,38.8,,34.4,6.2
1251.5,31.3,37.7,,34.5,4.6