File: 01_Data/Wool_Rug/Cone/Wool_Rug_HRRPUA_50.csv
Time after Ignition,Wool_Rug_R1,Wool_Rug_R2,Wool_Rug_R3,Mean,Std. Dev.
0.0,7.8,9.1,11.3,9.4,1.8
1.5,50.7,33.1,49.4,44.4,9.8
3.0,131.8,122.7,125.5,126.7,4.7
4.5,207.9,211.5,217.1,212.2,4.6
6.0,261.1,286.4,285.6,277.7,14.4
7.5,296.1,326.0,317.5,313.2,15.4
9.0,324.2,340.9,339.9,335.0,9.4
10.5,338.2,348.6,353.1,346.6,7.6
12.0,333.8,347.1,343.9,341.6,7.0
13.5,323.9,346.2,334.4,334.8,11.1
15.0,319.0,333.6,329.0,327.2,7.5
16.5,300.5,325.2,315.2,313.6,12.4
18.0,293.6,307.2,304.4,301.7,7.2
19.5,281.6,295.5,296.4,291.2,8.3
21.0,278.1,293.2,288.8,286.7,7.8
22.5,271.8,285.2,284.6,280.5,7.6
24.0,262.8,274.5,277.0,271.4,7.5
25.5,258.3,263.3,268.1,263.2,4.9
27.0,250.0,262.6,265.4,259.3,8.2
28.5,245.5,259.4,249.1,251.3,7.2
30.0,244.4,253.0,245.7,247.7,4.6
31.5,239.8,246.6,236.2,240.9,5.3
33.0,231.2,239.5,234.8,235.2,4.2
34.5,225.9,235.1,230.8,230.6,4.6
36.0,220.7,226.9,222.1,223.2,3.2
37.5,215.9,222.8,215.2,218.0,4.2
39.0,212.7,220.1,205.9,212.9,7.1
40.5,211.7,216.0,202.3,210.0,7.0
42.0,203.3,213.3,200.0,205.5,6.9
43.5,197.2,208.6,194.7,200.2,7.4
45.0,198.2,207.6,194.5,200.1,6.7
46.5,196.1,203.6,192.2,197.3,5.8
48.0,195.2,195.6,184.8,191.9,6.2
49.5,189.6,193.6,187.5,190.2,3.1
51.0,180.4,189.6,185.5,185.2,4.6
52.5,179.7,186.8,183.4,183.3,3.6
54.0,175.1,183.2,182.0,180.1,4.4
55.5,176.4,182.6,179.9,179.6,3.1
57.0,172.1,179.3,173.3,174.9,3.9
58.5,169.4,180.1,173.1,174.2,5.4
60.0,169.3,175.9,169.9,171.7,3.6
61.5,168.3,172.0,166.9,169.1,2.6
63.0,165.5,174.3,165.5,168.4,5.1
64.5,161.5,171.6,164.7,165.9,5.2
66.0,157.2,168.8,158.6,161.6,6.3
67.5,155.4,168.6,159.0,161.0,6.8
69.0,152.6,168.2,154.9,158.6,8.5
70.5,151.2,165.0,151.6,155.9,7.8
72.0,148.8,165.0,151.3,155.0,8.7
73.5,147.4,164.0,149.7,153.7,9.0
75.0,145.5,163.8,149.0,152.8,9.7
76.5,143.8,161.7,146.7,150.7,9.6
78.0,144.0,161.6,146.2,150.6,9.6
79.5,143.6,159.2,145.7,149.5,8.5
81.0,142.4,159.5,146.1,149.3,9.0
82.5,141.3,160.2,146.5,149.3,9.8
84.0,140.0,160.6,144.5,148.4,10.8
85.5,139.3,164.0,144.8,149.3,13.0
87.0,135.7,159.8,148.1,147.9,12.1
88.5,133.7,159.3,149.4,147.5,12.9
90.0,131.4,159.4,151.1,147.3,14.4
91.5,134.0,158.7,151.8,148.2,12.7
93.0,131.8,160.1,150.9,147.6,14.4
94.5,133.8,158.0,153.8,148.6,12.9
96.0,130.6,155.8,153.2,146.5,13.8
97.5,133.6,156.4,154.9,148.3,12.8
99.0,131.8,155.5,155.4,147.6,13.7
100.5,131.4,153.6,153.5,146.2,12.8
102.0,129.8,152.9,153.9,145.5,13.6
103.5,132.9,154.4,148.7,145.3,11.1
105.0,132.1,152.9,149.5,144.8,11.2
106.5,130.8,153.9,149.1,144.6,12.2
108.0,131.0,153.2,147.6,143.9,11.5
109.5,130.8,151.6,146.1,142.9,10.8
111.0,129.8,152.1,143.4,141.8,11.2
112.5,130.3,152.7,142.9,142.0,11.2
114.0,131.2,153.0,142.8,142.3,10.9
115.5,129.0,150.5,142.1,140.5,10.8
117.0,127.5,150.7,141.9,140.0,11.7
118.5,125.7,147.2,139.8,137.6,10.9
120.0,123.8,144.8,135.5,134.7,10.5
121.5,123.6,143.0,139.6,135.4,10.4
123.0,123.3,144.6,138.0,135.3,10.9
124.5,124.7,142.7,137.8,135.1,9.3
126.0,122.8,144.7,137.8,135.1,11.2
127.5,123.2,142.2,138.5,134.7,10.1
129.0,120.1,141.5,136.1,132.6,11.1
130.5,120.4,139.3,135.4,131.7,10.0
132.0,121.4,138.2,136.7,132.1,9.3
133.5,118.1,141.3,134.9,131.4,12.0
135.0,119.5,138.8,136.1,131.5,10.5
136.5,117.4,139.5,133.6,130.2,11.4
138.0,115.5,136.5,134.7,128.9,11.6
139.5,116.2,138.1,133.0,129.1,11.5
141.0,113.0,133.5,130.0,125.5,11.0
142.5,112.8,134.7,129.7,125.7,11.5
144.0,116.8,135.2,129.5,127.2,9.4
145.5,114.2,134.3,128.8,125.8,10.4
147.0,116.2,130.6,127.2,124.7,7.5
148.5,114.8,130.5,126.9,124.1,8.2
150.0,115.3,131.3,126.6,124.4,8.2
151.5,114.2,126.5,126.7,122.5,7.2
153.0,116.6,129.5,126.1,124.1,6.7
154.5,113.2,127.9,125.5,122.2,7.9
156.0,111.6,127.5,126.2,121.8,8.8
157.5,113.7,128.4,126.4,122.8,8.0
159.0,112.1,129.9,126.3,122.7,9.4
160.5,111.7,128.2,123.7,121.2,8.5
162.0,112.7,127.7,125.0,121.8,8.0
163.5,111.6,130.3,126.0,122.6,9.8
165.0,113.2,127.3,126.1,122.2,7.8
166.5,112.2,130.3,123.4,121.9,9.2
168.0,109.6,129.9,123.7,121.1,10.4
169.5,110.7,126.1,122.2,119.7,8.0
171.0,109.6,127.4,120.9,119.3,9.0
172.5,110.1,129.2,122.6,120.6,9.7
174.0,109.6,128.5,122.0,120.0,9.6
175.5,109.6,129.0,123.5,120.7,10.0
177.0,109.1,130.2,120.9,120.0,10.6
178.5,111.9,132.6,120.1,121.5,10.4
180.0,111.6,130.4,120.0,120.6,9.4
181.5,111.5,129.7,120.5,120.6,9.1
183.0,111.5,130.8,121.0,121.1,9.6
184.5,112.8,130.9,122.0,121.9,9.0
186.0,112.7,129.9,120.9,121.2,8.6
187.5,112.8,131.5,119.6,121.3,9.5
189.0,111.6,131.3,120.9,121.3,9.8
190.5,111.6,129.4,121.0,120.7,9.0
192.0,110.5,132.4,120.4,121.1,11.0
193.5,111.1,133.5,121.4,122.0,11.2
195.0,111.5,133.3,119.1,121.3,11.1
196.5,110.6,132.0,119.4,120.7,10.8
198.0,112.6,132.7,119.1,121.5,10.2
199.5,111.2,132.4,118.2,120.6,10.8
201.0,114.3,132.6,119.9,122.3,9.4
202.5,112.0,132.0,118.5,120.8,10.2
204.0,112.9,133.9,116.0,120.9,11.4
205.5,110.6,134.4,117.5,120.8,12.2
207.0,111.1,135.2,114.1,120.1,13.1
208.5,112.3,134.8,116.8,121.3,11.9
210.0,113.4,133.4,114.3,120.4,11.3
211.5,113.1,133.0,115.3,120.5,10.9
213.0,111.7,134.4,112.7,119.6,12.8
214.5,110.9,134.4,110.3,118.5,13.7
216.0,110.2,132.9,112.4,118.5,12.5
217.5,113.0,135.0,112.6,120.2,12.8
219.0,111.4,131.4,112.7,118.5,11.2
220.5,111.8,132.4,113.7,119.3,11.4
222.0,114.4,135.5,111.5,120.5,13.1
223.5,113.5,134.0,111.0,119.5,12.6
225.0,112.9,132.4,111.1,118.8,11.8
226.5,114.0,136.5,111.0,120.5,13.9
228.0,113.7,132.3,111.4,119.1,11.4
229.5,112.3,128.5,112.2,117.7,9.4
231.0,113.1,130.0,113.5,118.9,9.6
232.5,113.9,128.4,112.9,118.4,8.7
234.0,114.1,129.1,113.3,118.8,8.9
235.5,114.1,128.3,115.0,119.2,8.0
237.0,114.5,128.0,116.7,119.7,7.3
238.5,114.1,126.0,117.0,119.0,6.2
240.0,114.0,126.5,116.3,119.0,6.6
241.5,116.0,125.8,115.5,119.1,5.8
243.0,113.4,124.2,113.9,117.2,6.1
244.5,114.0,124.4,114.0,117.5,6.0
246.0,113.0,122.3,115.0,116.8,4.9
247.5,112.7,121.8,115.2,116.6,4.7
249.0,112.1,121.3,113.6,115.7,4.9
250.5,111.1,120.5,113.7,115.1,4.9
252.0,110.0,119.7,111.9,113.9,5.1
253.5,108.5,118.2,113.2,113.3,4.9
255.0,109.9,116.4,111.4,112.6,3.4
256.5,109.3,117.6,109.5,112.1,4.7
258.0,109.0,114.6,106.9,110.2,4.0
259.5,109.6,115.6,108.8,111.3,3.7
261.0,110.7,112.9,106.5,110.0,3.2
262.5,108.5,116.5,105.7,110.2,5.6
264.0,107.3,115.9,105.6,109.6,5.5
265.5,107.5,115.1,103.7,108.8,5.8
267.0,107.4,115.2,102.1,108.2,6.6
268.5,108.2,116.3,103.6,109.4,6.5
270.0,107.6,116.8,102.9,109.1,7.1
271.5,104.9,116.0,102.5,107.8,7.2
273.0,104.3,116.6,98.6,106.5,9.2
274.5,104.8,117.1,98.3,106.8,9.5
276.0,105.9,117.0,97.1,106.7,10.0
277.5,105.3,115.6,96.3,105.8,9.7
279.0,104.9,116.9,96.4,106.1,10.3
280.5,105.7,115.8,97.5,106.4,9.1
282.0,104.4,111.0,99.5,105.0,5.8
283.5,105.7,113.6,99.0,106.1,7.3
285.0,106.5,111.1,99.3,105.6,6.0
286.5,105.0,108.0,99.6,104.2,4.2
288.0,104.3,105.0,98.3,102.5,3.6
289.5,104.6,102.4,99.4,102.1,2.6
291.0,105.7,100.6,97.3,101.2,4.2
292.5,105.0,99.0,98.0,100.6,3.8
294.0,103.9,97.0,99.1,100.0,3.5
295.5,104.4,92.2,98.3,98.3,6.1
297.0,104.8,87.2,99.6,97.2,9.0
298.5,102.6,87.4,98.4,96.1,7.8
300.0,100.8,82.7,98.8,94.1,9.9
301.5,101.3,79.4,97.2,92.6,11.7
303.0,98.9,74.0,97.9,90.3,14.1
304.5,97.8,71.6,96.1,88.5,14.6
306.0,97.8,69.1,95.3,87.4,15.9
307.5,96.2,66.6,94.5,85.8,16.6
309.0,96.4,62.7,92.7,83.9,18.5
310.5,93.3,59.6,89.0,80.6,18.3
312.0,92.4,56.3,86.7,78.5,19.4
313.5,90.3,53.5,84.1,76.0,19.7
315.0,90.4,50.8,82.1,74.5,20.9
316.5,89.3,48.3,79.0,72.2,21.3
318.0,88.6,47.0,76.9,70.8,21.5
319.5,85.2,45.3,74.6,68.4,20.7
321.0,83.1,43.5,71.9,66.2,20.4
322.5,82.1,41.7,68.0,63.9,20.5
324.0,82.4,40.0,66.9,63.1,21.4
325.5,79.1,38.4,63.2,60.2,20.5
327.0,81.1,37.4,62.6,60.4,21.9
328.5,78.7,36.4,59.6,58.3,21.2
330.0,76.8,35.4,57.1,56.4,20.7
331.5,74.9,35.3,55.4,55.2,19.8
333.0,73.8,34.7,52.0,53.5,19.6
334.5,74.0,34.7,50.6,53.1,19.8
336.0,72.0,34.3,49.5,51.9,18.9
337.5,71.9,34.1,47.7,51.2,19.1
339.0,70.3,33.3,45.1,49.6,18.9
340.5,69.2,32.7,42.8,48.2,18.9
342.0,69.0,32.3,42.3,47.9,19.0
343.5,68.3,32.0,40.0,46.8,19.1
345.0,67.6,30.8,38.6,45.7,19.4
346.5,65.9,31.5,37.7,45.0,18.3
348.0,64.5,31.5,36.8,44.2,17.7
349.5,62.9,31.0,36.6,43.5,17.0
351.0,62.4,30.8,36.3,43.2,16.9
352.5,59.7,30.6,35.7,42.0,15.5
354.0,59.1,30.1,34.6,41.3,15.6
355.5,57.9,30.6,34.6,41.0,14.8
357.0,55.8,30.2,33.6,39.9,13.9
358.5,55.4,,33.0,44.2,15.8
360.0,54.1,,31.7,42.9,15.9
361.5,53.0,,31.2,42.1,15.3
363.0,51.4,,30.5,41.0,14.8
364.5,50.9,,30.1,40.5,14.7
366.0,49.2,,28.9,39.1,14.3
367.5,50.3,,28.4,39.4,15.5
369.0,50.4,,28.4,39.4,15.5
370.5,50.1,,28.0,39.1,15.6
372.0,49.9,,27.9,38.9,15.5
373.5,48.7,,27.3,38.0,15.2
375.0,48.9,,26.8,37.9,15.6
376.5,46.7,,26.4,36.6,14.4
378.0,44.8,,,44.8,
379.5,43.8,,,43.8,
381.0,41.8,,,41.8,
382.5,40.0,,,40.0,
384.0,38.1,,,38.1,
385.5,37.3,,,37.3,
387.0,36.0,,,36.0,
388.5,35.1,,,35.1,
390.0,34.9,,,34.9,
391.5,34.9,,,34.9,
393.0,34.9,,,34.9,
394.5,34.5,,,34.5,
396.0,33.7,,,33.7,
397.5,33.4,,,33.4,
399.0,32.6,,,32.6,
400.5,31.9,,,31.9,
402.0,31.9,,,31.9,
403.5,31.7,,,31.7,
405.0,32.1,,,32.1,
406.5,32.4,,,32.4,
408.0,32.4,,,32.4,
409.5,31.7,,,31.7,
411.0,31.9,,,31.9,
412.5,31.7,,,31.7,
414.0,31.4,,,31.4,
415.5,30.9,,,30.9,
417.0,30.9,,,30.9,
418.5,30.5,,,30.5,
419.25,30.6,,,30.6,