File: 01_Data/Straw/Cone/Straw_Cone_HF35Scan_181018_R1.csv
Names,Time,Stack TC,Smoke TC,Exh Press,Smoke Comp,Smoke Meas,CO Meter,CO2 Meter,O2 Meter,Sample Mass,Ext Coeff,Start Test,Flame Verif
Chan Gain,,500,500,1,1,1,1,1,1,1,1,1,1
Offset,,0,0,0.14301,0,0,0,0,0,0,0,0,0
Gain,,1,1,25.011,13.5312,14.6783,1,1,1,1.00099,1.04424,1,1
Units,sec,C,C,Pa,%,%,%,%,%,g,/m,,
Baseline,,39.4811,41.3865,180.83,98.7539,97.5375,0.004117919,0.0528277,20.963,-0.908568,0.113591,,
10,2.25,37.7938,38.9953,178.244,98.4623,97.9306,0.004269773,0.0554183,20.9533,927.111,0.04959441,0,0
20,4.75,38.1534,39.5498,184.18,98.4511,96.7297,0.004192659,0.0573679,20.9503,926.82,0.161583,0,0
30,7.25,38.2857,39.7964,178.155,98.4474,95.0678,0.004539283,0.0591277,20.9491,926.91,0.3199808,0,0
40,9.75,38.8174,40.8932,169.864,98.4363,98.3942,0.005118948,0.073332,20.9085,926.69,0.003911654,0,1
50,12.25,41.1903,44.7254,173.766,98.4482,97.6457,0.005366811,0.109494,20.8443,926.62,0.0749753,0,1
60,14.75,42.3953,46.8346,169.424,98.4387,98.0946,0.005596728,0.139885,20.8196,926.05,0.0320823,0,0
70,17.25,43.9591,48.1851,173.283,98.4272,98.3965,0.005891613,0.159303,20.812,926.1,0.002857211,0,0
80,19.75,44.8506,49.4791,171.134,98.4354,97.2703,0.006051886,0.172724,20.8094,925.939,0.109065,0,0
90,22.25,45.0748,50.8201,171.022,98.4321,97.7331,0.006007296,0.182724,20.804,925.629,0.0652854,0,0
100,24.75,45.6779,51.7343,171.614,98.4313,96.5339,0.006097174,0.192067,20.7957,925.469,0.178295,0,0
110,27.25,46.8446,52.4103,169.713,98.4354,96.5124,0.006480782,0.201548,20.7861,925.279,0.180719,0,0
120,29.75,47.4546,53.9672,175.312,98.4383,98.1241,0.006840801,0.210229,20.7811,925.079,0.0292832,0,0
130,32.25,47.784,54.2871,171.19,98.4259,97.6632,0.00693519,0.216038,20.7785,924.808,0.0712607,0,0
140,34.75,48.4361,54.6387,167.49,98.428,97.5288,0.006982156,0.220047,20.779,924.598,0.0840663,0,0
150,37.25,48.4503,54.7897,173.869,98.409,97.1364,0.007233713,0.222457,20.7797,924.388,0.119227,0,0
160,39.75,49.1072,55.6505,171.921,98.4334,97.9396,0.007512809,0.223379,20.7812,924.208,0.0460673,0,0
170,42.25,48.9234,55.6394,169.832,98.4189,97.7631,0.00756908,0.222845,20.7835,924.008,0.0612437,0,0
180,44.75,49.5972,55.6937,165.821,98.4193,98.2486,0.007527186,0.222076,20.7848,923.797,0.0158982,0,0
190,47.25,49.0624,56.1401,168.801,98.4082,98.2854,0.007608383,0.221365,20.7865,923.627,0.0114366,0,0
200,49.75,49.6458,56.0248,170.691,98.4135,97.6327,0.007694668,0.220716,20.7872,923.427,0.072966,0,0
210,52.25,49.9783,56.0757,174.312,98.4193,97.5611,0.007663326,0.220429,20.787,923.257,0.0802309,0,0
220,54.75,49.6745,56.2956,170.97,98.4239,97.9064,0.007656421,0.219887,20.7886,923.027,0.0482845,0,0
230,57.25,49.9982,56.4098,172.711,98.4173,97.8424,0.007892112,0.218661,20.79,922.846,0.05366407,0,0
240,59.75,50.1485,56.2253,171.618,98.4173,98.3548,0.008268321,0.216817,20.7929,922.656,0.005813928,0,0
250,62.25,50.2532,56.3551,167.981,98.4251,96.2607,0.008506629,0.215017,20.7933,922.476,0.203683,0,0
260,64.75,49.9678,56.8547,170.123,98.404,98.2307,0.008543927,0.21496,20.79,922.296,0.0161468,0,0
270,67.25,50.4282,56.9559,170.371,98.4214,98.0426,0.008617628,0.217165,20.786,922.056,0.0353222,0,0
280,69.75,50.595,56.8317,166.394,98.4107,97.7837,0.008679211,0.219542,20.7829,921.915,0.0585446,0,0
290,72.25,50.5293,57.5823,170.619,98.421,97.5628,0.008530119,0.222195,20.7798,921.695,0.0802158,0,0
300,74.75,51.1977,57.3843,169.995,98.4107,97.4571,0.008308245,0.224963,20.7771,921.495,0.0891859,0,0
310,77.25,51.4246,58.173,174.716,98.4218,97.6524,0.008113086,0.227995,20.7732,921.255,0.0718848,0,0
320,79.75,51.9934,57.8616,171.043,98.4115,97.2269,0.00798287,0.231642,20.7679,921.095,0.110929,0,0
330,82.25,51.9018,58.0347,168.978,98.4259,98.3736,0.008183899,0.23429,20.7659,920.854,0.004868843,0,0
340,84.75,51.7052,58.3047,167.507,98.4197,96.8103,0.008682298,0.235064,20.7668,920.694,0.15103,0,0
350,87.25,51.7985,58.3569,169.016,98.4061,99.0818,0.009190233,0.23404,20.7716,920.504,-0.0626844,0,0
360,89.75,52.0881,57.8641,178.387,98.4135,98.8529,0.009464825,0.231214,20.778,920.314,-0.0408061,0,0
370,92.25,52.0387,57.6362,174.964,98.409,97.5714,0.00996219,0.226897,20.7846,920.164,0.07830181,0,0
380,94.75,52.0161,57.5672,178.415,98.4123,97.0907,0.0106733,0.219834,20.7987,920.054,0.123844,0,0
390,97.25,51.2678,56.5237,183.536,98.4078,97.4925,0.0114597,0.208686,20.815,919.873,0.0855917,0,0
400,99.75,51.063,56.0056,173.674,98.4193,97.3868,0.0123132,0.196879,20.8259,919.753,0.0966054,0,0
410,102.25,49.9434,54.8596,172.958,98.3974,97.8625,0.0132753,0.187076,20.8361,919.693,0.0499322,0,0
420,104.75,49.9028,54.2015,179.37,98.409,97.9512,0.0139417,0.176735,20.8473,919.593,0.0427094,0,0
430,107.25,49.3294,53.5339,171.78,98.3879,97.2193,0.0144165,0.167106,20.856,919.523,0.109455,0,0
440,109.75,48.7381,52.7819,181.729,98.4069,97.0929,0.01536053,0.15775,20.865,919.453,0.123134,0,0
450,112.25,47.9274,51.4652,180.185,98.3838,95.866,0.0163682,0.148412,20.8742,919.363,0.23747,0,0
460,114.75,47.739,50.8482,174.424,98.4065,97.6627,0.017045,0.140262,20.8827,919.263,0.0694977,0,0
470,117.25,46.8067,50.1485,176.143,98.4061,97.0513,0.0169833,0.133405,20.8871,760.205,0.126987,0,0
480,119.75,46.5759,49.1132,178.394,98.4094,96.8891,0.0159944,0.127924,20.8903,56.6963,0.142612,0,0
490,122.25,46.475,48.7596,176.471,98.3991,97.2703,0.01314858,0.122249,20.8996,-0.900895,0.105683,0,0
500,124.75,45.2053,47.6106,184.529,98.4111,97.0876,0.009803623,0.11071,20.9191,-0.900895,0.124025,0,0
510,127.25,44.8941,46.622,178.589,98.4102,97.2797,0.00744024,0.0988076,20.9349,-0.890885,0.105835,0,0
520,129.75,44.4572,45.8427,175.62,98.4028,97.3465,0.006090992,0.08858569,20.9444,-0.910905,0.0988602,0,0
530,132.25,43.5094,45.6692,180.637,98.4119,97.0714,0.005453696,0.0801522,20.9505,-0.920914,0.125623,0,0
540,134.75,43.6037,45.4839,178.526,98.4057,97.4759,0.00504636,0.0739798,20.9541,-0.890885,0.0869569,0,0
550,137.25,43.8302,44.6694,182.104,98.397,97.088,0.004735305,0.0692517,20.9564,-0.900895,0.122676,0,0
560,139.75,43.1464,44.1655,174.896,98.3917,97.3734,0.004395001,0.0656728,20.9581,-0.950944,0.0952936,0,0
570,142.25,42.8007,43.8383,176.022,98.3991,97.415,0.004085021,0.062799,20.9587,-0.9409343,0.0920684,0,0
580,144.75,42.6794,43.4783,178.954,98.402,97.5109,0.004017062,0.0606211,20.9603,-0.930924,0.0833272,0,0
590,147.25,42.5075,43.6199,174.443,98.4098,97.1807,0.004056947,0.0589785,20.9611,-0.930924,0.115124,0,0
600,149.75,42.7688,43.5098,184.496,98.4057,97.0826,0.004030799,0.0578361,20.9615,-0.920914,0.12399,0,0
610,152.25,42.3856,43.5498,180.433,98.4168,97.5337,0.003878256,0.0568229,20.9616,-0.930924,0.0825665,0,0
620,154.75,42.3745,42.8859,185.156,98.404,97.29,0.003819809,0.0559104,20.9617,-0.9409343,0.104289,0,0
630,157.25,41.9805,43.0142,181.021,98.4226,97.2018,0.004004366,0.0552207,20.963,-0.930924,0.11433,0,0
640,159.75,42.4567,42.7125,182.329,98.4131,96.9196,0.004260075,0.0546363,20.9636,-0.950944,0.14008,0,0
650,162.25,41.7434,43.1045,181.053,98.4185,96.8363,0.004172144,0.0540695,20.9639,-0.970964,0.148458,0,0
660,164.75,42.0307,42.5392,179.835,98.4305,97.777,0.003903873,0.0536938,20.9639,-1.011,0.0610192,0,0
670,167.25,41.5629,43.055,180.811,98.4181,97.1216,0.003790273,0.053502,20.964,-0.970964,0.121466,0,0
680,169.75,41.592,42.4143,176.708,98.4189,97.1449,0.003867013,0.0532094,20.9644,-0.960954,0.119347,0,0
690,172.25,41.8776,42.2796,175.654,98.4135,97.5947,0.003988171,0.0530578,20.9655,-0.9409343,0.0765391,0,0
700,174.75,41.3247,42.8156,183.325,98.4148,97.3935,0.00395756,0.0529398,20.966,-0.970964,0.0955508,0,0
710,177.25,41.3165,42.914,172.147,98.4032,97.5494,0.003843786,0.0528667,20.9662,-0.970964,0.079825,0,0
720,179.75,41.8757,42.4925,178.427,98.404,98.0323,0.003821512,0.05282525,20.9662,-0.9409343,0.0346706,0,0
730,182.25,41.4828,43.1105,181.56,98.4135,96.9599,0.003848419,0.0527509,20.9663,-0.950944,0.136309,0,0
740,184.75,41.1216,42.1285,180.274,98.4102,97.4598,0.003963072,0.052617,20.9659,-0.980974,0.088895,0,0
750,187.25,40.9754,42.5717,188.042,98.4061,97.4401,0.00406755,0.0525536,20.9656,-0.980974,0.0903623,0,0
760,189.75,41.3428,42.2506,177.247,98.4073,97.0437,0.004051032,0.0526907,20.9655,-0.9409343,0.127822,0,0
770,192.25,41.348,42.5861,181.266,98.3991,98.1385,0.004093541,0.0526817,20.9654,-0.950944,0.0242944,0,0
780,194.75,41.2243,42.4032,182.163,98.3983,97.4361,0.004102916,0.0526434,20.9645,-0.950944,0.090012,0,0
790,197.25,41.0673,42.7549,180.141,98.4115,96.8018,0.004055766,0.0527396,20.9643,-0.930924,0.151067,0,0
800,199.75,41.0532,42.3632,180.942,98.4073,97.2273,0.004047796,0.0526843,20.9642,-0.930924,0.110503,0,0
810,202.25,40.5412,42.0131,177.641,98.4012,97.4182,0.004128808,0.0526396,20.9642,-0.9409343,0.0919657,0,0
820,204.75,40.5582,41.989,176.215,98.3987,97.4988,0.003986291,0.0526853,20.9638,-0.950944,0.0841571,0,0
830,207.25,40.5947,42.2889,182.288,98.4061,97.5015,0.003842763,0.0525801,20.9635,-0.950944,0.0845953,0,0
840,209.75,40.9947,42.1327,178.287,98.4073,96.9048,0.003781823,0.05258356,20.9634,-0.920914,0.140939,0,0
850,212.25,40.7506,41.9725,178.5,98.4177,97.8979,0.003718007,0.0525696,20.9626,-0.960954,0.0485039,0,0
860,214.75,40.5796,42.0607,177.738,98.404,97.3241,0.003827092,0.0527842,20.9619,-0.950944,0.101084,0,0
870,217.25,40.8959,41.8665,174.886,98.4247,96.7986,0.003973518,0.0529792,20.9621,-0.990984,0.152594,0,0
880,219.75,40.5024,41.9439,181.116,98.428,97.3438,0.003876624,0.0531635,20.9622,-0.990984,0.101458,0,0
890,222.25,41.0504,41.9615,178.811,98.4391,96.8806,0.003801414,0.0534675,20.9623,-0.990984,0.146184,0,0
900,224.75,40.9251,42.1987,179.172,98.4222,96.8564,,0.0536903,,-0.960954,0.146896,0,0
910,227.25,40.8594,41.8101,182.892,98.4495,98.2818,,,,-0.960954,0.0156137,0,0
920,229.75,41.0119,42.124,174.155,98.4396,97.5991,,,,-0.990984,0.07853999,0,0
930,232.25,40.4348,42.3469,179.953,98.4474,97.0723,,,,-0.980974,0.128844,0,0
939,234.5,41.0209,42.1254,183.074,98.4168,96.8246,,,,-0.960954,0.149405,0,0