File: 01_Data/Straw/Cone/Straw_Cone_HF35Scalar_181019_R3.csv
LABORATORY,FSRI
TEST IDENT,BC-S3
OPERATOR,Dow
MATERIAL,Boot Camp Straw
ORIENTATION,Horizontal
HEAT FLUX,35
SURF AREA,0.01
C FACTOR,0.03822
SPEC HOLDER DIFF,352.92
SPECIMEN MASS,15.13
SCAN TIME,0.25
O2 DELAY TIME,11
CO DELAY TIME,11
CO2 DELAY TIME,8
FLOW FACTOR,1
SCAN COUNT,955
TIME TO IGN,18.75
END OF TEST SCAN,475
END OF TEST TIME,118.75
TEST STATUS,1