File: 01_Data/Straw/Cone/Straw_Cone_HF35Scalar_181018_R1.csv
LABORATORY,FSRI
TEST IDENT,BC_S1
OPERATOR,Dow
MATERIAL,Boot Camp Straw
ORIENTATION,Horizontal
HEAT FLUX,35
SURF AREA,0.01
C FACTOR,0.0399942
SPEC HOLDER DIFF,349.54
SPECIMEN MASS,11.45
SCAN TIME,0.25
O2 DELAY TIME,11
CO DELAY TIME,11
CO2 DELAY TIME,8
FLOW FACTOR,1
SCAN COUNT,939
TIME TO IGN,9.5
END OF TEST SCAN,459
END OF TEST TIME,114.75
TEST STATUS,1
PRE TEST CMT,- weigh system reading -0.88g prior as baseline