File: 01_Data/Straw/Cone/Straw_Cone_HF35Scalar_181018_R2.csv
LABORATORY,FSRI
TEST IDENT,BC_S2
OPERATOR,Dow
MATERIAL,Boot Camp Straw
ORIENTATION,Horizontal
HEAT FLUX,35
SURF AREA,0.01
C FACTOR,0.039478
SPEC HOLDER DIFF,352.95
SPECIMEN MASS,13.05
SCAN TIME,0.25
O2 DELAY TIME,11
CO DELAY TIME,11
CO2 DELAY TIME,8
FLOW FACTOR,1
SCAN COUNT,1168
TIME TO IGN,16
END OF TEST SCAN,688
END OF TEST TIME,172
TEST STATUS,1