File: 01_Data/Straw/Cone/Straw_Cone_HF35Scan_181018_R2.csv
Names,Time,Stack TC,Smoke TC,Exh Press,Smoke Comp,Smoke Meas,CO Meter,CO2 Meter,O2 Meter,Sample Mass,Ext Coeff,Start Test,Flame Verif
Chan Gain,,500,500,1,1,1,1,1,1,1,1,1,1
Offset,,0,0,0.14301,0,0,0,0,0,0,0,0,0
Gain,,1,1,25.011,14.3065,15.6922,1,1,1,1.00094,1.047,1,1
Units,sec,C,C,Pa,%,%,%,%,%,g,/m,,
Baseline,,40.0615,41.7456,167.956,105.052,106.36,0.002629106,0.0506564,20.9569,-0.172036,-0.113628,,
12,2.75,38.7966,40.3811,166.281,105.047,106.895,0.002466436,0.0515581,20.955,933.075,-0.160226,0,0
24,5.75,39.0002,40.7323,168.917,105.045,105.702,0.002724538,0.0516455,20.9552,933.325,-0.0572691,0,0
36,8.75,39.2858,41.4091,166.273,105.051,103.505,0.003554898,0.0525584,20.9537,933.145,0.136177,0,0
48,11.75,39.9127,42.1431,165.096,105.057,102.435,0.005164915,0.054425,20.9511,933.095,0.232177,0,0
60,14.75,40.0345,41.948,165.196,105.051,100.384,0.006777419,0.0609116,20.9331,932.905,0.417406,0,0
72,17.75,41.3201,43.9328,152.037,105.054,107.197,0.006601925,0.102907,20.8483,932.795,-0.185462,0,1
84,20.75,43.8336,47.1583,154.246,105.043,108.138,0.00585113,0.162038,20.7862,932.344,-0.266766,0,1
96,23.75,45.3202,49.6199,162.829,105.042,106.086,0.005757312,0.197152,20.762,932.094,-0.09080828,0,0
108,26.75,46.438,51.1911,158.268,105.048,106.107,0.005766799,0.217316,20.7516,931.784,-0.0921363,0,0
120,29.75,47.4681,53.1595,155.394,105.051,106.429,0.005485613,0.233942,20.7423,931.544,-0.119723,0,0
132,32.75,48.2411,54.5446,154.922,105.041,107.327,0.005220447,0.243877,20.7389,931.253,-0.19772,0,0
144,35.75,48.6946,55.9177,157.913,105.053,106.61,0.00503533,0.24702,20.7439,931.003,-0.135137,0,0
156,38.75,49.7352,56.4464,160.777,105.047,106.032,0.004841967,0.245131,20.7489,930.793,-0.0857405,0,0
168,41.75,49.927,57.331,163.387,105.05,107.015,0.004922346,0.240968,20.7584,930.513,-0.170198,0,0
180,44.75,49.5596,57.0729,159.089,105.04,106.677,0.005196874,0.234531,20.769,930.292,-0.142097,0,0
192,47.75,50.1645,56.4492,160.408,105.043,106.756,0.005454039,0.228278,20.776,930.072,-0.148589,0,0
204,50.75,50.2524,56.4313,161.123,105.04,106.045,0.005372277,0.223402,20.7812,929.842,-0.087395,0,0
216,53.75,49.9891,56.2343,161.94,105.035,107.181,0.005333279,0.217625,20.7879,929.622,-0.185788,0,0
228,56.75,50.1915,56.3845,160.871,105.045,106.175,0.005480877,0.211908,20.7943,929.442,-0.0982876,0,0
240,59.75,49.8762,55.537,160.079,105.035,106.156,0.00561328,0.206574,20.7992,929.251,-0.0975081,0,0
252,62.75,49.8041,55.551,158.212,105.035,106.996,0.00581052,0.202052,20.8029,929.041,-0.169893,0,0
264,65.75,49.2957,55.2907,164.737,105.039,106.583,0.006056637,0.196703,20.8093,928.891,-0.134009,0,0
276,68.75,49.901,55.151,159.148,105.042,105.955,0.006648863,0.190468,20.8162,928.681,-0.0794828,0,0
288,71.75,49.6269,55.0452,159.654,105.039,106.581,0.007278805,0.183834,20.822,928.531,-0.133842,0,0
300,74.75,49.3468,54.2516,160.133,105.039,106.573,0.007568294,0.179108,20.8259,928.331,-0.133181,0,0
312,77.75,49.4477,54.1532,159.767,105.032,106.8694,0.007819603,0.175609,20.8269,928.14,-0.159263,0,0
324,80.75,49.3924,53.7215,160.856,105.046,106.564,0.00801465,0.174513,20.8268,927.94,-0.131786,0,0
336,83.75,49.2679,53.8311,162.345,105.028,106.518,0.0081789,0.173378,20.8288,927.76,-0.12943,0,0
348,86.75,48.7973,54.2244,165.196,105.027,106.349,0.008423972,0.170934,20.8319,927.61,-0.114839,0,0
360,89.75,48.3745,53.8685,164.248,105.002,107.092,0.008708808,0.169017,20.8332,927.42,-0.181054,0,0
372,92.75,48.5282,53.1699,156.977,104.985,106.403,0.008652067,0.167462,20.834,927.28,-0.123178,0,0
384,95.75,49.1232,53.1173,166.514,104.965,105.328,0.008889616,0.167385,20.8342,927.079,-0.03174489,0,0
396,98.75,48.7934,53.6329,162.064,104.942,106.422,0.009251906,0.165509,20.8372,926.899,-0.128571,0,0
408,101.75,49.1814,52.8766,159.469,104.919,106.127,0.009126349,0.163994,20.8384,926.699,-0.105065,0,0
420,104.75,49.1165,52.9628,155.371,104.898,106.828,0.009046572,0.163361,20.8383,926.579,-0.167411,0,0
432,107.75,48.3522,53.3355,161.075,104.853,106.124,0.00917364,0.163217,20.8363,926.469,-0.110669,0,0
444,110.75,48.8779,52.5455,162.277,104.831,105.701,0.008889127,0.165179,20.8337,926.299,-0.07590922,0,0
456,113.75,48.6785,53.1311,160.723,104.799,106.085,0.008468521,0.166914,20.831,926.068,-0.112016,0,0
468,116.75,49.1073,53.1014,165.977,104.781,106.81,0.008183121,0.168713,20.8289,925.948,-0.176175,0,0
480,119.75,48.7596,53.8224,162.233,104.771,105.982,0.008083364,0.169683,20.8281,925.828,-0.105541,0,0
492,122.75,49.064,53.3748,158.965,104.742,106.454,0.008362062,0.170408,20.8276,925.658,-0.148936,0,0
504,125.75,48.8798,53.3693,165.657,104.713,107.31,0.008633188,0.170587,20.8273,925.518,-0.224919,0,0
516,128.75,48.6763,53.5465,160.71,104.701,106.089,0.00860304,0.171096,20.8272,925.418,-0.120999,0,0
528,131.75,49.3895,53.2499,166.66,104.688,105.499,0.008449404,0.171376,20.8272,925.188,-0.0708877,0,0
540,134.75,48.8373,53.2848,163.166,104.665,105.749,0.008526587,0.170644,20.8282,925.057,-0.0946548,0,0
552,137.75,49.1866,53.708,162.172,104.645,105.703,0.008921782,0.168787,20.8297,924.957,-0.0924266,0,0
564,140.75,48.913,52.8279,165.054,104.63,106.259,0.00995751,0.164311,20.8368,924.817,-0.141831,0,0
576,143.75,48.8911,52.5798,163.835,104.634,106.14,0.0107583,0.158227,20.8436,924.677,-0.131174,0,0
588,146.75,48.1934,52.7657,162.621,104.624,106.645,0.011016,0.153462,20.8486,924.587,-0.175669,0,0
600,149.75,48.0066,51.8507,164.466,104.626,106.223,0.0108489,0.149764,20.8516,924.507,-0.139109,0,0
612,152.75,48.6436,51.3897,165.569,104.613,106.797,0.0105854,0.147005,20.8536,924.387,-0.189729,0,0
624,155.75,48.233,50.9711,167.591,104.617,105.955,0.010385,0.14356,20.8576,924.317,-0.116777,0,0
636,158.75,47.5188,50.3146,161.728,104.63,106.535,0.0103367,0.139127,20.8629,924.227,-0.16568,0,0
648,161.75,47.4979,50.3965,164.168,104.698,105.722,0.0102362,0.134473,20.869,924.167,-0.0894555,0,0
660,164.75,47.1785,50.4937,166.003,104.767,106.214,0.01019,0.129747,20.8741,924.036,-0.125993,0,0
672,167.75,46.596,49.7632,163.372,104.843,105.948,0.0110711,0.123283,20.8813,924.017,-0.0963225,0,0
684,170.75,46.1635,48.9808,163.297,104.916,106.944,0.0120683,0.115783,20.8912,923.936,-0.175801,0,0
696,173.75,46.3596,48.3559,166.164,104.976,107.222,0.0126035,0.11001,20.8961,923.896,-0.194433,0,0
708,176.75,45.9597,47.4067,164.689,105.075,105.819,0.0122343,0.106122,20.8979,154.875,-0.0648242,0,0
720,179.75,45.142,47.3618,162.297,105.143,107.157,0.0100637,0.101594,20.9047,-0.150141,-0.174311,0,0
732,182.75,45.3417,46.5391,166.746,105.193,105.792,0.00715248,0.0904296,20.9238,-0.150141,-0.052119,0,0
744,185.75,44.6537,45.9915,164.583,105.227,106.702,0.00525892,0.0812254,20.9328,-0.16015,-0.12784,0,0
756,188.75,43.9512,45.4446,168.149,105.269,106.693,0.004058602,0.0751766,20.9374,-0.17016,-0.123396,0,0
768,191.75,43.9007,45.713,174.523,105.267,106.629,0.003363974,0.0699417,20.9418,-0.190178,-0.118106,0,0
780,194.75,43.1194,45.0665,168.297,105.291,106.623,0.003295172,0.0651463,20.9456,-0.17016,-0.115395,0,0
792,197.75,43.1668,43.8025,166.915,105.316,107.328,0.00322196,0.0614141,20.9511,-0.180169,-0.173784,0,0
804,200.75,43.3772,44.1329,166.547,105.347,106.563,0.002910578,0.0587418,20.9535,-0.16015,-0.105364,0,0
816,203.75,42.5767,43.9198,168.528,105.352,106.505,0.002837838,0.0567961,20.9542,-0.190178,-0.099992,0,0
828,206.75,42.2244,43.5922,165.66,105.36,106.762,0.002878731,0.0554841,20.9544,-0.200188,-0.121453,0,0
840,209.75,42.2612,43.8357,162.394,105.373,106.555,0.002814033,0.0545487,20.9544,-0.220206,-0.102497,0,0
852,212.75,42.3945,43.3363,164.972,105.38,106.599,0.002685667,0.0539009,20.9545,-0.220206,-0.105647,0,0
864,215.75,42.2174,42.8672,167.14,105.396,106.771,0.002654521,0.053546,20.9565,-0.180169,-0.119077,0,0
876,218.75,41.9032,43.4401,169.185,105.399,106.274,0.002730306,0.0531237,20.9575,-0.150141,-0.0759142,0,0
888,221.75,41.6391,43.333,166.976,105.398,106.636,0.002743848,0.0528947,20.9575,-0.140131,-0.107263,0,0
900,224.75,41.9565,43.0614,167.374,105.406,106.881,0.002789697,0.05268782,20.9575,-0.16015,-0.127593,0,0
912,227.75,42.1141,42.8157,171.741,105.413,106.601,0.00280103,0.0526415,20.9577,-0.180169,-0.102958,0,0
924,230.75,41.8337,42.5781,171.747,105.403,106.395,0.002675456,0.0525353,20.9578,-0.17016,-0.0860339,0,0
936,233.75,42.2874,42.6253,167.945,105.43,106.963,0.002524504,0.0525121,20.9578,-0.180169,-0.132573,0,0
948,236.75,41.3287,43.0473,167.436,105.43,106.402,0.002430608,0.05233904,20.9568,-0.17016,-0.0842543,0,0
960,239.75,41.8329,42.7523,168.165,105.451,106.837,0.002473104,0.052477,20.9557,-0.220206,-0.119889,0,0
972,242.75,41.5159,42.1113,162.141,105.464,107.078,0.002361966,0.0526875,20.9554,-0.190178,-0.139507,0,0
984,245.75,41.8701,42.5993,167.489,105.477,106.987,0.002397239,0.0525515,20.9553,-0.200188,-0.130484,0,0
996,248.75,40.7564,42.9429,164.693,105.491,107.376,0.002543636,0.0524522,20.9553,-0.17016,-0.162588,0,0
1008,251.75,41.8755,42.3748,169.88,105.494,107.388,0.002631823,0.0524358,20.9553,-0.150141,-0.163383,0,0
1020,254.75,41.8551,42.9357,164.997,105.519,107.403,0.002513966,0.0524888,20.9553,-0.150141,-0.162527,0,0
1032,257.75,41.2805,42.5458,166.874,105.515,106.541,0.002553928,0.0525277,20.9553,-0.17016,-0.0888232,0,0
1044,260.75,41.7413,42.163,166.785,105.519,106.974,0.002893573,0.05258099,20.9557,-0.150141,-0.125762,0,0
1056,263.75,41.1074,41.9861,169.989,105.518,106.87,0.003069216,0.0524801,20.9558,-0.140131,-0.116991,0,0
1068,266.75,40.9818,41.8013,163.341,105.526,107.486,0.00296128,0.0522499,20.9559,-0.150141,-0.168964,0,0
1080,269.75,40.733,42.1312,168.87,105.536,106.912,0.002841957,0.0522178,20.9556,-0.150141,-0.119054,0,0
1092,272.75,41.0855,41.8516,165.415,105.553,107.216,0.002713336,0.0522884,20.9552,-0.180169,-0.143617,0,0
1104,275.75,41.2258,41.7284,168.441,105.563,107.112,0.002638562,0.0522577,20.9551,-0.17016,-0.133838,0,0
1116,278.75,40.5029,42.6244,166.714,105.563,107.056,0.00263785,0.0522249,20.9551,-0.180169,-0.128991,0,0
1128,281.75,41.3306,42.2503,164.261,105.586,106.85,,0.0521959,,-0.16015,-0.109336,0,0
1140,284.75,40.689,41.9959,166.044,105.578,107.443,,,,-0.17016,-0.1608,0,0
1152,287.75,40.5492,42.1928,168.497,105.584,106.617,,,,-0.16015,-0.08934167,0,0
1164,290.75,40.4379,42.1227,165.773,105.587,106.431,,,,-0.190178,-0.0730935,0,0
1168,291.75,40.6114,41.7494,167.988,105.583,106.426,,,,-0.220206,-0.0730632,0,0