File: 01_Data/Pallet_Wood/HFM/Pallet_Wood_Density_Dry_R2.csv
,Plywood_2_Dry
Sample Mass [g],336.8
Sample Volume [cm3],587.2
Sample Density [kg/m3],573.6