File: 01_Data/Pallet_Wood/HFM/Pallet_Wood_Density_Wet_R1.csv
,Pallet_Wood_1_WET
Sample Mass [g],366.1
Sample Volume [cm3],599.3
Sample Density [kg/m3],610.9