File: 01_Data/Pallet_Wood/HFM/Pallet_Wood_Density_Dry_R1.csv
,Pallet_Wood_1_DRY
Sample Mass [g],337.7
Sample Volume [cm3],599.3
Sample Density [kg/m3],563.5