File: 01_Data/Pallet_Wood/HFM/Pallet_Wood_Density_Dry_R3.csv
,Exterior_Plywood_3_WET
Sample Mass [g],289.4
Sample Volume [cm3],567.9
Sample Density [kg/m3],509.6