File: 01_Data/Pallet_Wood/HFM/Pallet_Wood_Density_Wet_R2.csv
,Plywood_2_WET
Sample Mass [g],358.2
Sample Volume [cm3],587.2
Sample Density [kg/m3],610.0