File: 01_Data/ABS/STA/N2/30K_min/ABS_STA_N2_30KData_211020_R2.csv
##Temp./Â°C,Time/min,Mass loss(subtr.2)/mg,DSC(subtr.2)/(mW/mg),Sensit./(uV/mW)
49.456,10.01,0.02467,-0.06542088,1.05401
51.956,11.53604,0.03310896,0.03856606,1.05405
54.456,11.88463,0.03499515,0.1093,1.05406
56.956,12.1389,0.03291707,0.16219,1.05404
59.456,12.35277,0.03584753,0.20421,1.05399
61.956,12.54256,0.03820734,0.244,1.05391
64.456,12.71739,0.03497911,0.2725,1.0538
66.956,12.88075,0.03749059,0.30145,1.05366
69.456,13.03773,0.03686186,0.32677,1.05349
71.956,13.188,0.03860161,0.35119,1.05329
74.456,13.33279,0.03915714,0.37323,1.05306
76.956,13.4725,0.03906181,0.39616,1.0528
79.456,13.60803,0.03873081,0.41796,1.05251
81.956,13.7393,0.04096601,0.43856,1.05219
84.456,13.86685,0.03994627,0.45116,1.05185
86.956,13.99051,0.0401663,0.46439,1.05147
89.456,14.1104,0.04067477,0.47173,1.05107
91.956,14.22655,0.04246648,0.48218,1.05064
94.456,14.33985,0.04441696,0.4929,1.05018
96.956,14.45049,0.04236465,0.5068,1.04969
99.456,14.55874,0.04470356,0.52908,1.04917
101.956,14.66465,0.04376076,0.54918,1.04863
104.456,14.76847,0.04176904,0.57356,1.04806
106.956,14.8702,0.04454021,0.60014,1.04746
109.456,14.97015,0.04545263,0.63663,1.04683
111.956,15.06903,0.04559223,0.67701,1.04618
114.456,15.166,0.04569319,0.71979,1.0455
116.956,15.26145,0.0439748,0.74184,1.04479
119.456,15.3563,0.0436509,0.74565,1.04406
121.956,15.44917,0.04381753,0.74468,1.0433
124.456,15.5411,0.05134725,0.75591,1.04252
126.956,15.63175,0.04511278,0.7648,1.04171
129.456,15.72134,0.04791802,0.77643,1.04087
131.956,15.80964,0.04854764,0.79003,1.04001
134.456,15.89686,0.05071947,0.7954,1.03912
136.956,15.98351,0.04909885,0.79668,1.03821
139.456,16.0689,0.04716047,0.80062,1.03727
141.956,16.15371,0.04632608,0.80686,1.03631
144.456,16.23764,0.04682312,0.81632,1.03533
146.956,16.32078,0.04708355,0.82741,1.03432
149.456,16.4032,0.0479812,0.83935,1.03328
151.956,16.4849,0.04891091,0.85175,1.03223
154.456,16.5659,0.05006391,0.86678,1.03115
156.956,16.64668,0.05082199,0.88052,1.03004
159.456,16.72666,0.04937095,0.89327,1.02892
161.956,16.80617,0.04694162,0.90968,1.02777
164.456,16.88533,0.04795977,0.92629,1.02659
166.956,16.9638,0.0492399,0.93755,1.0254
169.456,17.0418,0.04903218,0.95433,1.02418
171.956,17.11934,0.05033839,0.96688,1.02294
174.456,17.19657,0.04969847,0.98108,1.02168
176.956,17.27306,0.04902885,0.99382,1.0204
179.456,17.34913,0.04903354,1.00461,1.0191
181.956,17.42464,0.04988228,1.01817,1.01777
184.456,17.4998,0.04880923,1.03046,1.01643
186.956,17.57465,0.04858092,1.04135,1.01506
189.456,17.64894,0.04989772,1.05543,1.01367
191.956,17.72285,0.05121851,1.06557,1.01227
194.456,17.79632,0.04850373,1.07652,1.01084
196.956,17.86937,0.04726011,1.08944,1.0094
199.456,17.94262,0.04726,1.10052,1.00793
201.956,18.0153,0.04726,1.11223,1.00644
204.456,18.08766,0.04742946,1.1205,1.00494
206.956,18.15995,0.04727293,1.13185,1.00342
209.456,18.23171,0.0502382,1.13999,1.00188
211.956,18.3034,0.05046022,1.14843,1.00032
214.456,18.3748,0.05337641,1.15955,0.99874
216.956,18.44612,0.05441026,1.16484,0.99715
219.456,18.5171,0.05016467,1.17073,0.99553
221.956,18.58788,0.04732243,1.18024,0.9939
224.456,18.65858,0.04647615,1.18625,0.99226
226.956,18.72906,0.04746924,1.19414,0.99059
229.456,18.79932,0.04811144,1.20374,0.98891
231.956,18.8694,0.04545799,1.21038,0.98722
234.456,18.9394,0.04259009,1.21728,0.9855
236.956,19.00919,0.04584555,1.22297,0.98378
239.456,19.0789,0.04518249,1.229,0.98203
241.956,19.14848,0.04382028,1.23403,0.98027
244.456,19.21791,0.04870577,1.24012,0.9785
246.956,19.2871,0.04204194,1.24748,0.97671
249.456,19.3563,0.04291594,1.25074,0.9749
251.956,19.42531,0.04208718,1.25782,0.97309
254.456,19.4941,0.04332596,1.2624,0.97125
256.956,19.5627,0.04862858,1.268,0.96941
259.456,19.63139,0.04881483,1.27367,0.96755
261.956,19.69998,0.0422314,1.27809,0.96567
264.456,19.76855,0.02781107,1.28186,0.96379
266.956,19.83701,0.03593054,1.2873,0.96189
269.456,19.90529,0.0495924,1.28955,0.95997
271.956,19.97364,0.04190532,1.293,0.95805
274.456,20.04176,0.04078537,1.29763,0.95611
276.956,20.10971,0.03689468,1.30001,0.95416
279.456,20.17786,0.03260331,1.29977,0.9522
281.956,20.24596,0.03410061,1.30558,0.95023
284.456,20.314,0.0327846,1.30725,0.94825
286.956,20.382,0.03410988,1.30741,0.94625
289.456,20.44997,0.03268002,1.30628,0.94425
291.956,20.51786,0.03133777,1.30753,0.94223
294.456,20.58584,0.02873573,1.30313,0.94021
296.956,20.65362,0.02869974,1.29927,0.93817
299.456,20.72159,0.02892628,1.29593,0.93612
301.956,20.78951,0.02795945,1.29133,0.93407
304.456,20.85738,0.02576635,1.28485,0.93201
306.956,20.92501,0.01756143,1.27866,0.92993
309.456,20.99311,0.02549318,1.27332,0.92785
311.956,21.06085,0.01998706,1.25568,0.92576
314.456,21.12869,0.01904799,1.24125,0.92366
316.956,21.19655,0.01507349,1.22836,0.92155
319.456,21.26435,0.01425226,1.21211,0.91944
321.956,21.33209,0.009848232,1.19448,0.91732
324.456,21.39995,0.00844,1.17155,0.91519
326.956,21.46786,0.007246214,1.15027,0.91305
329.456,21.5358,0.01020183,1.12918,0.9109
331.956,21.60353,0.007090054,1.10977,0.90875
334.456,21.67148,0.005800479,1.09298,0.9066
336.956,21.73949,0.001529225,1.07456,0.90443
339.456,21.80753,-0.001204898,1.05718,0.90226
341.956,21.87559,-0.002598954,1.03987,0.90009
344.456,21.94371,-0.005695975,1.01685,0.89791
346.956,22.0118,-0.01125787,0.99537,0.89572
349.456,22.08008,-0.009651112,0.96578,0.89353
351.956,22.14845,-0.009631279,0.9359,0.89133
354.456,22.21666,-0.01244884,0.90089,0.88913
356.956,22.28501,-0.01110111,0.85122,0.88693
359.456,22.3534,-0.01860239,0.82679,0.88472
361.956,22.42165,-0.02575022,0.7951,0.88251
364.456,22.49071,-0.02647589,0.75499,0.88029
366.956,22.5594,-0.02514236,0.71102,0.87807
369.456,22.62803,-0.029555,0.67417,0.87584
371.956,22.69686,-0.03598806,0.63171,0.87362
374.456,22.76589,-0.03903803,0.58955,0.87139
376.956,22.83474,-0.04497844,0.55502,0.86915
379.456,22.90374,-0.05037333,0.52163,0.86692
381.956,22.97299,-0.05708926,0.49182,0.86468
384.456,23.04214,-0.06703395,0.47329,0.86244
386.956,23.11129,-0.0735128,0.46283,0.8602
389.456,23.18073,-0.0795139,0.4654,0.85796
391.956,23.25013,-0.09018123,0.48444,0.85571
394.456,23.31972,-0.10493,0.51852,0.85347
396.956,23.38938,-0.11362,0.57598,0.85122
399.456,23.45908,-0.12689,0.65231,0.84898
401.956,23.52882,-0.14217,0.75683,0.84673
404.456,23.59885,-0.16045,0.88689,0.84448
406.956,23.66902,-0.17725,1.04995,0.84223
409.456,23.73925,-0.20222,1.24417,0.83998
411.956,23.80941,-0.22707,1.47067,0.83774
414.456,23.87986,-0.2564,1.73191,0.83549
416.956,23.95044,-0.29165,2.02577,0.83324
419.456,24.02117,-0.32707,2.35217,0.83099
421.956,24.09207,-0.36862,2.71656,0.82875
424.456,24.16321,-0.41739,3.11441,0.8265
426.956,24.23447,-0.46987,3.54607,0.82426
429.456,24.3059,-0.53516,4.00991,0.82202
431.956,24.37748,-0.60334,4.50854,0.81978
434.456,24.4494,-0.68624,5.03919,0.81754
436.956,24.52148,-0.77835,5.58436,0.8153
439.456,24.59382,-0.88776,6.14695,0.81307
441.956,24.66629,-1.00333,6.70016,0.81084
444.456,24.73895,-1.13304,7.22464,0.80861
446.956,24.81186,-1.27335,7.69307,0.80638
449.456,24.88476,-1.42468,8.07583,0.80416
451.956,24.95774,-1.5905,8.33279,0.80194
454.456,25.03075,-1.76038,8.4472,0.79972
456.956,25.1037,-1.92702,8.40276,0.79751
459.456,25.17657,-2.09606,8.2093,0.7953
461.956,25.24942,-2.26897,7.87761,0.79309
464.456,25.32196,-2.42584,7.42452,0.79089
466.956,25.3949,-2.58223,6.87633,0.78869
469.456,25.4676,-2.72806,6.19861,0.7865
471.956,25.5402,-2.86554,5.41313,0.78431
474.456,25.61274,-2.98576,4.69172,0.78212
476.956,25.68528,-3.08923,4.03367,0.77994
479.456,25.75791,-3.179,3.42573,0.77776
481.956,25.8306,-3.26235,2.88856,0.77559
484.456,25.90329,-3.33631,2.40289,0.77343
486.956,25.976,-3.40352,1.97404,0.77127
489.456,26.0492,-3.45714,1.60302,0.76911
491.956,26.12231,-3.50129,1.29511,0.76696
494.456,26.19584,-3.54356,1.04725,0.76481
496.956,26.2694,-3.57661,0.85446,0.76268
499.456,26.3432,-3.60607,0.69482,0.76054
501.956,26.41709,-3.62262,0.56102,0.75842
504.456,26.49077,-3.64402,0.45319,0.75629
506.956,26.56536,-3.66171,0.35227,0.75418
509.456,26.6398,-3.67753,0.26974,0.75207
511.956,26.7143,-3.6848,0.18955,0.74997
514.456,26.7891,-3.6916,0.13045,0.74787
516.956,26.86379,-3.69827,0.07566367,0.74579
519.456,26.9386,-3.70207,0.03588682,0.7437
521.956,27.01342,-3.7027,0.00557343,0.74163
524.456,27.0885,-3.70314,-0.01402212,0.73956
526.956,27.16362,-3.70751,-0.02832735,0.7375
529.456,27.23876,-3.7075,-0.03921458,0.73545
531.956,27.3141,-3.70752,-0.04357827,0.7334
534.456,27.38948,-3.70926,-0.04354365,0.73137
536.956,27.465,-3.70926,-0.04303601,0.72933
539.456,27.5404,-3.71057,-0.04855771,0.72731
541.956,27.6163,-3.70874,-0.04889143,0.7253
544.456,27.69207,-3.71094,-0.04519694,0.72329
546.956,27.7679,-3.70941,-0.05242824,0.72129
549.456,27.84388,-3.70794,-0.05579254,0.7193
551.956,27.91987,-3.70795,-0.05818876,0.71732
554.456,27.9958,-3.71079,-0.05802792,0.71534
556.956,28.072,-3.70997,-0.06302333,0.71337
559.456,28.14837,-3.70941,-0.06671566,0.71142
561.956,28.2248,-3.71082,-0.07384089,0.70947
564.456,28.30126,-3.7108,-0.07580242,0.70753
566.956,28.378,-3.7108,-0.07919681,0.70559
569.456,28.45445,-3.70694,-0.07724468,0.70367
571.956,28.5313,-3.70678,-0.08093874,0.70176
574.456,28.6085,-3.70502,-0.07837618,0.69985
576.956,28.68548,-3.70367,-0.0796589,0.69795
579.456,28.7626,-3.70378,-0.08013867,0.69606
581.956,28.8397,-3.70911,-0.07367574,0.69418
584.456,28.9168,-3.7062,-0.07368124,0.69231
586.956,28.99417,-3.70048,-0.07750192,0.69045
589.456,29.07146,-3.70542,-0.07274378,0.6886
591.956,29.1488,-3.70805,-0.07809497,0.68676
594.456,29.2264,-3.70937,-0.07415042,0.68493
596.956,29.30381,-3.71001,-0.07799858,0.6831
599.456,29.38155,-3.7092,-0.0726154,0.68129
601.956,29.45934,-3.70302,-0.07715781,0.67948
604.456,29.537,-3.70586,-0.07382853,0.67769
606.956,29.61488,-3.70708,-0.06927735,0.6759
609.456,29.69282,-3.70448,-0.07222526,0.67413
611.956,29.77088,-3.70447,-0.07131902,0.67236
614.456,29.84917,-3.70256,-0.07233027,0.67061
616.956,29.9275,-3.70263,-0.0681984,0.66886
619.256,29.99975,-3.70652,-0.07287466,0.66726