File: 01_Data/Bamboo_Rug_Fabric/MCC/Bamboo_Rug_Fabric_MCC_30K_min_211129_R2.txt
Sample ID:	C:\MCC\MCC Cal\Test\Bamboo_RugB_MCC_30K_min_211129_R2.txt
Sample Weight (mg):	4.39
Heating Rate (C/s):	0.5
Combustor Temp (C):	900
N2 Flow Rate (cc/min):	80
O2 Flow Rate (cc/min):	20
Calibration File:	C:\MCC\MCC Cal\Coeff1 JN10440_30_210304.txt.txt
T Correction Coefficients:	0	1.024463	0
Time Shift (s):	14
*
Time (s)	Temperature (C)	N2 flow rate (cc/min)	O2 flow rate (cc/min)	Flow Rate (cc/min)	Oxygen (%)	HRR (W/g)	Heating rate (C/s)
0.000	108.509	80.005	19.995	103.133	20.063	-0.222	0.000
8.000	108.465	79.993	19.997	103.110	20.063	-0.254	0.001
16.000	108.527	80.011	19.995	103.143	20.059	0.040	0.010
24.000	108.685	80.006	19.995	103.197	20.046	0.989	0.012
32.000	109.174	80.005	19.996	103.293	20.035	1.798	0.083
40.001	110.041	80.006	19.995	103.298	20.028	2.310	0.149
48.000	111.361	80.007	19.994	103.289	20.026	2.480	0.168
56.000	112.943	80.006	19.994	103.296	20.026	2.476	0.201
64.000	114.821	80.007	19.994	103.300	20.027	2.444	0.246
72.001	116.855	80.008	19.995	103.328	20.023	2.737	0.261
80.001	119.113	80.005	19.994	103.341	20.016	3.264	0.282
88.000	121.643	80.006	19.996	103.346	20.020	2.909	0.306
96.000	124.366	80.007	19.995	103.343	20.016	3.264	0.346
104.000	127.272	80.006	19.995	103.331	20.018	3.082	0.322
112.000	130.282	80.007	19.993	103.332	20.017	3.176	0.362
120.001	133.430	80.008	19.994	103.345	20.018	3.115	0.402
128.000	136.692	80.005	19.994	103.341	20.012	3.530	0.432
136.000	140.070	80.006	19.995	103.361	20.017	3.133	0.433
144.000	143.559	80.006	19.993	103.385	20.017	3.176	0.436
152.000	147.247	80.006	19.994	103.369	20.015	3.319	0.450
160.000	150.943	80.006	19.996	103.365	20.011	3.626	0.423
168.000	154.683	80.006	19.994	103.374	20.013	3.454	0.448
176.000	158.565	80.007	19.994	103.370	20.009	3.706	0.512
184.000	162.501	80.009	19.995	103.342	20.009	3.739	0.512
192.000	166.493	80.007	19.995	103.356	20.008	3.783	0.492
200.000	170.501	80.009	19.995	103.359	20.004	4.077	0.507
208.000	174.558	80.008	19.993	103.343	20.013	3.445	0.524
216.000	178.591	80.005	19.995	103.329	20.004	4.081	0.492
224.000	182.620	80.005	19.995	103.338	20.003	4.146	0.486
232.000	186.659	80.007	19.994	103.331	20.006	3.954	0.535
240.000	190.638	80.007	19.994	103.325	20.000	4.422	0.500
248.000	194.629	80.006	19.995	103.332	20.001	4.333	0.477
256.000	198.640	80.007	19.995	103.326	19.996	4.688	0.499
264.000	202.566	80.008	19.995	103.317	19.995	4.800	0.493
272.000	206.503	80.006	19.994	103.337	19.995	4.798	0.477
280.000	210.509	80.008	19.995	103.319	19.992	5.012	0.499
288.000	214.384	80.007	19.994	103.324	19.996	4.710	0.483
296.001	218.312	80.004	19.995	103.301	19.993	4.928	0.475
304.000	222.224	80.005	19.994	103.297	19.991	5.071	0.521
312.000	226.174	80.006	19.996	103.302	19.988	5.269	0.497
320.000	230.108	80.005	19.997	103.309	19.989	5.209	0.514
328.000	234.022	80.011	19.997	103.338	19.977	6.063	0.476
336.000	237.981	80.007	19.995	103.314	19.975	6.237	0.491
344.000	241.939	80.009	19.994	103.318	19.969	6.711	0.503
352.000	245.928	80.005	19.995	103.324	19.962	7.180	0.495
360.000	249.983	80.008	19.994	103.314	19.955	7.736	0.512
368.000	253.998	80.010	19.994	103.328	19.936	9.094	0.517
376.000	257.964	80.006	19.995	103.332	19.922	10.094	0.487
384.000	261.933	80.007	19.995	103.331	19.906	11.289	0.498
392.000	265.809	80.006	19.995	103.339	19.884	12.895	0.481
400.000	269.813	80.006	19.995	103.348	19.870	13.968	0.523
408.000	273.762	80.004	19.994	103.347	19.850	15.445	0.496
416.000	277.743	80.006	19.995	103.366	19.836	16.454	0.472
424.000	281.707	80.006	19.994	103.359	19.815	17.965	0.493
432.000	285.696	80.008	19.994	103.362	19.804	18.820	0.484
440.000	289.721	80.006	19.994	103.366	19.788	19.987	0.502
448.000	293.843	80.008	19.994	103.385	19.784	20.300	0.564
456.000	297.926	80.006	19.994	103.374	19.764	21.757	0.526
464.000	301.794	80.004	19.994	103.385	19.747	22.981	0.529
472.000	306.006	80.004	19.994	103.391	19.726	24.516	0.518
480.000	310.081	80.008	19.996	103.397	19.701	26.362	0.538
488.000	314.191	80.005	19.995	103.410	19.664	29.138	0.488
496.000	318.166	80.005	19.996	103.446	19.619	32.424	0.500
504.000	322.255	80.005	19.995	103.462	19.557	37.005	0.520
512.000	326.217	80.009	19.995	103.490	19.473	43.206	0.527
520.000	330.170	80.006	19.995	103.564	19.343	52.840	0.488
528.000	334.237	80.005	19.994	103.645	19.159	66.413	0.501
536.000	338.243	80.006	19.993	103.740	18.938	82.717	0.520
544.000	342.228	80.006	19.994	103.735	18.744	96.855	0.526
552.000	346.164	80.008	19.994	103.628	18.743	96.790	0.498
560.000	350.190	80.006	19.994	103.462	19.024	76.094	0.473
568.001	354.321	80.007	19.995	103.373	19.361	51.304	0.535
576.000	358.367	80.007	19.996	103.366	19.581	35.198	0.529
584.001	362.309	80.007	19.994	103.334	19.690	27.135	0.474
592.000	366.211	80.007	19.995	103.334	19.741	23.403	0.507
600.000	370.127	80.007	19.996	103.330	19.757	22.273	0.485
608.000	373.997	80.009	19.995	103.337	19.760	22.002	0.458
616.000	377.960	80.008	19.995	103.337	19.754	22.448	0.497
624.000	381.970	80.005	19.994	103.349	19.744	23.198	0.526
632.000	386.054	80.007	19.995	103.349	19.738	23.623	0.516
640.000	390.112	80.004	19.994	103.354	19.722	24.804	0.504
648.000	394.236	80.007	19.994	103.362	19.704	26.131	0.516
656.000	398.335	80.004	19.991	103.374	19.679	27.969	0.493
664.000	402.459	80.005	19.995	103.380	19.649	30.179	0.530
672.000	406.534	80.008	19.995	103.387	19.629	31.687	0.500
680.000	410.645	80.008	19.996	103.380	19.608	33.235	0.503
688.000	414.750	80.007	19.995	103.392	19.601	33.746	0.493
696.000	418.892	80.008	19.995	103.382	19.608	33.197	0.508
704.000	423.008	80.008	19.994	103.370	19.640	30.853	0.486
712.000	427.050	80.005	19.994	103.372	19.679	27.990	0.501
720.000	431.194	80.006	19.993	103.365	19.721	24.918	0.501
728.000	435.282	80.007	19.995	103.337	19.770	21.320	0.515
736.000	439.310	80.006	19.995	103.338	19.808	18.487	0.538
744.000	443.275	80.008	19.996	103.328	19.843	15.946	0.505
752.000	447.191	80.008	19.994	103.299	19.881	13.134	0.499
760.000	450.996	80.006	19.994	103.294	19.910	11.006	0.477
768.000	454.813	80.007	19.995	103.290	19.948	8.224	0.453
776.000	458.642	80.009	19.995	103.263	19.965	7.001	0.476
784.000	462.473	80.004	19.995	103.262	19.994	4.805	0.485
792.000	466.419	80.007	19.996	103.276	20.006	3.927	0.509
800.000	470.564	80.006	19.995	103.271	20.012	3.535	0.534
808.000	474.842	80.006	19.993	103.252	20.020	2.896	0.569
816.000	479.116	80.007	19.996	103.260	20.026	2.501	0.531
824.000	483.432	80.006	19.994	103.252	20.035	1.809	0.533
832.000	487.707	80.006	19.994	103.233	20.036	1.769	0.522
840.000	492.000	80.007	19.995	103.247	20.048	0.847	0.539
848.000	496.366	80.006	19.993	103.242	20.053	0.514	0.561
856.000	500.629	80.007	19.996	103.222	20.051	0.639	0.511
864.000	504.817	80.007	19.995	103.222	20.054	0.403	0.512
872.000	509.014	80.007	19.995	103.221	20.060	0.030	0.508
880.000	513.138	80.005	19.997	103.217	20.064	-0.302	0.518
888.000	517.372	80.005	19.995	103.224	20.064	-0.333	0.545
896.000	521.532	80.007	19.995	103.220	20.066	-0.474	0.513
904.000	525.669	80.005	19.995	103.227	20.069	-0.675	0.528
912.000	529.838	80.007	19.995	103.222	20.071	-0.784	0.533
920.000	533.955	80.006	19.996	103.218	20.073	-0.976	0.512
928.000	538.163	80.006	19.993	103.223	20.071	-0.827	0.524
936.000	542.265	80.009	19.994	103.216	20.077	-1.264	0.505
944.000	546.355	80.008	19.995	103.215	20.077	-1.282	0.546
952.000	550.520	80.007	19.994	103.216	20.077	-1.268	0.528
960.000	554.702	80.007	19.994	103.217	20.078	-1.331	0.494
968.000	558.893	80.006	19.997	103.216	20.082	-1.641	0.530
976.000	563.126	80.004	19.996	103.216	20.082	-1.603	0.525
984.000	567.272	80.004	19.994	103.217	20.082	-1.651	0.524
992.000	571.423	80.007	19.995	103.219	20.084	-1.756	0.534
1000.000	575.633	80.006	19.994	103.217	20.086	-1.933	0.499
1008.000	579.775	80.006	19.994	103.219	20.088	-2.095	0.512
1016.000	583.853	80.006	19.995	103.213	20.090	-2.213	0.490
1024.000	587.932	80.007	19.993	103.211	20.092	-2.329	0.485
1032.001	591.968	80.004	19.996	103.193	20.087	-1.988	0.484
1040.000	596.084	80.006	19.995	103.217	20.086	-1.889	0.512
1048.000	600.090	80.006	19.996	103.220	20.092	-2.361	0.506
1056.000	604.148	80.004	19.995	103.221	20.090	-2.220	0.479
1064.000	608.226	80.003	19.995	103.215	20.093	-2.419	0.524
1072.000	612.273	80.005	19.996	103.211	20.097	-2.685	0.469
1080.000	616.414	80.008	19.995	103.208	20.095	-2.577	0.515
1088.001	620.446	80.006	19.993	103.215	20.101	-3.032	0.489
1096.000	624.484	80.008	19.996	103.205	20.102	-3.107	0.467
1104.000	628.579	80.009	19.995	103.196	20.109	-3.569	0.511
1112.000	632.733	80.005	19.995	103.225	20.111	-3.741	0.536
1120.000	637.015	80.004	19.993	103.201	20.108	-3.550	0.582
1128.001	641.287	80.005	19.995	103.202	20.110	-3.665	0.543
1136.000	645.541	80.004	19.995	103.202	20.117	-4.148	0.545
1144.000	649.714	80.004	19.994	103.194	20.119	-4.344	0.533
1152.001	653.850	80.003	19.994	103.171	20.125	-4.748	0.537
1160.000	658.024	80.006	19.994	103.178	20.121	-4.464	0.503
1168.000	662.045	80.007	19.995	103.198	20.119	-4.349	0.492
1176.000	666.099	80.007	19.993	103.193	20.124	-4.682	0.523
1184.000	670.111	80.006	19.994	103.189	20.125	-4.764	0.507
1192.001	674.211	80.006	19.995	103.177	20.125	-4.754	0.520
1200.000	678.209	80.006	19.994	103.181	20.126	-4.849	0.485
1208.000	682.275	80.005	19.994	103.187	20.127	-4.897	0.531
1216.000	686.332	80.004	19.995	103.191	20.126	-4.846	0.515
1224.000	690.501	80.004	19.995	103.197	20.128	-4.976	0.517
1232.000	694.813	80.006	19.994	103.191	20.139	-5.824	0.524
1240.001	699.052	80.005	19.994	103.179	20.136	-5.563	0.524
1248.000	703.373	80.004	19.995	103.183	20.132	-5.297	0.527
1256.000	707.568	80.007	19.994	103.185	20.132	-5.299	0.493
1264.000	711.794	80.009	19.994	103.176	20.134	-5.434	0.543
1272.000	716.014	80.006	19.995	103.177	20.134	-5.464	0.535
1280.000	720.245	80.005	19.994	103.180	20.137	-5.626	0.527
1288.000	724.415	80.006	19.995	103.182	20.138	-5.726	0.545
1296.000	728.645	80.006	19.993	103.181	20.137	-5.681	0.529
1304.000	732.870	80.005	19.994	103.180	20.138	-5.732	0.549
1312.001	737.030	80.006	19.995	103.181	20.139	-5.788	0.524
1320.000	741.167	80.005	19.995	103.177	20.140	-5.848	0.525
1325.000	743.689	80.006	19.995	103.180	20.141	-5.923	0.515