File: 01_Data/Bamboo_Rug_Fabric/MCC/Bamboo_Rug_Fabric_MCC_30K_min_211124_R1.txt
Sample ID:	C:\MCC\MCC Cal\Test\Bamboo_RugB_MCC_30K_min_211124_R1.txt
Sample Weight (mg):	4.69
Heating Rate (C/s):	0.5
Combustor Temp (C):	900
N2 Flow Rate (cc/min):	80
O2 Flow Rate (cc/min):	20
Calibration File:	C:\MCC\MCC Cal\Coeff1 JN10440_30_210304.txt.txt
T Correction Coefficients:	0	1.024463	0
Time Shift (s):	14
*
Time (s)	Temperature (C)	N2 flow rate (cc/min)	O2 flow rate (cc/min)	Flow Rate (cc/min)	Oxygen (%)	HRR (W/g)	Heating rate (C/s)
0.000	107.600	80.008	19.997	103.050	20.157	-0.157	0.006
7.500	107.591	80.005	19.996	103.055	20.156	-0.137	-0.008
14.999	107.643	80.006	19.995	103.195	20.137	1.199	0.017
22.500	108.166	80.006	19.995	103.259	20.122	2.228	0.112
30.000	109.121	80.005	19.995	103.285	20.119	2.416	0.166
37.499	110.516	80.005	19.995	103.311	20.113	2.867	0.205
44.999	112.373	80.007	19.994	103.318	20.105	3.428	0.272
52.501	114.557	80.006	19.994	103.342	20.102	3.584	0.301
59.999	117.063	80.005	19.995	103.356	20.097	3.932	0.362
67.499	119.924	80.004	19.994	103.349	20.097	3.930	0.386
75.000	123.022	80.006	19.994	103.357	20.097	3.923	0.406
82.499	126.307	80.006	19.995	103.355	20.105	3.398	0.460
89.999	129.779	80.006	19.994	103.342	20.098	3.878	0.476
97.501	133.364	80.006	19.994	103.331	20.100	3.772	0.481
104.999	136.963	80.007	19.995	103.330	20.102	3.614	0.460
112.499	140.723	80.007	19.994	103.321	20.101	3.653	0.481
119.999	144.593	80.007	19.995	103.321	20.105	3.397	0.538
127.500	148.343	80.008	19.995	103.318	20.103	3.526	0.526
135.000	152.196	80.007	19.996	103.317	20.105	3.380	0.532
142.500	155.920	80.006	19.994	103.306	20.106	3.344	0.518
150.000	159.630	80.007	19.996	103.292	20.104	3.442	0.490
157.500	163.400	80.006	19.995	103.288	20.103	3.557	0.489
165.000	167.167	80.004	19.994	103.291	20.105	3.407	0.488
172.500	170.844	80.006	19.994	103.282	20.098	3.848	0.480
180.000	174.508	80.008	19.994	103.282	20.101	3.696	0.497
187.500	178.172	80.007	19.994	103.266	20.100	3.770	0.495
195.000	181.830	80.009	19.995	103.282	20.098	3.872	0.498
202.500	185.444	80.010	19.994	103.279	20.095	4.101	0.485
210.000	189.117	80.006	19.994	103.281	20.094	4.120	0.510
217.500	192.737	80.005	19.996	103.282	20.096	4.031	0.450
225.000	196.441	80.005	19.995	103.278	20.094	4.175	0.497
232.500	200.069	80.007	19.995	103.271	20.092	4.312	0.472
240.000	203.720	80.006	19.994	103.249	20.086	4.699	0.468
247.500	207.295	80.005	19.995	103.249	20.086	4.718	0.450
255.000	210.827	80.008	19.996	103.244	20.082	4.957	0.497
262.500	214.301	80.009	19.994	103.243	20.082	4.946	0.465
270.000	217.782	80.006	19.994	103.248	20.080	5.131	0.483
277.500	221.219	80.008	19.994	103.252	20.078	5.276	0.455
285.000	224.716	80.008	19.995	103.254	20.070	5.776	0.467
292.500	228.213	80.005	19.995	103.255	20.074	5.520	0.466
300.000	231.805	80.006	19.996	103.249	20.069	5.887	0.477
307.500	235.407	80.005	19.995	103.247	20.059	6.537	0.480
315.000	239.116	80.005	19.997	103.275	20.060	6.465	0.551
322.500	242.723	80.004	19.995	103.260	20.054	6.928	0.475
330.000	246.488	80.005	19.994	103.274	20.039	7.938	0.521
337.500	250.312	80.006	19.994	103.278	20.031	8.448	0.516
345.000	254.088	80.006	19.994	103.280	20.019	9.327	0.537
352.500	257.883	80.005	19.993	103.280	20.001	10.550	0.481
360.000	261.687	80.008	19.994	103.283	19.986	11.550	0.524
367.500	265.489	80.006	19.994	103.282	19.965	13.029	0.501
375.000	269.280	80.005	19.996	103.288	19.949	14.089	0.481
382.500	273.176	80.005	19.995	103.287	19.929	15.515	0.548
390.000	276.962	80.006	19.996	103.300	19.910	16.821	0.518
397.500	280.706	80.004	19.994	103.310	19.892	18.031	0.480
405.000	284.402	80.003	19.995	103.291	19.874	19.298	0.497
412.500	288.176	80.005	19.995	103.321	19.864	19.975	0.521
420.000	291.795	80.006	19.994	103.317	19.851	20.851	0.438
427.500	295.517	80.006	19.994	103.320	19.840	21.630	0.500
435.000	299.206	80.008	19.993	103.321	19.827	22.503	0.491
442.500	302.907	80.008	19.993	103.321	19.811	23.584	0.510
450.000	306.653	80.005	19.994	103.321	19.794	24.778	0.482
457.500	310.414	80.006	19.994	103.326	19.771	26.343	0.513
465.000	314.225	80.006	19.994	103.332	19.750	27.829	0.510
472.500	317.929	80.006	19.995	103.357	19.709	30.639	0.498
480.000	321.580	80.005	19.996	103.379	19.665	33.697	0.480
487.500	325.212	80.005	19.996	103.403	19.606	37.763	0.465
495.000	328.969	80.007	19.995	103.440	19.524	43.433	0.493
502.500	332.712	80.007	19.996	103.494	19.405	51.622	0.503
510.000	336.534	80.005	19.995	103.577	19.247	62.580	0.492
517.500	340.374	80.007	19.995	103.656	19.039	76.950	0.525
525.000	344.215	80.007	19.994	103.722	18.825	91.626	0.510
532.500	348.194	80.006	19.994	103.666	18.700	100.067	0.561
540.000	352.134	80.006	19.995	103.495	18.818	91.834	0.547
547.500	356.145	80.006	19.994	103.361	19.153	68.820	0.547
555.000	360.118	80.006	19.995	103.318	19.452	48.274	0.541
562.500	364.098	80.003	19.995	103.282	19.634	35.735	0.513
570.000	368.027	80.006	19.995	103.282	19.730	29.177	0.497
577.500	371.909	80.006	19.994	103.279	19.768	26.527	0.505
585.000	375.847	80.005	19.995	103.283	19.780	25.755	0.497
592.500	379.723	80.006	19.995	103.283	19.784	25.424	0.510
600.000	383.543	80.007	19.992	103.284	19.776	25.976	0.489
607.500	387.432	80.006	19.993	103.305	19.769	26.456	0.549
615.000	391.233	80.005	19.995	103.306	19.755	27.424	0.504
622.500	395.110	80.006	19.994	103.307	19.736	28.772	0.501
630.000	398.836	80.008	19.995	103.321	19.718	29.995	0.483
637.500	402.584	80.006	19.993	103.320	19.693	31.684	0.482
645.000	406.294	80.004	19.994	103.322	19.664	33.732	0.477
652.500	410.009	80.006	19.995	103.327	19.648	34.839	0.507
660.000	413.634	80.006	19.994	103.328	19.633	35.876	0.468
667.500	417.337	80.005	19.995	103.330	19.625	36.370	0.490
675.000	421.027	80.005	19.994	103.341	19.635	35.733	0.498
682.500	424.676	80.008	19.996	103.319	19.654	34.407	0.513
690.000	428.376	80.006	19.994	103.325	19.690	31.945	0.525
697.500	432.175	80.005	19.994	103.323	19.733	28.979	0.504
705.000	436.275	80.006	19.994	103.314	19.773	26.179	0.531
712.500	440.341	80.005	19.995	103.295	19.812	23.528	0.548
720.000	444.450	80.005	19.994	103.286	19.844	21.333	0.502
727.500	448.495	80.004	19.994	103.286	19.877	19.084	0.533
735.000	452.607	80.006	19.995	103.269	19.909	16.824	0.555
742.500	456.743	80.005	19.994	103.247	19.938	14.882	0.537
750.000	460.831	80.004	19.994	103.242	19.969	12.711	0.521
757.500	464.940	80.007	19.994	103.230	19.997	10.810	0.558
765.000	469.031	80.006	19.995	103.212	20.016	9.490	0.546
772.500	473.085	80.005	19.995	103.201	20.035	8.220	0.555
780.000	477.109	80.004	19.995	103.205	20.046	7.414	0.520
787.500	481.138	80.004	19.995	103.202	20.057	6.692	0.528
795.000	485.099	80.004	19.994	103.195	20.060	6.474	0.536
802.500	488.997	80.004	19.994	103.186	20.067	5.967	0.523
810.000	492.937	80.005	19.994	103.184	20.075	5.422	0.512
817.500	496.845	80.007	19.994	103.177	20.079	5.203	0.494
825.000	500.808	80.007	19.994	103.173	20.082	4.979	0.540
832.500	504.705	80.006	19.995	103.171	20.090	4.440	0.503
840.000	508.658	80.007	19.994	103.168	20.088	4.532	0.530
847.500	512.497	80.005	19.993	103.177	20.094	4.144	0.495
855.000	516.440	80.005	19.995	103.186	20.094	4.175	0.493
862.500	520.298	80.004	19.995	103.170	20.095	4.088	0.515
870.000	524.100	80.006	19.995	103.170	20.094	4.153	0.511
877.500	527.922	80.005	19.994	103.167	20.098	3.836	0.479
885.000	531.698	80.005	19.995	103.167	20.097	3.949	0.484
892.500	535.563	80.006	19.994	103.166	20.100	3.758	0.502
900.000	539.362	80.006	19.995	103.164	20.099	3.812	0.508
907.500	543.179	80.007	19.993	103.168	20.097	3.970	0.485
915.000	546.991	80.007	19.995	103.168	20.101	3.672	0.531
922.500	550.803	80.006	19.993	103.164	20.097	3.925	0.514
930.000	554.649	80.004	19.995	103.168	20.099	3.773	0.520
937.500	558.487	80.005	19.995	103.159	20.099	3.794	0.547
945.000	562.247	80.005	19.995	103.165	20.097	3.951	0.510
952.500	566.100	80.005	19.995	103.164	20.098	3.894	0.579
960.000	569.810	80.003	19.994	103.163	20.091	4.329	0.533
967.500	573.630	80.005	19.995	103.167	20.100	3.720	0.491
975.000	577.573	80.005	19.995	103.167	20.103	3.494	0.537
982.500	581.235	80.004	19.995	103.167	20.101	3.662	0.602
990.000	585.153	80.006	19.994	103.168	20.100	3.738	0.502
997.500	589.034	80.008	19.993	103.165	20.094	4.156	0.521
1005.000	593.057	80.008	19.994	103.165	20.098	3.895	0.489
1012.500	597.067	80.006	19.995	103.161	20.093	4.242	0.523
1020.000	601.172	80.005	19.996	103.164	20.087	4.647	0.549
1027.499	605.084	80.005	19.995	103.165	20.087	4.608	0.525
1034.999	609.010	80.005	19.993	103.167	20.092	4.297	0.506
1042.499	612.962	80.004	19.996	103.165	20.095	4.090	0.533
1049.999	616.882	80.005	19.995	103.165	20.090	4.388	0.526
1057.499	620.759	80.006	19.994	103.170	20.095	4.101	0.508
1064.999	624.536	80.006	19.994	103.161	20.094	4.151	0.500
1072.501	628.333	80.006	19.993	103.159	20.096	3.976	0.495
1079.999	632.165	80.008	19.994	103.157	20.099	3.767	0.495
1087.499	635.986	80.006	19.995	103.152	20.101	3.647	0.503
1094.999	639.817	80.006	19.995	103.141	20.103	3.513	0.521
1102.499	643.610	80.004	19.996	103.133	20.105	3.404	0.514
1110.000	647.363	80.005	19.995	103.139	20.109	3.145	0.497
1117.501	651.193	80.003	19.995	103.144	20.105	3.382	0.532
1124.999	655.007	80.004	19.996	103.141	20.110	3.058	0.515
1132.499	658.838	80.005	19.996	103.145	20.111	2.976	0.831
1139.999	662.675	80.005	19.995	103.146	20.108	3.210	0.497
1147.499	666.419	80.007	19.994	103.130	20.111	2.984	0.455
1154.999	670.136	80.008	19.996	103.131	20.105	3.367	0.489
1162.499	673.899	80.006	19.995	103.130	20.110	3.063	0.510
1170.000	677.738	80.005	19.994	103.134	20.108	3.184	0.525
1177.500	681.475	80.005	19.995	103.138	20.107	3.273	0.501
1184.999	685.257	80.005	19.993	103.151	20.107	3.226	0.519
1192.499	688.988	80.004	19.994	103.141	20.104	3.424	0.475
1200.000	692.779	80.004	19.995	103.133	20.107	3.267	0.487
1207.499	696.646	80.005	19.996	103.138	20.106	3.323	0.545
1214.999	700.557	80.005	19.996	103.134	20.108	3.169	0.541
1222.499	704.463	80.006	19.996	103.129	20.105	3.363	0.510
1229.999	708.378	80.005	19.996	103.135	20.108	3.191	0.528
1237.500	712.187	80.007	19.995	103.132	20.108	3.183	0.489
1245.000	716.058	80.006	19.993	103.133	20.104	3.454	0.517
1252.499	719.865	80.005	19.995	103.129	20.108	3.170	0.495
1260.000	723.643	80.004	19.996	103.126	20.107	3.224	0.533
1267.499	727.456	80.005	19.995	103.127	20.104	3.454	0.502
1274.999	731.195	80.005	19.996	103.127	20.103	3.554	0.500
1282.499	735.024	80.004	19.994	103.129	20.104	3.439	0.505
1289.999	738.766	80.006	19.997	103.130	20.107	3.252	0.524
1297.499	742.530	80.006	19.995	103.128	20.102	3.581	0.486
1299.499	743.526	80.006	19.995	103.128	20.106	3.354	0.503