File: 01_Data/Triexta_Carpet_High_Pile/FTIR/IS/Triexta_Carpet_High_Pile_IS_T_221121_R4.dpt
7497.03,0.01739
7473.89,0.02747
7450.74,0.01637
7427.6,0.02216
7404.45,0.02754
7381.31,0.02277
7358.16,0.02098
7335.02,0.03221
7311.87,0.02571
7288.73,0.02835
7265.58,0.02973
7242.44,0.02810
7219.29,0.02448
7196.15,0.01615
7173,0.02699
7149.86,0.02602
7126.71,0.02294
7103.57,0.02452
7080.42,0.02216
7057.28,0.02722
7034.13,0.02628
7010.99,0.02338
6987.84,0.02477
6964.7,0.02444
6941.55,0.02124
6918.41,0.02525
6895.26,0.02033
6872.12,0.03145
6848.97,0.01833
6825.83,0.02324
6802.68,0.02058
6779.54,0.02719
6756.39,0.02224
6733.25,0.02435
6710.1,0.03074
6686.96,0.02417
6663.82,0.01737
6640.67,0.02015
6617.53,0.02125
6594.38,0.02038
6571.24,0.02410
6548.09,0.01953
6524.95,0.02423
6501.8,0.02016
6478.66,0.02182
6455.51,0.02037
6432.37,0.02332
6409.22,0.02239
6386.08,0.02084
6362.93,0.01771
6339.79,0.02607
6316.64,0.02467
6293.5,0.02029
6270.35,0.02337
6247.21,0.02495
6224.06,0.02041
6200.92,0.01856
6177.77,0.02487
6154.63,0.02200
6131.48,0.02551
6108.34,0.02078
6085.19,0.02231
6062.05,0.02029
6038.9,0.02172
6015.76,0.02301
5992.61,0.02075
5969.47,0.02025
5946.32,0.01905
5923.18,0.02145
5900.03,0.02083
5876.89,0.01935
5853.74,0.02230
5830.6,0.01964
5807.45,0.02478
5784.31,0.02033
5761.16,0.02219
5738.02,0.02178
5714.87,0.02068
5691.73,0.02033
5668.58,0.02127
5645.44,0.02264
5622.29,0.02224
5599.15,0.02346
5576,0.02262
5552.86,0.02088
5529.71,0.02098
5506.57,0.02155
5483.42,0.02135
5460.28,0.02176
5437.13,0.02195
5413.99,0.02274
5390.84,0.02076
5367.7,0.02114
5344.55,0.02071
5321.41,0.02124
5298.26,0.02111
5275.12,0.02291
5251.97,0.02110
5228.83,0.02110
5205.68,0.02352
5182.54,0.02159
5159.39,0.02229
5136.25,0.02201
5113.1,0.02065
5089.96,0.02196
5066.81,0.02273
5043.67,0.02227
5020.52,0.02187
4997.38,0.02138
4974.23,0.02222
4951.09,0.02235
4927.94,0.02173
4904.8,0.02037
4881.65,0.02232
4858.51,0.02134
4835.36,0.02174
4812.22,0.02239
4789.07,0.02209
4765.93,0.02240
4742.78,0.02225
4719.64,0.02294
4696.49,0.02188
4673.35,0.02185
4650.2,0.02152
4627.06,0.02231
4603.92,0.02166
4580.77,0.02195
4557.63,0.02139
4534.48,0.02133
4511.34,0.02098
4488.19,0.02236
4465.05,0.02305
4441.9,0.02120
4418.76,0.02209
4395.61,0.02245
4372.47,0.02299
4349.32,0.02244
4326.18,0.02163
4303.03,0.02257
4279.89,0.02243
4256.74,0.02196
4233.6,0.02193
4210.45,0.02206
4187.31,0.02234
4164.16,0.02202
4141.02,0.02268
4117.87,0.02244
4094.73,0.02265
4071.58,0.02228
4048.44,0.02202
4025.29,0.02224
4002.15,0.02266
3979,0.02215
3955.86,0.02162
3932.71,0.02285
3909.57,0.02230
3886.42,0.02242
3863.28,0.02242
3840.13,0.02276
3816.99,0.02251
3793.84,0.02208
3770.7,0.02244
3747.55,0.02154
3724.41,0.02251
3701.26,0.02266
3678.12,0.02242
3654.97,0.02180
3631.83,0.02231
3608.68,0.02142
3585.54,0.02148
3562.39,0.02121
3539.25,0.02121
3516.1,0.02023
3492.96,0.02086
3469.81,0.02055
3446.67,0.02112
3423.52,0.02086
3400.38,0.02051
3377.23,0.02056
3354.09,0.02027
3330.94,0.01996
3307.8,0.02057
3284.65,0.02025
3261.51,0.02015
3238.36,0.02001
3215.22,0.02027
3192.07,0.02104
3168.93,0.02042
3145.78,0.02104
3122.64,0.02080
3099.49,0.02083
3076.35,0.01999
3053.2,0.02045
3030.06,0.02093
3006.91,0.02056
2983.77,0.01993
2960.62,0.01984
2937.48,0.01986
2914.33,0.02023
2891.19,0.02019
2868.04,0.02029
2844.9,0.02124
2821.75,0.02115
2798.61,0.02122
2775.46,0.02115
2752.32,0.02115
2729.17,0.02096
2706.03,0.02102
2682.88,0.02149
2659.74,0.02145
2636.59,0.02121
2613.45,0.02123
2590.3,0.02170
2567.16,0.02125
2544.02,0.02128
2520.87,0.02094
2497.73,0.02163
2474.58,0.02137
2451.44,0.02111
2428.29,0.02123
2405.15,0.02117
2382,0.02144
2358.86,0.02131
2335.71,0.02121
2312.57,0.02101
2289.42,0.02115
2266.28,0.02112
2243.13,0.02079
2219.99,0.02128
2196.84,0.02104
2173.7,0.02116
2150.55,0.02112
2127.41,0.02081
2104.26,0.02101
2081.12,0.02088
2057.97,0.02073
2034.83,0.02116
2011.68,0.02091
1988.54,0.02097
1965.39,0.02136
1942.25,0.02080
1919.1,0.02077
1895.96,0.02084
1872.81,0.02063
1849.67,0.02065
1826.52,0.02037
1803.38,0.01999
1780.23,0.01921
1757.09,0.01772
1733.94,0.01978
1710.8,0.02056
1687.65,0.01935
1664.51,0.01832
1641.36,0.01870
1618.22,0.01942
1595.07,0.01878
1571.93,0.01822
1548.78,0.01802
1525.64,0.01876
1502.49,0.01843
1479.35,0.01835
1456.2,0.01880
1433.06,0.01936
1409.91,0.01882
1386.77,0.01823
1363.62,0.01826
1340.48,0.01794
1317.33,0.01741
1294.19,0.01812
1271.04,0.01951
1247.9,0.02020
1224.75,0.01947
1201.61,0.01857
1178.46,0.01815
1155.32,0.01771
1132.17,0.01819
1109.03,0.01863
1085.88,0.01783
1062.74,0.02017
1039.59,0.01942
1016.45,0.01909
993.304,0.02140
970.159,0.02021
947.014,0.01972
923.869,0.01956
900.724,0.01923
877.579,0.01949
854.434,0.01884
831.289,0.01950
808.144,0.01893
784.999,0.01905
761.854,0.01863
738.709,0.01886
715.565,0.01761
692.42,0.01887
669.275,0.01757
646.13,0.01720
622.985,0.01722
599.84,0.01605