File: 01_Data/Triexta_Carpet_High_Pile/FTIR/IS/Triexta_Carpet_High_Pile_IS_S_221121_R6.dpt
7497.03,0.84437
7473.89,0.84254
7450.74,0.83752
7427.6,0.82657
7404.45,0.83136
7381.31,0.81536
7358.16,0.80890
7335.02,0.78678
7311.87,0.78778
7288.73,0.80215
7265.58,0.80165
7242.44,0.79413
7219.29,0.77715
7196.15,0.78659
7173,0.78655
7149.86,0.77928
7126.71,0.78802
7103.57,0.78836
7080.42,0.78462
7057.28,0.77730
7034.13,0.78111
7010.99,0.78803
6987.84,0.78602
6964.7,0.79721
6941.55,0.79419
6918.41,0.80130
6895.26,0.80370
6872.12,0.80220
6848.97,0.80510
6825.83,0.81465
6802.68,0.82138
6779.54,0.82850
6756.39,0.82634
6733.25,0.82762
6710.1,0.83024
6686.96,0.83547
6663.82,0.83599
6640.67,0.83494
6617.53,0.83916
6594.38,0.84515
6571.24,0.84287
6548.09,0.84513
6524.95,0.84200
6501.8,0.84496
6478.66,0.84077
6455.51,0.84199
6432.37,0.84442
6409.22,0.83906
6386.08,0.84209
6362.93,0.84348
6339.79,0.83430
6316.64,0.83477
6293.5,0.83986
6270.35,0.83125
6247.21,0.82542
6224.06,0.81950
6200.92,0.78646
6177.77,0.78526
6154.63,0.76823
6131.48,0.75356
6108.34,0.70581
6085.19,0.62334
6062.05,0.53386
6038.9,0.48422
6015.76,0.47014
5992.61,0.54255
5969.47,0.57702
5946.32,0.55977
5923.18,0.59133
5900.03,0.61217
5876.89,0.62109
5853.74,0.63664
5830.6,0.61480
5807.45,0.57790
5784.31,0.59002
5761.16,0.62026
5738.02,0.63044
5714.87,0.65056
5691.73,0.66766
5668.58,0.67708
5645.44,0.67798
5622.29,0.70148
5599.15,0.71103
5576,0.70219
5552.86,0.69401
5529.71,0.69565
5506.57,0.70752
5483.42,0.70282
5460.28,0.70393
5437.13,0.72296
5413.99,0.73012
5390.84,0.73158
5367.7,0.73149
5344.55,0.72535
5321.41,0.73567
5298.26,0.73281
5275.12,0.72404
5251.97,0.71830
5228.83,0.72765
5205.68,0.72712
5182.54,0.72395
5159.39,0.71945
5136.25,0.70318
5113.1,0.68186
5089.96,0.67812
5066.81,0.71769
5043.67,0.72983
5020.52,0.72503
4997.38,0.72719
4974.23,0.73051
4951.09,0.72554
4927.94,0.71861
4904.8,0.71465
4881.65,0.71109
4858.51,0.70281
4835.36,0.68421
4812.22,0.64231
4789.07,0.62895
4765.93,0.65193
4742.78,0.61876
4719.64,0.51173
4696.49,0.44794
4673.35,0.47819
4650.2,0.51257
4627.06,0.48352
4603.92,0.57573
4580.77,0.51392
4557.63,0.60497
4534.48,0.60336
4511.34,0.57013
4488.19,0.46613
4465.05,0.42695
4441.9,0.34531
4418.76,0.32034
4395.61,0.35715
4372.47,0.34830
4349.32,0.34394
4326.18,0.36475
4303.03,0.37152
4279.89,0.34912
4256.74,0.34772
4233.6,0.35339
4210.45,0.34641
4187.31,0.35932
4164.16,0.37859
4141.02,0.41538
4117.87,0.37744
4094.73,0.26631
4071.58,0.31745
4048.44,0.36607
4025.29,0.38833
4002.15,0.41368
3979,0.44470
3955.86,0.43868
3932.71,0.41752
3909.57,0.42195
3886.42,0.45431
3863.28,0.48104
3840.13,0.49464
3816.99,0.48459
3793.84,0.50424
3770.7,0.49793
3747.55,0.50314
3724.41,0.50892
3701.26,0.48190
3678.12,0.46118
3654.97,0.52185
3631.83,0.48324
3608.68,0.43610
3585.54,0.35666
3562.39,0.28357
3539.25,0.27139
3516.1,0.30210
3492.96,0.32977
3469.81,0.31759
3446.67,0.23328
3423.52,0.16658
3400.38,0.24733
3377.23,0.33495
3354.09,0.32955
3330.94,0.28295
3307.8,0.31855
3284.65,0.31208
3261.51,0.32928
3238.36,0.31820
3215.22,0.31568
3192.07,0.31254
3168.93,0.30079
3145.78,0.27573
3122.64,0.23171
3099.49,0.19159
3076.35,0.16444
3053.2,0.15438
3030.06,0.20636
3006.91,0.10756
2983.77,0.03788
2960.62,0.03604
2937.48,0.07517
2914.33,0.07333
2891.19,0.08213
2868.04,0.11618
2844.9,0.15533
2821.75,0.22614
2798.61,0.25618
2775.46,0.26759
2752.32,0.30357
2729.17,0.33135
2706.03,0.35456
2682.88,0.36726
2659.74,0.36164
2636.59,0.32485
2613.45,0.32825
2590.3,0.31126
2567.16,0.29468
2544.02,0.27801
2520.87,0.29832
2497.73,0.33104
2474.58,0.35542
2451.44,0.35951
2428.29,0.29832
2405.15,0.24046
2382,0.21940
2358.86,0.26462
2335.71,0.33409
2312.57,0.35932
2289.42,0.29782
2266.28,0.30586
2243.13,0.27749
2219.99,0.27519
2196.84,0.28964
2173.7,0.30988
2150.55,0.27772
2127.41,0.26046
2104.26,0.24877
2081.12,0.25758
2057.97,0.26220
2034.83,0.26368
2011.68,0.26074
1988.54,0.23734
1965.39,0.18049
1942.25,0.17009
1919.1,0.25350
1895.96,0.24615
1872.81,0.22932
1849.67,0.17881
1826.52,0.10871
1803.38,0.09781
1780.23,0.07574
1757.09,0.03776
1733.94,0.01651
1710.8,0.03157
1687.65,0.04237
1664.51,0.07445
1641.36,0.11162
1618.22,0.11206
1595.07,0.13946
1571.93,0.09075
1548.78,0.13579
1525.64,0.09335
1502.49,0.03650
1479.35,0.05003
1456.2,0.03276
1433.06,0.05021
1409.91,0.01849
1386.77,0.02304
1363.62,0.02745
1340.48,0.02779
1317.33,0.01633
1294.19,0.01720
1271.04,0.03955
1247.9,0.03762
1224.75,0.03593
1201.61,0.06519
1178.46,0.05287
1155.32,0.03367
1132.17,0.02015
1109.03,0.02569
1085.88,0.02918
1062.74,0.06571
1039.59,0.03079
1016.45,0.03207
993.304,0.11603
970.159,0.07500
947.014,0.06079
923.869,0.08660
900.724,0.09347
877.579,0.04291
854.434,0.07183
831.289,0.10733
808.144,0.11127
784.999,0.13285
761.854,0.12706
738.709,0.02404
715.565,0.08589
692.42,0.18714
669.275,0.20181
646.13,0.22003
622.985,0.23041
599.84,0.24013