File: 01_Data/Triexta_Carpet_High_Pile/FTIR/IS/Triexta_Carpet_High_Pile_IS_S_221121_R7.dpt
7497.03,0.85484
7473.89,0.85113
7450.74,0.83550
7427.6,0.83509
7404.45,0.81831
7381.31,0.82402
7358.16,0.79966
7335.02,0.79121
7311.87,0.78919
7288.73,0.78716
7265.58,0.79683
7242.44,0.79022
7219.29,0.77908
7196.15,0.76812
7173,0.78838
7149.86,0.77527
7126.71,0.78163
7103.57,0.79203
7080.42,0.78158
7057.28,0.77888
7034.13,0.79035
7010.99,0.77685
6987.84,0.78670
6964.7,0.79796
6941.55,0.79777
6918.41,0.79688
6895.26,0.80826
6872.12,0.80713
6848.97,0.81402
6825.83,0.81128
6802.68,0.82245
6779.54,0.82156
6756.39,0.82630
6733.25,0.82421
6710.1,0.83410
6686.96,0.83142
6663.82,0.83346
6640.67,0.83666
6617.53,0.84333
6594.38,0.83934
6571.24,0.84340
6548.09,0.84230
6524.95,0.84090
6501.8,0.83865
6478.66,0.84069
6455.51,0.84314
6432.37,0.84214
6409.22,0.84131
6386.08,0.84723
6362.93,0.84141
6339.79,0.84089
6316.64,0.83399
6293.5,0.83443
6270.35,0.82806
6247.21,0.82642
6224.06,0.81425
6200.92,0.78450
6177.77,0.77959
6154.63,0.76816
6131.48,0.75205
6108.34,0.70475
6085.19,0.62162
6062.05,0.53333
6038.9,0.48341
6015.76,0.46949
5992.61,0.54070
5969.47,0.57459
5946.32,0.55819
5923.18,0.59099
5900.03,0.61257
5876.89,0.61896
5853.74,0.63541
5830.6,0.61515
5807.45,0.57886
5784.31,0.58838
5761.16,0.62104
5738.02,0.62845
5714.87,0.64743
5691.73,0.66687
5668.58,0.67539
5645.44,0.67759
5622.29,0.70126
5599.15,0.71081
5576,0.70099
5552.86,0.69164
5529.71,0.69313
5506.57,0.70818
5483.42,0.69953
5460.28,0.70369
5437.13,0.72279
5413.99,0.72905
5390.84,0.72802
5367.7,0.72803
5344.55,0.72512
5321.41,0.73284
5298.26,0.73206
5275.12,0.72493
5251.97,0.71937
5228.83,0.72415
5205.68,0.72256
5182.54,0.72118
5159.39,0.71614
5136.25,0.70028
5113.1,0.68021
5089.96,0.67675
5066.81,0.71622
5043.67,0.72787
5020.52,0.72454
4997.38,0.72527
4974.23,0.72910
4951.09,0.72338
4927.94,0.71790
4904.8,0.71386
4881.65,0.70812
4858.51,0.70103
4835.36,0.68208
4812.22,0.63963
4789.07,0.62752
4765.93,0.64991
4742.78,0.61608
4719.64,0.51024
4696.49,0.44750
4673.35,0.47767
4650.2,0.51118
4627.06,0.48337
4603.92,0.57426
4580.77,0.51225
4557.63,0.60193
4534.48,0.60125
4511.34,0.56861
4488.19,0.46506
4465.05,0.42538
4441.9,0.34498
4418.76,0.31947
4395.61,0.35675
4372.47,0.34719
4349.32,0.34256
4326.18,0.36416
4303.03,0.37046
4279.89,0.34808
4256.74,0.34753
4233.6,0.35224
4210.45,0.34509
4187.31,0.35812
4164.16,0.37864
4141.02,0.41415
4117.87,0.37621
4094.73,0.26617
4071.58,0.31639
4048.44,0.36491
4025.29,0.38722
4002.15,0.41292
3979,0.44342
3955.86,0.43731
3932.71,0.41649
3909.57,0.42120
3886.42,0.45374
3863.28,0.47991
3840.13,0.49348
3816.99,0.48332
3793.84,0.50339
3770.7,0.49648
3747.55,0.50197
3724.41,0.50738
3701.26,0.48012
3678.12,0.46008
3654.97,0.52013
3631.83,0.48195
3608.68,0.43418
3585.54,0.35548
3562.39,0.28328
3539.25,0.27126
3516.1,0.30131
3492.96,0.32957
3469.81,0.31840
3446.67,0.23286
3423.52,0.16619
3400.38,0.24714
3377.23,0.33460
3354.09,0.32902
3330.94,0.28165
3307.8,0.31809
3284.65,0.31086
3261.51,0.32841
3238.36,0.31780
3215.22,0.31412
3192.07,0.31158
3168.93,0.30025
3145.78,0.27497
3122.64,0.23094
3099.49,0.19139
3076.35,0.16407
3053.2,0.15391
3030.06,0.20668
3006.91,0.10743
2983.77,0.03807
2960.62,0.03583
2937.48,0.07470
2914.33,0.07325
2891.19,0.08286
2868.04,0.11559
2844.9,0.15436
2821.75,0.22528
2798.61,0.25653
2775.46,0.26692
2752.32,0.30284
2729.17,0.33109
2706.03,0.35338
2682.88,0.36639
2659.74,0.36012
2636.59,0.32393
2613.45,0.32769
2590.3,0.31048
2567.16,0.29408
2544.02,0.27750
2520.87,0.29722
2497.73,0.33071
2474.58,0.35488
2451.44,0.35870
2428.29,0.29800
2405.15,0.24031
2382,0.21825
2358.86,0.26439
2335.71,0.33356
2312.57,0.35861
2289.42,0.29718
2266.28,0.30493
2243.13,0.27701
2219.99,0.27491
2196.84,0.28899
2173.7,0.30890
2150.55,0.27708
2127.41,0.25962
2104.26,0.24817
2081.12,0.25713
2057.97,0.26166
2034.83,0.26291
2011.68,0.26025
1988.54,0.23680
1965.39,0.18002
1942.25,0.16977
1919.1,0.25307
1895.96,0.24560
1872.81,0.22844
1849.67,0.17806
1826.52,0.10806
1803.38,0.09771
1780.23,0.07532
1757.09,0.03834
1733.94,0.01710
1710.8,0.03158
1687.65,0.04273
1664.51,0.07401
1641.36,0.11164
1618.22,0.11195
1595.07,0.13967
1571.93,0.09090
1548.78,0.13501
1525.64,0.09338
1502.49,0.03684
1479.35,0.05038
1456.2,0.03260
1433.06,0.05070
1409.91,0.01822
1386.77,0.02326
1363.62,0.02717
1340.48,0.02792
1317.33,0.01621
1294.19,0.01695
1271.04,0.03952
1247.9,0.03734
1224.75,0.03635
1201.61,0.06547
1178.46,0.05352
1155.32,0.03364
1132.17,0.02120
1109.03,0.02614
1085.88,0.02937
1062.74,0.06583
1039.59,0.03110
1016.45,0.03250
993.304,0.11656
970.159,0.07515
947.014,0.06108
923.869,0.08773
900.724,0.09343
877.579,0.04312
854.434,0.07141
831.289,0.10665
808.144,0.11200
784.999,0.13297
761.854,0.12721
738.709,0.02446
715.565,0.08637
692.42,0.18702
669.275,0.20275
646.13,0.21874
622.985,0.23065
599.84,0.24077