File: 01_Data/Triexta_Carpet_High_Pile/FTIR/IS/Triexta_Carpet_High_Pile_IS_S_221121_R1.dpt
7497.03,0.83053
7473.89,0.85246
7450.74,0.84700
7427.6,0.82786
7404.45,0.82265
7381.31,0.81510
7358.16,0.80544
7335.02,0.78461
7311.87,0.78830
7288.73,0.79566
7265.58,0.78503
7242.44,0.79557
7219.29,0.78150
7196.15,0.77822
7173,0.78209
7149.86,0.77760
7126.71,0.78762
7103.57,0.77427
7080.42,0.78396
7057.28,0.77873
7034.13,0.77679
7010.99,0.78268
6987.84,0.78399
6964.7,0.79475
6941.55,0.79711
6918.41,0.79766
6895.26,0.80922
6872.12,0.81004
6848.97,0.80907
6825.83,0.81617
6802.68,0.82037
6779.54,0.82449
6756.39,0.82320
6733.25,0.82932
6710.1,0.83331
6686.96,0.83251
6663.82,0.83295
6640.67,0.83518
6617.53,0.83710
6594.38,0.84054
6571.24,0.84177
6548.09,0.84670
6524.95,0.84161
6501.8,0.84379
6478.66,0.84461
6455.51,0.84223
6432.37,0.83824
6409.22,0.84285
6386.08,0.83717
6362.93,0.83535
6339.79,0.83703
6316.64,0.83427
6293.5,0.83339
6270.35,0.83128
6247.21,0.82276
6224.06,0.81569
6200.92,0.78127
6177.77,0.78002
6154.63,0.76756
6131.48,0.75371
6108.34,0.70407
6085.19,0.62063
6062.05,0.53149
6038.9,0.48141
6015.76,0.47121
5992.61,0.54115
5969.47,0.57552
5946.32,0.55963
5923.18,0.58824
5900.03,0.60831
5876.89,0.62054
5853.74,0.63822
5830.6,0.61709
5807.45,0.57943
5784.31,0.58984
5761.16,0.61936
5738.02,0.63183
5714.87,0.64953
5691.73,0.66434
5668.58,0.67811
5645.44,0.67660
5622.29,0.69677
5599.15,0.70872
5576,0.69825
5552.86,0.68952
5529.71,0.69679
5506.57,0.70624
5483.42,0.70182
5460.28,0.70427
5437.13,0.72303
5413.99,0.72768
5390.84,0.72951
5367.7,0.72762
5344.55,0.72471
5321.41,0.73318
5298.26,0.73245
5275.12,0.72134
5251.97,0.71596
5228.83,0.72433
5205.68,0.72325
5182.54,0.72125
5159.39,0.71626
5136.25,0.69980
5113.1,0.67821
5089.96,0.67689
5066.81,0.71427
5043.67,0.72663
5020.52,0.72368
4997.38,0.72337
4974.23,0.72854
4951.09,0.72249
4927.94,0.71833
4904.8,0.71298
4881.65,0.70805
4858.51,0.70055
4835.36,0.67976
4812.22,0.63989
4789.07,0.62610
4765.93,0.64928
4742.78,0.61746
4719.64,0.50973
4696.49,0.44700
4673.35,0.47638
4650.2,0.50976
4627.06,0.48178
4603.92,0.57250
4580.77,0.51291
4557.63,0.60160
4534.48,0.59935
4511.34,0.56732
4488.19,0.46378
4465.05,0.42484
4441.9,0.34357
4418.76,0.31956
4395.61,0.35617
4372.47,0.34712
4349.32,0.34261
4326.18,0.36403
4303.03,0.36934
4279.89,0.34829
4256.74,0.34668
4233.6,0.35210
4210.45,0.34612
4187.31,0.35795
4164.16,0.37776
4141.02,0.41322
4117.87,0.37622
4094.73,0.26563
4071.58,0.31560
4048.44,0.36484
4025.29,0.38638
4002.15,0.41295
3979,0.44270
3955.86,0.43689
3932.71,0.41515
3909.57,0.42112
3886.42,0.45272
3863.28,0.48011
3840.13,0.49272
3816.99,0.48300
3793.84,0.50206
3770.7,0.49578
3747.55,0.50112
3724.41,0.50710
3701.26,0.47916
3678.12,0.45652
3654.97,0.51091
3631.83,0.47108
3608.68,0.42711
3585.54,0.35143
3562.39,0.27907
3539.25,0.26782
3516.1,0.29716
3492.96,0.32520
3469.81,0.31379
3446.67,0.22984
3423.52,0.16531
3400.38,0.24472
3377.23,0.32869
3354.09,0.32313
3330.94,0.27755
3307.8,0.31294
3284.65,0.30600
3261.51,0.32345
3238.36,0.31283
3215.22,0.31090
3192.07,0.30799
3168.93,0.29716
3145.78,0.27272
3122.64,0.22925
3099.49,0.19078
3076.35,0.16346
3053.2,0.15365
3030.06,0.20616
3006.91,0.10726
2983.77,0.03778
2960.62,0.03583
2937.48,0.07436
2914.33,0.07321
2891.19,0.08213
2868.04,0.11576
2844.9,0.15456
2821.75,0.22538
2798.61,0.25543
2775.46,0.26618
2752.32,0.30242
2729.17,0.33023
2706.03,0.35261
2682.88,0.36588
2659.74,0.36019
2636.59,0.32306
2613.45,0.32707
2590.3,0.31016
2567.16,0.29384
2544.02,0.27690
2520.87,0.29697
2497.73,0.32969
2474.58,0.35461
2451.44,0.35833
2428.29,0.29721
2405.15,0.23990
2382,0.21790
2358.86,0.26390
2335.71,0.33268
2312.57,0.35760
2289.42,0.29656
2266.28,0.30473
2243.13,0.27635
2219.99,0.27457
2196.84,0.28854
2173.7,0.30840
2150.55,0.27679
2127.41,0.25881
2104.26,0.24770
2081.12,0.25718
2057.97,0.26159
2034.83,0.26243
2011.68,0.26024
1988.54,0.23666
1965.39,0.17973
1942.25,0.16968
1919.1,0.25295
1895.96,0.24519
1872.81,0.22850
1849.67,0.17792
1826.52,0.10852
1803.38,0.09763
1780.23,0.07559
1757.09,0.03822
1733.94,0.01689
1710.8,0.03132
1687.65,0.04266
1664.51,0.07443
1641.36,0.11141
1618.22,0.11162
1595.07,0.13943
1571.93,0.09082
1548.78,0.13547
1525.64,0.09298
1502.49,0.03664
1479.35,0.05014
1456.2,0.03273
1433.06,0.05038
1409.91,0.01818
1386.77,0.02315
1363.62,0.02762
1340.48,0.02751
1317.33,0.01684
1294.19,0.01729
1271.04,0.03941
1247.9,0.03746
1224.75,0.03674
1201.61,0.06538
1178.46,0.05332
1155.32,0.03395
1132.17,0.02055
1109.03,0.02549
1085.88,0.02945
1062.74,0.06614
1039.59,0.03070
1016.45,0.03213
993.304,0.11654
970.159,0.07546
947.014,0.06075
923.869,0.08761
900.724,0.09368
877.579,0.04333
854.434,0.07211
831.289,0.10685
808.144,0.11072
784.999,0.13314
761.854,0.12727
738.709,0.02480
715.565,0.08758
692.42,0.18697
669.275,0.20211
646.13,0.21983
622.985,0.23003
599.84,0.24109