File: 01_Data/Triexta_Carpet_High_Pile/FTIR/IS/Triexta_Carpet_High_Pile_IS_S_221121_R5.dpt
7497.03,0.84857
7473.89,0.83717
7450.74,0.85180
7427.6,0.82278
7404.45,0.82486
7381.31,0.81955
7358.16,0.79708
7335.02,0.79591
7311.87,0.79282
7288.73,0.79158
7265.58,0.80658
7242.44,0.79500
7219.29,0.77857
7196.15,0.78432
7173,0.79178
7149.86,0.78266
7126.71,0.78002
7103.57,0.78619
7080.42,0.78863
7057.28,0.78159
7034.13,0.77462
7010.99,0.78034
6987.84,0.78149
6964.7,0.79342
6941.55,0.79785
6918.41,0.80188
6895.26,0.79906
6872.12,0.80934
6848.97,0.81165
6825.83,0.81506
6802.68,0.82875
6779.54,0.82701
6756.39,0.82347
6733.25,0.82702
6710.1,0.82833
6686.96,0.83169
6663.82,0.83622
6640.67,0.83370
6617.53,0.83979
6594.38,0.84593
6571.24,0.84151
6548.09,0.84736
6524.95,0.84382
6501.8,0.84029
6478.66,0.84045
6455.51,0.84586
6432.37,0.84339
6409.22,0.84244
6386.08,0.84290
6362.93,0.84159
6339.79,0.83521
6316.64,0.83130
6293.5,0.83586
6270.35,0.83649
6247.21,0.82393
6224.06,0.82013
6200.92,0.78243
6177.77,0.78035
6154.63,0.76985
6131.48,0.75746
6108.34,0.70719
6085.19,0.61454
6062.05,0.53539
6038.9,0.48006
6015.76,0.47089
5992.61,0.54043
5969.47,0.57970
5946.32,0.55795
5923.18,0.58697
5900.03,0.60925
5876.89,0.62077
5853.74,0.63449
5830.6,0.61715
5807.45,0.57913
5784.31,0.58981
5761.16,0.62256
5738.02,0.63072
5714.87,0.64913
5691.73,0.66488
5668.58,0.67525
5645.44,0.67773
5622.29,0.70038
5599.15,0.71102
5576,0.69968
5552.86,0.69238
5529.71,0.69463
5506.57,0.70623
5483.42,0.70131
5460.28,0.70285
5437.13,0.72304
5413.99,0.72948
5390.84,0.72825
5367.7,0.73008
5344.55,0.72760
5321.41,0.73279
5298.26,0.73117
5275.12,0.72512
5251.97,0.72100
5228.83,0.72649
5205.68,0.72480
5182.54,0.72242
5159.39,0.71778
5136.25,0.70172
5113.1,0.68028
5089.96,0.67914
5066.81,0.71712
5043.67,0.72871
5020.52,0.72543
4997.38,0.72821
4974.23,0.73001
4951.09,0.72687
4927.94,0.71850
4904.8,0.71603
4881.65,0.71049
4858.51,0.70335
4835.36,0.68253
4812.22,0.64168
4789.07,0.62825
4765.93,0.65097
4742.78,0.61963
4719.64,0.51038
4696.49,0.44802
4673.35,0.47799
4650.2,0.51119
4627.06,0.48347
4603.92,0.57417
4580.77,0.51281
4557.63,0.60345
4534.48,0.60256
4511.34,0.56918
4488.19,0.46598
4465.05,0.42667
4441.9,0.34463
4418.76,0.31976
4395.61,0.35729
4372.47,0.34850
4349.32,0.34362
4326.18,0.36443
4303.03,0.37025
4279.89,0.34799
4256.74,0.34720
4233.6,0.35285
4210.45,0.34648
4187.31,0.35894
4164.16,0.37887
4141.02,0.41488
4117.87,0.37685
4094.73,0.26730
4071.58,0.31737
4048.44,0.36607
4025.29,0.38859
4002.15,0.41419
3979,0.44411
3955.86,0.43895
3932.71,0.41644
3909.57,0.42239
3886.42,0.45465
3863.28,0.48110
3840.13,0.49405
3816.99,0.48474
3793.84,0.50433
3770.7,0.49689
3747.55,0.50242
3724.41,0.50837
3701.26,0.48119
3678.12,0.46006
3654.97,0.51941
3631.83,0.48215
3608.68,0.43442
3585.54,0.35592
3562.39,0.28439
3539.25,0.27103
3516.1,0.30129
3492.96,0.32925
3469.81,0.31786
3446.67,0.23237
3423.52,0.16709
3400.38,0.24776
3377.23,0.33476
3354.09,0.32935
3330.94,0.28228
3307.8,0.31772
3284.65,0.31170
3261.51,0.32847
3238.36,0.31760
3215.22,0.31505
3192.07,0.31206
3168.93,0.30014
3145.78,0.27517
3122.64,0.23134
3099.49,0.19174
3076.35,0.16410
3053.2,0.15409
3030.06,0.20685
3006.91,0.10790
2983.77,0.03793
2960.62,0.03592
2937.48,0.07469
2914.33,0.07314
2891.19,0.08271
2868.04,0.11611
2844.9,0.15507
2821.75,0.22579
2798.61,0.25669
2775.46,0.26737
2752.32,0.30353
2729.17,0.33164
2706.03,0.35460
2682.88,0.36705
2659.74,0.36067
2636.59,0.32475
2613.45,0.32808
2590.3,0.31095
2567.16,0.29496
2544.02,0.27796
2520.87,0.29752
2497.73,0.33100
2474.58,0.35543
2451.44,0.35913
2428.29,0.29840
2405.15,0.24054
2382,0.21915
2358.86,0.26521
2335.71,0.33426
2312.57,0.35900
2289.42,0.29740
2266.28,0.30557
2243.13,0.27743
2219.99,0.27548
2196.84,0.28931
2173.7,0.30931
2150.55,0.27729
2127.41,0.25967
2104.26,0.24802
2081.12,0.25769
2057.97,0.26216
2034.83,0.26362
2011.68,0.26072
1988.54,0.23727
1965.39,0.17996
1942.25,0.16999
1919.1,0.25361
1895.96,0.24600
1872.81,0.22881
1849.67,0.17824
1826.52,0.10858
1803.38,0.09734
1780.23,0.07583
1757.09,0.03827
1733.94,0.01677
1710.8,0.03143
1687.65,0.04272
1664.51,0.07413
1641.36,0.11197
1618.22,0.11203
1595.07,0.13949
1571.93,0.09104
1548.78,0.13536
1525.64,0.09324
1502.49,0.03665
1479.35,0.05017
1456.2,0.03243
1433.06,0.05054
1409.91,0.01822
1386.77,0.02343
1363.62,0.02715
1340.48,0.02740
1317.33,0.01665
1294.19,0.01761
1271.04,0.03930
1247.9,0.03801
1224.75,0.03599
1201.61,0.06498
1178.46,0.05290
1155.32,0.03378
1132.17,0.02050
1109.03,0.02504
1085.88,0.02885
1062.74,0.06543
1039.59,0.03114
1016.45,0.03182
993.304,0.11592
970.159,0.07531
947.014,0.06103
923.869,0.08732
900.724,0.09307
877.579,0.04287
854.434,0.07090
831.289,0.10618
808.144,0.11147
784.999,0.13357
761.854,0.12782
738.709,0.02356
715.565,0.08740
692.42,0.18703
669.275,0.20125
646.13,0.22005
622.985,0.23132
599.84,0.24130