File: 01_Data/Triexta_Carpet_High_Pile/FTIR/IS/Triexta_Carpet_High_Pile_IS_S_221121_R4.dpt
7497.03,0.85068
7473.89,0.84512
7450.74,0.84956
7427.6,0.82882
7404.45,0.82085
7381.31,0.82399
7358.16,0.81242
7335.02,0.79250
7311.87,0.79101
7288.73,0.80364
7265.58,0.79645
7242.44,0.79619
7219.29,0.79064
7196.15,0.77631
7173,0.78916
7149.86,0.78623
7126.71,0.78714
7103.57,0.78731
7080.42,0.78163
7057.28,0.78396
7034.13,0.76980
7010.99,0.77625
6987.84,0.78556
6964.7,0.80417
6941.55,0.79594
6918.41,0.80459
6895.26,0.80746
6872.12,0.80365
6848.97,0.80843
6825.83,0.81631
6802.68,0.83157
6779.54,0.82745
6756.39,0.82636
6733.25,0.82121
6710.1,0.83565
6686.96,0.82928
6663.82,0.83080
6640.67,0.83091
6617.53,0.84104
6594.38,0.84175
6571.24,0.83904
6548.09,0.84155
6524.95,0.83657
6501.8,0.84263
6478.66,0.84614
6455.51,0.84152
6432.37,0.84491
6409.22,0.83790
6386.08,0.84394
6362.93,0.83904
6339.79,0.83198
6316.64,0.83348
6293.5,0.83393
6270.35,0.83114
6247.21,0.82773
6224.06,0.81536
6200.92,0.78105
6177.77,0.77975
6154.63,0.76746
6131.48,0.75162
6108.34,0.70338
6085.19,0.61852
6062.05,0.53487
6038.9,0.48113
6015.76,0.47196
5992.61,0.54548
5969.47,0.57491
5946.32,0.55717
5923.18,0.58986
5900.03,0.60937
5876.89,0.62006
5853.74,0.63589
5830.6,0.61404
5807.45,0.57527
5784.31,0.59036
5761.16,0.61873
5738.02,0.62975
5714.87,0.64908
5691.73,0.66696
5668.58,0.67428
5645.44,0.67584
5622.29,0.69969
5599.15,0.71098
5576,0.69973
5552.86,0.69179
5529.71,0.69574
5506.57,0.70790
5483.42,0.70159
5460.28,0.70498
5437.13,0.72225
5413.99,0.72796
5390.84,0.73041
5367.7,0.72759
5344.55,0.72466
5321.41,0.73209
5298.26,0.73272
5275.12,0.72247
5251.97,0.71920
5228.83,0.72518
5205.68,0.72372
5182.54,0.72136
5159.39,0.71642
5136.25,0.70162
5113.1,0.68011
5089.96,0.67666
5066.81,0.71588
5043.67,0.72785
5020.52,0.72413
4997.38,0.72534
4974.23,0.72738
4951.09,0.72374
4927.94,0.71784
4904.8,0.71399
4881.65,0.70812
4858.51,0.70228
4835.36,0.68164
4812.22,0.64065
4789.07,0.62552
4765.93,0.64974
4742.78,0.61604
4719.64,0.50986
4696.49,0.44772
4673.35,0.47683
4650.2,0.51074
4627.06,0.48215
4603.92,0.57369
4580.77,0.51213
4557.63,0.60161
4534.48,0.60038
4511.34,0.56789
4488.19,0.46414
4465.05,0.42588
4441.9,0.34441
4418.76,0.31953
4395.61,0.35627
4372.47,0.34728
4349.32,0.34281
4326.18,0.36311
4303.03,0.36990
4279.89,0.34834
4256.74,0.34647
4233.6,0.35152
4210.45,0.34527
4187.31,0.35925
4164.16,0.37800
4141.02,0.41322
4117.87,0.37589
4094.73,0.26603
4071.58,0.31648
4048.44,0.36499
4025.29,0.38738
4002.15,0.41317
3979,0.44312
3955.86,0.43779
3932.71,0.41623
3909.57,0.42097
3886.42,0.45306
3863.28,0.48034
3840.13,0.49282
3816.99,0.48234
3793.84,0.50247
3770.7,0.49557
3747.55,0.50128
3724.41,0.50732
3701.26,0.48008
3678.12,0.45964
3654.97,0.51846
3631.83,0.47986
3608.68,0.43313
3585.54,0.35504
3562.39,0.28279
3539.25,0.27003
3516.1,0.30078
3492.96,0.32851
3469.81,0.31713
3446.67,0.23274
3423.52,0.16655
3400.38,0.24737
3377.23,0.33327
3354.09,0.32795
3330.94,0.28133
3307.8,0.31692
3284.65,0.31069
3261.51,0.32795
3238.36,0.31697
3215.22,0.31430
3192.07,0.31095
3168.93,0.29923
3145.78,0.27485
3122.64,0.23037
3099.49,0.19103
3076.35,0.16355
3053.2,0.15359
3030.06,0.20604
3006.91,0.10713
2983.77,0.03843
2960.62,0.03579
2937.48,0.07511
2914.33,0.07388
2891.19,0.08298
2868.04,0.11612
2844.9,0.15453
2821.75,0.22580
2798.61,0.25585
2775.46,0.26665
2752.32,0.30267
2729.17,0.33074
2706.03,0.35268
2682.88,0.36651
2659.74,0.35988
2636.59,0.32408
2613.45,0.32739
2590.3,0.31035
2567.16,0.29380
2544.02,0.27693
2520.87,0.29702
2497.73,0.32968
2474.58,0.35460
2451.44,0.35884
2428.29,0.29759
2405.15,0.24002
2382,0.21811
2358.86,0.26439
2335.71,0.33334
2312.57,0.35838
2289.42,0.29698
2266.28,0.30459
2243.13,0.27641
2219.99,0.27465
2196.84,0.28864
2173.7,0.30899
2150.55,0.27691
2127.41,0.25923
2104.26,0.24784
2081.12,0.25706
2057.97,0.26153
2034.83,0.26250
2011.68,0.26037
1988.54,0.23693
1965.39,0.17955
1942.25,0.16988
1919.1,0.25320
1895.96,0.24540
1872.81,0.22856
1849.67,0.17792
1826.52,0.10866
1803.38,0.09783
1780.23,0.07541
1757.09,0.03828
1733.94,0.01668
1710.8,0.03132
1687.65,0.04263
1664.51,0.07454
1641.36,0.11166
1618.22,0.11199
1595.07,0.13962
1571.93,0.09090
1548.78,0.13519
1525.64,0.09327
1502.49,0.03711
1479.35,0.04982
1456.2,0.03260
1433.06,0.05063
1409.91,0.01824
1386.77,0.02321
1363.62,0.02741
1340.48,0.02735
1317.33,0.01662
1294.19,0.01744
1271.04,0.03957
1247.9,0.03755
1224.75,0.03644
1201.61,0.06529
1178.46,0.05345
1155.32,0.03412
1132.17,0.02142
1109.03,0.02594
1085.88,0.02909
1062.74,0.06586
1039.59,0.03086
1016.45,0.03235
993.304,0.11633
970.159,0.07535
947.014,0.06129
923.869,0.08700
900.724,0.09332
877.579,0.04294
854.434,0.07162
831.289,0.10651
808.144,0.11199
784.999,0.13300
761.854,0.12696
738.709,0.02342
715.565,0.08565
692.42,0.18683
669.275,0.20238
646.13,0.21966
622.985,0.23234
599.84,0.24180