File: 01_Data/Triexta_Carpet_High_Pile/FTIR/IS/Triexta_Carpet_High_Pile_IS_S_221121_R2.dpt
7497.03,0.84177
7473.89,0.84257
7450.74,0.82583
7427.6,0.83009
7404.45,0.82066
7381.31,0.82847
7358.16,0.79327
7335.02,0.79335
7311.87,0.78898
7288.73,0.79831
7265.58,0.78835
7242.44,0.78728
7219.29,0.78669
7196.15,0.77678
7173,0.78316
7149.86,0.78262
7126.71,0.78955
7103.57,0.78114
7080.42,0.78012
7057.28,0.79182
7034.13,0.77741
7010.99,0.78065
6987.84,0.78738
6964.7,0.78958
6941.55,0.79996
6918.41,0.80758
6895.26,0.80181
6872.12,0.80725
6848.97,0.82049
6825.83,0.81489
6802.68,0.82211
6779.54,0.82696
6756.39,0.82466
6733.25,0.82993
6710.1,0.82903
6686.96,0.83747
6663.82,0.83772
6640.67,0.84212
6617.53,0.84491
6594.38,0.84450
6571.24,0.84336
6548.09,0.84487
6524.95,0.84595
6501.8,0.84816
6478.66,0.84265
6455.51,0.84009
6432.37,0.84150
6409.22,0.84471
6386.08,0.84422
6362.93,0.84375
6339.79,0.83702
6316.64,0.83539
6293.5,0.83376
6270.35,0.83320
6247.21,0.82593
6224.06,0.81383
6200.92,0.78393
6177.77,0.78454
6154.63,0.76998
6131.48,0.75383
6108.34,0.70573
6085.19,0.62340
6062.05,0.53174
6038.9,0.48208
6015.76,0.47255
5992.61,0.54475
5969.47,0.57961
5946.32,0.55729
5923.18,0.58929
5900.03,0.61087
5876.89,0.62113
5853.74,0.63798
5830.6,0.61493
5807.45,0.57876
5784.31,0.58903
5761.16,0.61996
5738.02,0.63022
5714.87,0.65275
5691.73,0.66643
5668.58,0.67558
5645.44,0.68048
5622.29,0.69933
5599.15,0.71107
5576,0.70119
5552.86,0.69302
5529.71,0.69882
5506.57,0.70539
5483.42,0.70275
5460.28,0.70537
5437.13,0.72422
5413.99,0.72978
5390.84,0.73039
5367.7,0.72953
5344.55,0.72793
5321.41,0.73569
5298.26,0.73487
5275.12,0.72421
5251.97,0.72165
5228.83,0.72583
5205.68,0.72662
5182.54,0.72441
5159.39,0.72025
5136.25,0.70348
5113.1,0.68254
5089.96,0.67964
5066.81,0.71749
5043.67,0.73132
5020.52,0.72681
4997.38,0.72799
4974.23,0.73215
4951.09,0.72468
4927.94,0.71890
4904.8,0.71594
4881.65,0.71135
4858.51,0.70385
4835.36,0.68440
4812.22,0.64253
4789.07,0.62887
4765.93,0.65172
4742.78,0.61751
4719.64,0.51204
4696.49,0.44902
4673.35,0.47830
4650.2,0.51191
4627.06,0.48424
4603.92,0.57571
4580.77,0.51458
4557.63,0.60451
4534.48,0.60226
4511.34,0.57029
4488.19,0.46594
4465.05,0.42665
4441.9,0.34471
4418.76,0.31970
4395.61,0.35685
4372.47,0.34882
4349.32,0.34463
4326.18,0.36455
4303.03,0.37147
4279.89,0.34926
4256.74,0.34768
4233.6,0.35348
4210.45,0.34678
4187.31,0.35923
4164.16,0.37923
4141.02,0.41526
4117.87,0.37663
4094.73,0.26640
4071.58,0.31761
4048.44,0.36602
4025.29,0.38858
4002.15,0.41449
3979,0.44483
3955.86,0.43917
3932.71,0.41783
3909.57,0.42224
3886.42,0.45542
3863.28,0.48201
3840.13,0.49449
3816.99,0.48385
3793.84,0.50498
3770.7,0.49787
3747.55,0.50342
3724.41,0.50938
3701.26,0.48192
3678.12,0.46085
3654.97,0.51888
3631.83,0.47967
3608.68,0.43323
3585.54,0.35485
3562.39,0.28243
3539.25,0.27040
3516.1,0.30014
3492.96,0.32838
3469.81,0.31665
3446.67,0.23223
3423.52,0.16621
3400.38,0.24547
3377.23,0.33297
3354.09,0.32847
3330.94,0.28094
3307.8,0.31700
3284.65,0.30985
3261.51,0.32771
3238.36,0.31719
3215.22,0.31380
3192.07,0.31147
3168.93,0.29949
3145.78,0.27493
3122.64,0.23147
3099.49,0.19173
3076.35,0.16398
3053.2,0.15417
3030.06,0.20722
3006.91,0.10724
2983.77,0.03786
2960.62,0.03638
2937.48,0.07491
2914.33,0.07340
2891.19,0.08248
2868.04,0.11609
2844.9,0.15505
2821.75,0.22579
2798.61,0.25663
2775.46,0.26784
2752.32,0.30349
2729.17,0.33186
2706.03,0.35429
2682.88,0.36732
2659.74,0.36153
2636.59,0.32510
2613.45,0.32864
2590.3,0.31158
2567.16,0.29501
2544.02,0.27810
2520.87,0.29797
2497.73,0.33108
2474.58,0.35578
2451.44,0.35996
2428.29,0.29871
2405.15,0.24111
2382,0.21918
2358.86,0.26526
2335.71,0.33461
2312.57,0.35965
2289.42,0.29796
2266.28,0.30612
2243.13,0.27779
2219.99,0.27547
2196.84,0.28985
2173.7,0.30963
2150.55,0.27812
2127.41,0.26049
2104.26,0.24842
2081.12,0.25786
2057.97,0.26252
2034.83,0.26322
2011.68,0.26096
1988.54,0.23752
1965.39,0.18035
1942.25,0.17019
1919.1,0.25410
1895.96,0.24629
1872.81,0.22963
1849.67,0.17877
1826.52,0.10896
1803.38,0.09756
1780.23,0.07569
1757.09,0.03837
1733.94,0.01661
1710.8,0.03131
1687.65,0.04238
1664.51,0.07442
1641.36,0.11176
1618.22,0.11206
1595.07,0.14007
1571.93,0.09108
1548.78,0.13588
1525.64,0.09335
1502.49,0.03706
1479.35,0.05013
1456.2,0.03243
1433.06,0.05075
1409.91,0.01855
1386.77,0.02292
1363.62,0.02719
1340.48,0.02749
1317.33,0.01657
1294.19,0.01705
1271.04,0.03937
1247.9,0.03754
1224.75,0.03643
1201.61,0.06503
1178.46,0.05296
1155.32,0.03400
1132.17,0.01999
1109.03,0.02532
1085.88,0.02873
1062.74,0.06570
1039.59,0.03053
1016.45,0.03240
993.304,0.11704
970.159,0.07543
947.014,0.06176
923.869,0.08693
900.724,0.09304
877.579,0.04205
854.434,0.07218
831.289,0.10603
808.144,0.11101
784.999,0.13323
761.854,0.12694
738.709,0.02478
715.565,0.08632
692.42,0.18761
669.275,0.20303
646.13,0.21879
622.985,0.23148
599.84,0.23973