File: 01_Data/Triexta_Carpet_High_Pile/FTIR/IS/Triexta_Carpet_High_Pile_IS_S_221121_R8.dpt
7497.03,0.83556
7473.89,0.83815
7450.74,0.83644
7427.6,0.82767
7404.45,0.81896
7381.31,0.81794
7358.16,0.80428
7335.02,0.79604
7311.87,0.79831
7288.73,0.80020
7265.58,0.80232
7242.44,0.78842
7219.29,0.77449
7196.15,0.78839
7173,0.78165
7149.86,0.78823
7126.71,0.78939
7103.57,0.78034
7080.42,0.77966
7057.28,0.77408
7034.13,0.77651
7010.99,0.77423
6987.84,0.78395
6964.7,0.79834
6941.55,0.80253
6918.41,0.79596
6895.26,0.80103
6872.12,0.80298
6848.97,0.80916
6825.83,0.81602
6802.68,0.83002
6779.54,0.82567
6756.39,0.82607
6733.25,0.82773
6710.1,0.83573
6686.96,0.83077
6663.82,0.83800
6640.67,0.83578
6617.53,0.84111
6594.38,0.84288
6571.24,0.83964
6548.09,0.84350
6524.95,0.84213
6501.8,0.84452
6478.66,0.84115
6455.51,0.84559
6432.37,0.83769
6409.22,0.84385
6386.08,0.83936
6362.93,0.84088
6339.79,0.83834
6316.64,0.83669
6293.5,0.83400
6270.35,0.82924
6247.21,0.82252
6224.06,0.81886
6200.92,0.78308
6177.77,0.78336
6154.63,0.76891
6131.48,0.75425
6108.34,0.70529
6085.19,0.61840
6062.05,0.53141
6038.9,0.48195
6015.76,0.47403
5992.61,0.54406
5969.47,0.57873
5946.32,0.55875
5923.18,0.58947
5900.03,0.61494
5876.89,0.62077
5853.74,0.63720
5830.6,0.61746
5807.45,0.57696
5784.31,0.58972
5761.16,0.61800
5738.02,0.63063
5714.87,0.64895
5691.73,0.66498
5668.58,0.67636
5645.44,0.67643
5622.29,0.70190
5599.15,0.70943
5576,0.69862
5552.86,0.69067
5529.71,0.69561
5506.57,0.70499
5483.42,0.70036
5460.28,0.70553
5437.13,0.72454
5413.99,0.72881
5390.84,0.73135
5367.7,0.73065
5344.55,0.72557
5321.41,0.73559
5298.26,0.73475
5275.12,0.72424
5251.97,0.72018
5228.83,0.72519
5205.68,0.72337
5182.54,0.72271
5159.39,0.71702
5136.25,0.70186
5113.1,0.68037
5089.96,0.67929
5066.81,0.71849
5043.67,0.72938
5020.52,0.72609
4997.38,0.72592
4974.23,0.73013
4951.09,0.72561
4927.94,0.71884
4904.8,0.71608
4881.65,0.71073
4858.51,0.70300
4835.36,0.68323
4812.22,0.64004
4789.07,0.62746
4765.93,0.65106
4742.78,0.61831
4719.64,0.51088
4696.49,0.44780
4673.35,0.47788
4650.2,0.51232
4627.06,0.48455
4603.92,0.57323
4580.77,0.51365
4557.63,0.60310
4534.48,0.60142
4511.34,0.56869
4488.19,0.46545
4465.05,0.42664
4441.9,0.34493
4418.76,0.31952
4395.61,0.35660
4372.47,0.34805
4349.32,0.34345
4326.18,0.36485
4303.03,0.37040
4279.89,0.34894
4256.74,0.34661
4233.6,0.35261
4210.45,0.34678
4187.31,0.35913
4164.16,0.37887
4141.02,0.41512
4117.87,0.37697
4094.73,0.26643
4071.58,0.31707
4048.44,0.36637
4025.29,0.38849
4002.15,0.41349
3979,0.44426
3955.86,0.43877
3932.71,0.41727
3909.57,0.42229
3886.42,0.45460
3863.28,0.48131
3840.13,0.49431
3816.99,0.48407
3793.84,0.50361
3770.7,0.49769
3747.55,0.50215
3724.41,0.50799
3701.26,0.48111
3678.12,0.46154
3654.97,0.52248
3631.83,0.48381
3608.68,0.43590
3585.54,0.35657
3562.39,0.28370
3539.25,0.27212
3516.1,0.30178
3492.96,0.32966
3469.81,0.31860
3446.67,0.23294
3423.52,0.16654
3400.38,0.24792
3377.23,0.33520
3354.09,0.33002
3330.94,0.28291
3307.8,0.31773
3284.65,0.31141
3261.51,0.32843
3238.36,0.31859
3215.22,0.31567
3192.07,0.31266
3168.93,0.30067
3145.78,0.27524
3122.64,0.23133
3099.49,0.19166
3076.35,0.16404
3053.2,0.15444
3030.06,0.20666
3006.91,0.10755
2983.77,0.03803
2960.62,0.03581
2937.48,0.07524
2914.33,0.07341
2891.19,0.08260
2868.04,0.11578
2844.9,0.15509
2821.75,0.22543
2798.61,0.25638
2775.46,0.26739
2752.32,0.30338
2729.17,0.33165
2706.03,0.35431
2682.88,0.36736
2659.74,0.36109
2636.59,0.32540
2613.45,0.32825
2590.3,0.31108
2567.16,0.29407
2544.02,0.27774
2520.87,0.29777
2497.73,0.33084
2474.58,0.35528
2451.44,0.35927
2428.29,0.29829
2405.15,0.24071
2382,0.21907
2358.86,0.26477
2335.71,0.33404
2312.57,0.35898
2289.42,0.29799
2266.28,0.30604
2243.13,0.27743
2219.99,0.27488
2196.84,0.28934
2173.7,0.30974
2150.55,0.27743
2127.41,0.26013
2104.26,0.24846
2081.12,0.25791
2057.97,0.26213
2034.83,0.26282
2011.68,0.26089
1988.54,0.23716
1965.39,0.18015
1942.25,0.16966
1919.1,0.25348
1895.96,0.24583
1872.81,0.22886
1849.67,0.17834
1826.52,0.10822
1803.38,0.09758
1780.23,0.07571
1757.09,0.03765
1733.94,0.01678
1710.8,0.03184
1687.65,0.04279
1664.51,0.07442
1641.36,0.11197
1618.22,0.11240
1595.07,0.13954
1571.93,0.09098
1548.78,0.13535
1525.64,0.09316
1502.49,0.03695
1479.35,0.04999
1456.2,0.03279
1433.06,0.05060
1409.91,0.01832
1386.77,0.02318
1363.62,0.02693
1340.48,0.02750
1317.33,0.01657
1294.19,0.01719
1271.04,0.03950
1247.9,0.03752
1224.75,0.03652
1201.61,0.06501
1178.46,0.05276
1155.32,0.03340
1132.17,0.02090
1109.03,0.02591
1085.88,0.02915
1062.74,0.06541
1039.59,0.03094
1016.45,0.03220
993.304,0.11643
970.159,0.07482
947.014,0.06109
923.869,0.08768
900.724,0.09279
877.579,0.04378
854.434,0.07154
831.289,0.10691
808.144,0.11176
784.999,0.13415
761.854,0.12715
738.709,0.02387
715.565,0.08600
692.42,0.18856
669.275,0.20179
646.13,0.22174
622.985,0.23305
599.84,0.24140