File: 01_Data/Triexta_Carpet_High_Pile/FTIR/IS/Triexta_Carpet_High_Pile_IS_S_221121_R3.dpt
7497.03,0.85317
7473.89,0.83408
7450.74,0.84563
7427.6,0.82530
7404.45,0.82421
7381.31,0.81734
7358.16,0.80795
7335.02,0.79171
7311.87,0.79137
7288.73,0.79940
7265.58,0.79886
7242.44,0.78769
7219.29,0.78819
7196.15,0.77928
7173,0.79292
7149.86,0.78240
7126.71,0.78276
7103.57,0.77868
7080.42,0.77957
7057.28,0.78071
7034.13,0.77576
7010.99,0.78018
6987.84,0.78250
6964.7,0.79500
6941.55,0.80101
6918.41,0.80774
6895.26,0.80117
6872.12,0.80998
6848.97,0.81084
6825.83,0.80997
6802.68,0.82201
6779.54,0.83037
6756.39,0.82462
6733.25,0.82450
6710.1,0.82824
6686.96,0.83402
6663.82,0.82982
6640.67,0.83970
6617.53,0.84126
6594.38,0.84753
6571.24,0.84026
6548.09,0.84709
6524.95,0.84644
6501.8,0.84589
6478.66,0.84248
6455.51,0.84092
6432.37,0.84318
6409.22,0.83951
6386.08,0.83544
6362.93,0.83906
6339.79,0.83810
6316.64,0.83175
6293.5,0.83297
6270.35,0.82902
6247.21,0.82671
6224.06,0.82158
6200.92,0.78398
6177.77,0.78439
6154.63,0.76815
6131.48,0.75590
6108.34,0.70569
6085.19,0.61795
6062.05,0.53494
6038.9,0.48009
6015.76,0.47113
5992.61,0.53809
5969.47,0.57840
5946.32,0.55999
5923.18,0.59174
5900.03,0.61105
5876.89,0.62038
5853.74,0.63524
5830.6,0.61507
5807.45,0.57736
5784.31,0.58750
5761.16,0.62229
5738.02,0.62955
5714.87,0.65137
5691.73,0.66768
5668.58,0.67645
5645.44,0.67715
5622.29,0.69736
5599.15,0.70968
5576,0.70024
5552.86,0.69175
5529.71,0.69677
5506.57,0.70540
5483.42,0.70147
5460.28,0.70438
5437.13,0.72408
5413.99,0.72978
5390.84,0.73060
5367.7,0.72990
5344.55,0.72582
5321.41,0.73538
5298.26,0.73357
5275.12,0.72434
5251.97,0.72140
5228.83,0.72725
5205.68,0.72385
5182.54,0.72025
5159.39,0.71699
5136.25,0.70130
5113.1,0.68056
5089.96,0.67870
5066.81,0.71713
5043.67,0.72824
5020.52,0.72639
4997.38,0.72640
4974.23,0.73133
4951.09,0.72615
4927.94,0.71884
4904.8,0.71568
4881.65,0.71056
4858.51,0.70212
4835.36,0.68384
4812.22,0.64261
4789.07,0.62753
4765.93,0.65097
4742.78,0.62021
4719.64,0.50942
4696.49,0.44838
4673.35,0.47807
4650.2,0.51234
4627.06,0.48317
4603.92,0.57386
4580.77,0.51285
4557.63,0.60420
4534.48,0.60175
4511.34,0.56968
4488.19,0.46511
4465.05,0.42632
4441.9,0.34362
4418.76,0.31955
4395.61,0.35659
4372.47,0.34866
4349.32,0.34344
4326.18,0.36463
4303.03,0.37073
4279.89,0.34920
4256.74,0.34671
4233.6,0.35331
4210.45,0.34658
4187.31,0.35920
4164.16,0.37802
4141.02,0.41458
4117.87,0.37665
4094.73,0.26663
4071.58,0.31766
4048.44,0.36536
4025.29,0.38805
4002.15,0.41399
3979,0.44422
3955.86,0.43895
3932.71,0.41620
3909.57,0.42186
3886.42,0.45412
3863.28,0.48118
3840.13,0.49506
3816.99,0.48417
3793.84,0.50389
3770.7,0.49717
3747.55,0.50269
3724.41,0.50803
3701.26,0.48080
3678.12,0.46065
3654.97,0.51939
3631.83,0.48061
3608.68,0.43323
3585.54,0.35480
3562.39,0.28292
3539.25,0.27009
3516.1,0.30063
3492.96,0.32821
3469.81,0.31752
3446.67,0.23210
3423.52,0.16683
3400.38,0.24687
3377.23,0.33327
3354.09,0.32792
3330.94,0.28143
3307.8,0.31716
3284.65,0.31009
3261.51,0.32813
3238.36,0.31670
3215.22,0.31412
3192.07,0.31150
3168.93,0.29924
3145.78,0.27553
3122.64,0.23135
3099.49,0.19116
3076.35,0.16432
3053.2,0.15380
3030.06,0.20710
3006.91,0.10769
2983.77,0.03784
2960.62,0.03627
2937.48,0.07476
2914.33,0.07319
2891.19,0.08284
2868.04,0.11652
2844.9,0.15472
2821.75,0.22602
2798.61,0.25705
2775.46,0.26712
2752.32,0.30353
2729.17,0.33100
2706.03,0.35383
2682.88,0.36686
2659.74,0.36081
2636.59,0.32441
2613.45,0.32813
2590.3,0.31105
2567.16,0.29476
2544.02,0.27767
2520.87,0.29770
2497.73,0.33115
2474.58,0.35534
2451.44,0.35955
2428.29,0.29886
2405.15,0.24071
2382,0.21912
2358.86,0.26465
2335.71,0.33391
2312.57,0.35875
2289.42,0.29731
2266.28,0.30574
2243.13,0.27704
2219.99,0.27533
2196.84,0.28901
2173.7,0.30939
2150.55,0.27766
2127.41,0.25995
2104.26,0.24832
2081.12,0.25773
2057.97,0.26220
2034.83,0.26321
2011.68,0.26070
1988.54,0.23733
1965.39,0.18008
1942.25,0.17013
1919.1,0.25368
1895.96,0.24623
1872.81,0.22937
1849.67,0.17857
1826.52,0.10872
1803.38,0.09784
1780.23,0.07560
1757.09,0.03792
1733.94,0.01651
1710.8,0.03133
1687.65,0.04273
1664.51,0.07467
1641.36,0.11183
1618.22,0.11216
1595.07,0.13942
1571.93,0.09122
1548.78,0.13548
1525.64,0.09329
1502.49,0.03686
1479.35,0.04970
1456.2,0.03226
1433.06,0.05069
1409.91,0.01807
1386.77,0.02285
1363.62,0.02765
1340.48,0.02762
1317.33,0.01670
1294.19,0.01735
1271.04,0.03943
1247.9,0.03740
1224.75,0.03613
1201.61,0.06533
1178.46,0.05315
1155.32,0.03389
1132.17,0.01981
1109.03,0.02565
1085.88,0.02941
1062.74,0.06559
1039.59,0.03073
1016.45,0.03213
993.304,0.11666
970.159,0.07473
947.014,0.06135
923.869,0.08662
900.724,0.09300
877.579,0.04288
854.434,0.07194
831.289,0.10726
808.144,0.11174
784.999,0.13344
761.854,0.12699
738.709,0.02283
715.565,0.08577
692.42,0.18636
669.275,0.20206
646.13,0.21790
622.985,0.23079
599.84,0.23980